EEG 1, EEG 2, EEG 3, EEG 4, EEG 5, EEG 6, EEG 7, EEG 8, ACC X, ACC Y, ACC Z, GYR X, GYR Y, GYR Z, BAT, CNT, VALID, DT, TRIG
39434.610,38365.710,43970.980,40842.030,38675.630,41623.750,41191.930,39395.730,-0.125,0.986,-0.304,0.000,0.000,0.000,66.667,1.000,1.000,0.000,0.000
133490.000,129870.600,148820.200,138243.700,130920.300,140898.800,139436.000,133357.100,-0.125,0.988,-0.315,0.000,0.000,0.000,66.667,2.000,1.000,18.076,0.000
202878.300,197378.300,226112.700,210075.700,198972.700,214135.700,211908.300,202673.800,-0.128,0.981,-0.320,0.000,0.000,0.000,66.667,3.000,1.000,2.453,0.000
215349.800,209517.800,239923.200,222947.100,211207.000,227300.000,224925.600,215132.500,-0.134,0.973,-0.323,-3.052,6.927,-5.249,66.667,4.000,1.000,8.607,0.000
212364.900,206622.200,236520.200,219811.500,208285.900,224155.800,221798.800,212155.100,-0.141,0.963,-0.327,8.850,9.827,-2.716,66.667,5.000,1.000,10.174,0.000
201603.300,196159.900,224464.500,208625.600,197737.200,212806.000,210546.000,201409.100,-0.149,0.955,-0.332,12.756,11.047,-1.984,66.667,6.000,1.000,2.496,0.000
177490.900,172710.100,197538.500,183619.700,174092.900,187365.200,185342.700,177322.500,-0.154,0.946,-0.334,14.587,11.536,-1.801,66.667,7.000,1.000,2.490,0.000
163552.300,159155.100,181976.300,169161.800,160425.900,172661.400,170767.500,163399.500,-0.158,0.938,-0.334,15.717,11.688,-1.709,66.667,8.000,1.000,2.528,0.000
169522.900,164962.700,188621.200,175330.800,166284.000,178968.500,176996.500,169368.600,-0.159,0.931,-0.336,16.693,11.566,-1.526,66.667,9.000,1.000,2.476,0.000
180568.400,175708.700,200919.100,186754.800,177117.800,190630.300,188532.200,180407.600,-0.159,0.924,-0.338,17.548,11.536,-1.312,66.667,10.000,1.000,2.460,0.000
178679.700,173875.000,198789.600,184780.200,175265.300,188639.300,186555.200,178521.700,-0.156,0.917,-0.339,18.494,11.536,-1.007,66.667,11.000,1.000,6.260,0.000
159945.200,155650.800,177882.100,165362.800,156891.100,168865.900,166978.000,159804.500,-0.158,0.916,-0.341,19.287,11.658,-0.488,66.667,12.000,1.000,4.290,0.000
148141.900,144168.800,164718.400,153133.900,145316.200,156409.200,154644.000,148014.300,-0.164,0.917,-0.343,19.958,11.536,0.031,66.667,13.000,1.000,0.014,0.000
152828.000,148731.600,169946.300,157985.200,149915.000,161359.900,159540.800,152700.400,-0.168,0.920,-0.343,20.721,11.505,0.488,66.667,14.000,1.000,10.694,0.000
161976.700,157637.800,180143.000,167455.000,158891.300,171022.700,169101.300,161844.700,-0.174,0.924,-0.345,21.423,11.353,0.702,66.667,15.000,1.000,3.041,0.000
161008.300,156700.400,179050.900,166445.700,157945.700,170006.300,168092.500,160880.800,-0.176,0.929,-0.350,22.064,11.047,1.068,66.667,16.000,1.000,0.015,0.000
146785.000,142865.600,163178.600,151708.200,143998.700,154996.800,153235.300,146672.800,-0.172,0.936,-0.356,22.583,10.681,1.465,66.667,17.000,1.000,1.932,0.000
137720.300,134047.000,153065.600,142312.800,135106.300,145429.300,143763.200,137614.600,-0.168,0.938,-0.362,22.980,10.406,1.831,66.667,18.000,1.000,8.753,0.000
141238.000,137467.200,156985.800,145950.300,138550.100,149140.400,147433.200,141124.600,-0.160,0.938,-0.363,23.193,10.193,2.167,66.667,19.000,1.000,3.067,0.000
148198.800,144236.800,164741.700,153157.000,145372.100,156484.600,154702.000,148076.600,-0.152,0.936,-0.369,23.468,10.010,2.350,66.667,20.000,1.000,0.015,0.000
147586.700,143642.700,164050.400,152522.500,144771.100,155836.400,154062.700,147465.400,-0.144,0.933,-0.369,23.651,10.071,2.716,66.667,21.000,1.000,4.418,0.000
137040.500,133385.700,152284.600,141596.000,134429.200,144704.900,143047.600,136929.700,-0.139,0.934,-0.369,24.048,10.101,2.838,66.667,22.000,1.000,8.744,0.000
130184.600,126716.400,144640.800,134487.300,127707.100,137471.100,135888.500,130081.200,-0.136,0.942,-0.373,24.414,10.345,3.021,66.667,23.000,1.000,3.065,0.000
132530.200,128998.600,147258.700,136910.100,130008.000,139948.100,138339.400,132424.600,-0.129,0.948,-0.378,24.567,10.498,2.991,66.667,24.000,1.000,0.013,0.000
137444.500,133779.900,152735.100,141996.900,134824.800,145130.800,143469.100,137330.900,-0.122,0.954,-0.377,24.567,10.559,2.960,66.667,25.000,1.000,1.874,0.000
136980.800,133325.500,152209.800,141512.900,134365.000,144633.300,142978.600,136861.000,-0.114,0.955,-0.375,24.384,10.803,2.930,66.667,26.000,1.000,8.717,0.000
129451.000,125995.200,143806.000,133708.400,126975.400,136677.900,135107.000,129330.500,-0.108,0.955,-0.374,24.078,11.108,2.747,66.667,27.000,1.000,2.516,0.000
124408.000,121085.600,138179.800,128482.500,122025.600,131348.400,129834.100,124286.200,-0.105,0.950,-0.375,23.712,11.597,2.502,66.667,28.000,1.000,17.464,0.000
125713.600,122352.000,139635.000,129835.600,123303.400,132721.100,131194.500,125588.000,-0.105,0.948,-0.377,23.315,11.841,2.441,66.667,29.000,1.000,0.013,0.000
128835.000,125384.100,143112.300,133067.500,126361.700,136011.300,134451.900,128705.800,-0.106,0.946,-0.381,23.041,12.085,2.167,66.667,30.000,1.000,0.006,0.000
128407.300,124964.100,142629.100,132621.200,125938.500,135556.700,134002.800,128278.700,-0.104,0.945,-0.384,22.766,12.482,1.862,66.667,31.000,1.000,2.289,0.000
123304.300,119998.300,136935.400,127335.500,120932.200,130172.100,128673.000,123181.300,-0.102,0.945,-0.380,22.461,12.634,1.556,66.667,32.000,1.000,6.481,0.000
119715.000,116509.500,132935.200,123621.300,117413.000,126387.500,124925.600,119595.900,-0.104,0.941,-0.382,22.125,12.909,1.068,66.667,33.000,1.000,2.462,0.000
120145.600,116931.500,133418.800,124070.700,117836.400,126842.000,125377.000,120026.300,-0.105,0.937,-0.381,21.759,13.184,0.702,66.667,34.000,1.000,2.515,0.000
121776.600,118515.100,135237.600,125760.900,119435.600,128560.300,127081.900,121655.300,-0.107,0.933,-0.380,21.271,13.428,0.305,66.667,35.000,1.000,2.509,0.000
121339.200,118082.600,134747.800,125306.200,119006.000,128096.500,126625.800,121217.900,-0.110,0.930,-0.385,20.935,13.641,-0.031,66.667,36.000,1.000,2.434,0.000
118158.000,114983.500,131199.600,122010.300,115886.400,124738.500,123304.800,118040.400,-0.114,0.926,-0.386,20.599,13.733,-0.336,66.667,37.000,1.000,8.791,0.000
115727.600,112618.300,128491.000,119494.200,113504.100,122173.300,120769.100,115612.700,-0.115,0.922,-0.393,20.294,13.763,-0.702,66.667,38.000,1.000,3.108,0.000
115474.100,112372.500,128210.000,119232.500,113256.800,121904.800,120505.400,115356.800,-0.116,0.922,-0.398,20.111,13.824,-1.007,66.667,39.000,1.000,0.024,0.000
115927.500,112815.300,128717.100,119702.600,113703.600,122381.000,120978.600,115805.500,-0.118,0.922,-0.397,19.928,13.855,-1.434,66.667,40.000,1.000,5.554,0.000
115458.100,112359.800,128194.400,119216.400,113245.200,121882.400,120489.100,115334.100,-0.116,0.922,-0.404,19.806,13.855,-1.740,66.667,41.000,1.000,9.390,0.000
113744.000,110691.600,126282.900,117440.800,111565.100,120070.000,118701.500,113622.300,-0.112,0.921,-0.405,19.592,13.855,-2.106,66.667,42.000,1.000,0.016,0.000
112213.500,109202.800,124577.000,115856.800,110065.900,118453.300,117107.800,112096.200,-0.115,0.917,-0.402,19.287,13.855,-2.197,66.667,43.000,1.000,4.984,0.000
111456.300,108468.200,123735.300,115075.300,109327.600,117657.100,116322.700,111343.600,-0.116,0.915,-0.399,18.860,13.886,-2.441,66.667,44.000,1.000,0.017,0.000
111014.400,108039.600,123246.000,114620.800,108898.900,117195.800,115866.200,110906.000,-0.123,0.914,-0.401,18.463,13.977,-2.655,66.667,45.000,1.000,13.168,0.000
110498.900,107537.900,122675.000,114089.400,108395.500,116654.700,115332.200,110395.200,-0.125,0.912,-0.400,18.188,13.794,-2.930,66.667,46.000,1.000,2.414,0.000
109859.300,106915.900,121965.800,113429.500,107768.100,115980.000,114668.300,109761.600,-0.128,0.910,-0.396,17.822,13.611,-3.143,66.667,47.000,1.000,3.145,0.000
109002.900,106085.400,121013.300,112544.700,106926.400,115076.200,113775.300,108910.800,-0.129,0.910,-0.393,17.517,13.489,-3.204,66.667,48.000,1.000,0.010,0.000
107902.200,105019.600,119786.200,111405.900,105843.900,113917.800,112623.100,107811.800,-0.127,0.909,-0.394,16.968,13.153,-3.418,66.667,49.000,1.000,1.922,0.000
106822.300,103972.500,118581.700,110287.900,104781.700,112783.800,111491.900,106729.600,-0.125,0.906,-0.391,16.510,13.092,-3.387,66.667,50.000,1.000,8.737,0.000
106267.200,103432.000,117964.000,109714.500,104236.300,112203.100,110912.600,106172.900,-0.126,0.907,-0.390,15.808,12.787,-3.479,66.667,51.000,1.000,3.029,0.000
106384.100,103544.200,118096.400,109837.800,104352.200,112328.400,111037.500,106290.300,-0.129,0.906,-0.385,15.320,12.451,-3.540,66.667,52.000,1.000,0.006,0.000
106016.300,103185.300,117687.400,109457.600,103992.600,111939.000,110654.500,105922.500,-0.132,0.903,-0.381,14.709,12.115,-3.357,66.667,53.000,1.000,3.134,0.000
104703.800,101906.300,116223.700,108097.500,102705.400,110551.900,109283.500,104609.300,-0.133,0.897,-0.378,13.977,11.688,-3.296,66.667,54.000,1.000,9.464,0.000
103202.500,100444.600,114549.900,106542.600,101233.300,108968.600,107716.100,103108.700,-0.135,0.894,-0.377,13.214,11.292,-3.235,66.667,55.000,1.000,0.022,0.000
102619.800,99879.380,113902.100,105940.600,100663.600,108358.500,107110.300,102528.500,-0.136,0.889,-0.374,12.512,11.017,-3.113,66.667,56.000,1.000,1.786,0.000
103231.900,100476.400,114587.300,106576.400,101266.500,109007.500,107754.400,103144.600,-0.138,0.890,-0.369,11.963,10.590,-3.052,66.667,57.000,1.000,6.330,0.000
103199.000,100444.600,114553.100,106544.000,101237.400,108972.100,107725.800,103116.800,-0.140,0.891,-0.367,11.261,10.162,-3.082,66.667,58.000,1.000,10.509,0.000
101783.900,99067.840,112977.100,105078.700,99852.300,107478.500,106251.700,101705.200,-0.140,0.894,-0.362,10.651,9.705,-3.113,66.667,59.000,1.000,0.012,0.000
100039.100,97369.390,111032.500,103270.400,98141.620,105635.400,104428.000,99961.010,-0.139,0.895,-0.354,9.766,9.094,-3.021,66.667,60.000,1.000,1.873,0.000
99442.200,96786.890,110366.400,102651.100,97553.630,104998.700,103798.400,99361.090,-0.137,0.895,-0.347,8.881,8.667,-2.808,66.667,61.000,1.000,2.604,0.000
100347.800,97665.050,111374.300,103588.900,98438.630,105948.500,104740.900,100263.000,-0.139,0.894,-0.343,7.965,8.301,-2.686,66.667,62.000,1.000,6.177,0.000
100527.000,97835.950,111571.300,103775.200,98613.090,106138.300,104930.800,100441.800,-0.144,0.892,-0.342,6.958,7.935,-2.594,66.667,63.000,1.000,16.869,0.000
99084.120,96428.790,109960.100,102281.000,97196.130,104615.700,103422.400,98999.020,-0.150,0.892,-0.343,6.012,7.446,-2.563,66.667,64.000,1.000,0.009,0.000
97226.670,94618.660,107887.500,100356.300,95370.140,102649.800,101473.800,97138.980,-0.157,0.891,-0.348,5.066,6.866,-2.655,66.667,65.000,1.000,2.492,0.000
96620.810,94027.720,107211.500,99727.200,94771.340,102005.400,100834.200,96527.930,-0.160,0.891,-0.351,4.364,6.287,-2.686,66.667,66.000,1.000,0.005,0.000
97655.000,95033.800,108365.000,100796.900,95782.960,103096.900,101914.000,97557.160,-0.160,0.896,-0.350,3.784,5.737,-2.838,66.667,67.000,1.000,1.885,0.000
97948.510,95319.950,108692.800,101100.600,96070.300,103408.500,102221.600,97849.700,-0.158,0.902,-0.351,3.296,5.035,-2.869,66.667,68.000,1.000,5.061,0.000
96548.730,93959.240,107133.000,99651.400,94698.300,101931.000,100757.000,96450.920,-0.152,0.910,-0.347,2.472,4.425,-2.869,66.667,69.000,1.000,2.436,0.000
94694.340,92157.340,105067.100,97731.540,92881.410,99973.570,98817.090,94596.780,-0.146,0.917,-0.344,1.709,3.876,-2.960,66.667,70.000,1.000,2.496,0.000
94089.100,91571.760,104394.800,97105.570,92290.440,99336.770,98185.820,93991.950,-0.146,0.921,-0.339,0.854,3.510,-2.838,66.667,71.000,1.000,3.722,0.000
95133.490,92590.680,105562.600,98189.020,93318.320,100442.200,99280.650,95038.220,-0.146,0.919,-0.337,-0.183,3.235,-2.716,66.667,72.000,1.000,11.856,0.000
95468.030,92917.750,105938.500,98537.630,93649.690,100798.700,99634.270,95376.760,-0.146,0.916,-0.339,-1.038,3.052,-2.502,66.667,73.000,1.000,0.012,0.000
94145.060,91629.710,104463.600,97167.440,92351.790,99403.680,98255.100,94057.330,-0.145,0.913,-0.334,-1.770,2.838,-2.533,66.667,74.000,1.000,2.498,0.000
92363.280,89893.130,102474.500,95319.160,90600.170,97519.340,96393.970,92275.980,-0.145,0.907,-0.334,-2.472,2.563,-2.411,66.667,75.000,1.000,0.005,0.000
91775.720,89319.560,101817.400,94707.570,90020.080,96893.020,95778.230,91687.050,-0.143,0.902,-0.333,-3.082,2.411,-2.319,66.667,76.000,1.000,1.922,0.000
92764.980,90282.050,102920.000,95730.520,90987.870,97931.960,96807.980,92673.230,-0.141,0.899,-0.335,-3.540,2.289,-2.075,66.667,77.000,1.000,8.697,0.000
93100.130,90608.200,103293.100,96076.980,91314.630,98282.550,97154.960,93005.190,-0.139,0.899,-0.335,-3.937,1.953,-1.923,66.667,78.000,1.000,2.508,0.000
91884.710,89424.950,101938.100,94818.840,90122.450,97000.100,95886.130,91790.200,-0.135,0.897,-0.331,-4.272,1.831,-1.587,66.667,79.000,1.000,6.279,0.000
90218.380,87802.950,100082.600,93095.050,88490.130,95243.860,94147.850,90126.380,-0.135,0.899,-0.329,-4.547,1.801,-1.404,66.667,80.000,1.000,8.080,0.000
89626.750,87227.300,99426.990,92485.200,87911.850,94620.900,93530.810,89535.160,-0.130,0.898,-0.330,-4.883,1.801,-1.129,66.667,81.000,1.000,0.012,0.000
90472.680,88050.760,100373.600,93363.800,88741.780,95513.780,94414.230,90378.520,-0.127,0.896,-0.326,-5.249,1.862,-0.854,66.667,82.000,1.000,1.877,0.000
90755.240,88325.970,100690.000,93658.210,89018.030,95811.090,94709.050,90659.530,-0.125,0.898,-0.323,-5.463,1.923,-0.549,66.667,83.000,1.000,5.041,0.000
89666.740,87268.020,99477.200,92533.100,87950.660,94662.980,93574.670,89574.380,-0.119,0.901,-0.321,-5.890,2.014,-0.214,66.667,84.000,1.000,2.448,0.000
88166.360,85811.300,97806.690,90982.120,86481.060,93085.130,92013.310,88079.680,-0.112,0.905,-0.320,-6.287,2.075,0.183,66.667,85.000,1.000,2.493,0.000
87599.960,85262.830,97178.730,90398.220,85927.250,92493.870,91425.880,87515.470,-0.109,0.911,-0.320,-6.805,2.258,0.458,66.667,86.000,1.000,8.851,0.000
88292.200,85936.110,97952.850,91116.380,86606.060,93225.840,92148.910,88206.650,-0.104,0.917,-0.319,-7.233,2.502,0.885,66.667,87.000,1.000,3.070,0.000
88506.910,86143.290,98191.560,91337.410,86814.550,93448.350,92369.930,88420.200,-0.100,0.922,-0.315,-7.813,2.808,1.129,66.667,88.000,1.000,0.008,0.000
87540.030,85201.850,97112.340,90333.410,85864.350,92423.210,91356.980,87452.420,-0.096,0.922,-0.312,-8.514,3.113,1.495,66.667,89.000,1.000,1.863,0.000
86205.850,83904.590,95626.000,88951.020,84557.070,91014.520,89965.450,86120.230,-0.097,0.920,-0.312,-9.064,3.479,1.617,66.667,90.000,1.000,8.705,0.000
85665.100,83379.510,95026.220,88393.640,84030.380,90447.250,89407.480,85585.530,-0.100,0.916,-0.312,-9.552,3.754,1.678,66.667,91.000,1.000,3.724,0.000
86196.600,83896.980,95622.030,88947.440,84554.110,91012.420,89967.980,86120.990,-0.104,0.913,-0.314,-9.735,4.089,1.587,66.667,92.000,1.000,3.836,0.000
86333.950,84029.870,95777.090,89091.250,84688.630,91158.980,90111.660,86256.600,-0.109,0.915,-0.316,-9.979,4.333,1.404,66.667,93.000,1.000,9.261,0.000
85484.810,83202.180,94830.880,88212.490,83854.860,90260.410,89221.970,85404.260,-0.111,0.919,-0.318,-10.132,4.456,1.038,66.667,94.000,1.000,0.009,0.000
84318.880,82066.410,93530.770,87006.430,82711.110,89025.390,88002.570,84238.070,-0.114,0.916,-0.319,-10.254,4.456,0.763,66.667,95.000,1.000,11.265,0.000
83805.200,81565.470,92957.910,86476.360,82207.870,88481.090,87469.150,83726.730,-0.115,0.916,-0.319,-10.345,4.517,0.488,66.667,96.000,1.000,0.013,0.000
84177.070,81925.400,93372.380,86861.900,82572.730,88874.400,87861.950,84099.550,-0.117,0.914,-0.314,-10.498,4.364,0.214,66.667,97.000,1.000,2.538,0.000
84232.020,81975.250,93432.980,86917.130,82625.120,88931.300,87919.140,84151.950,-0.117,0.910,-0.310,-10.559,4.211,0.061,66.667,98.000,1.000,0.033,0.000
83485.480,81244.860,92600.380,86142.310,81891.490,88140.420,87138.120,83403.530,-0.115,0.906,-0.307,-10.559,4.089,-0.214,66.667,99.000,1.000,10.603,0.000
82472.240,80257.110,91471.590,85092.960,80898.150,87071.110,86081.620,82392.880,-0.112,0.902,-0.304,-10.620,3.937,-0.427,66.667,100.000,1.000,3.066,0.000
81977.300,79775.860,90921.230,84581.730,80413.820,86551.430,85566.410,81902.230,-0.108,0.899,-0.298,-10.559,3.815,-0.427,66.667,101.000,1.000,0.010,0.000
82195.070,79988.730,91164.690,84808.690,80627.520,86783.560,85793.440,82122.980,-0.106,0.896,-0.297,-10.590,3.784,-0.427,66.667,102.000,1.000,8.751,0.000
82178.410,79973.190,91145.530,84792.010,80609.910,86767.450,85774.910,82108.840,-0.101,0.899,-0.296,-10.529,3.815,-0.336,66.667,103.000,1.000,0.016,0.000
81537.670,79350.130,90431.130,84128.630,79979.770,86092.350,85104.580,81470.980,-0.096,0.900,-0.289,-10.468,3.815,-0.153,66.667,104.000,1.000,26.345,0.000
80674.510,78510.720,89470.230,83234.780,79131.340,85182.160,84200.800,80610.080,-0.090,0.904,-0.285,-10.559,3.998,-0.061,66.667,105.000,1.000,0.031,0.000
80201.740,78050.650,88944.340,82744.580,78664.930,84682.130,83703.650,80137.650,-0.086,0.912,-0.282,-10.681,4.150,0.153,66.667,106.000,1.000,2.928,0.000
80274.900,78120.310,89025.520,82819.550,78734.310,84756.760,83778.570,80210.270,-0.085,0.920,-0.282,-10.803,4.547,0.397,66.667,107.000,1.000,0.012,0.000
80177.650,78024.540,88916.630,82719.590,78639.540,84654.050,83679.660,80114.580,-0.089,0.930,-0.286,-10.986,5.005,0.549,66.667,108.000,1.000,0.005,0.000
79613.920,77477.880,88289.730,82138.680,78090.170,84062.970,83096.910,79554.700,-0.094,0.943,-0.286,-11.139,5.188,0.610,66.667,109.000,1.000,3.701,0.000
78874.600,76762.540,87468.990,81376.570,77368.520,83286.980,82330.460,78818.280,-0.099,0.958,-0.288,-11.505,5.280,0.427,66.667,110.000,1.000,0.009,0.000
78424.790,76327.080,86971.230,80913.520,76928.680,82814.110,81862.840,78368.090,-0.102,0.971,-0.290,-11.871,5.402,0.336,66.667,111.000,1.000,0.004,0.000
78385.720,76288.250,86930.870,80875.300,76890.880,82773.520,81822.660,78327.260,-0.105,0.982,-0.295,-12.451,5.493,0.092,66.667,112.000,1.000,5.101,0.000
78230.820,76137.450,86760.470,80716.630,76739.820,82611.520,81662.980,78171.660,-0.104,0.991,-0.298,-12.848,5.524,-0.214,66.667,113.000,1.000,2.506,0.000
77741.530,75662.340,86215.300,80209.720,76259.500,82095.790,81153.660,77681.510,-0.101,0.994,-0.300,-13.458,5.554,-0.397,66.667,114.000,1.000,2.430,0.000
77119.130,75056.200,85520.450,79563.440,75647.670,81436.400,80502.750,77057.500,-0.098,0.994,-0.302,-14.038,5.646,-0.397,66.667,115.000,1.000,2.582,0.000
76695.840,74643.020,85048.910,79126.280,75232.890,80986.010,80058.550,76632.950,-0.095,0.988,-0.305,-14.496,5.707,-0.580,66.667,116.000,1.000,2.492,0.000
76561.910,74514.140,84900.740,78989.910,75102.300,80841.670,79914.760,76495.720,-0.094,0.982,-0.309,-14.771,5.829,-0.671,66.667,117.000,1.000,8.728,0.000
76354.800,74314.960,84669.040,78772.140,74896.380,80619.240,79691.370,76281.080,-0.094,0.976,-0.309,-14.832,6.042,-0.854,66.667,118.000,1.000,3.086,0.000
75916.520,73886.000,84179.230,78312.800,74461.870,80152.970,79227.090,75835.210,-0.094,0.969,-0.305,-14.893,6.348,-1.068,66.667,119.000,1.000,0.010,0.000
75378.060,73358.470,83581.020,77754.180,73932.580,79585.230,78663.730,75295.040,-0.093,0.962,-0.300,-14.862,6.470,-1.343,66.667,120.000,1.000,3.076,0.000
74969.840,72962.450,83130.520,77334.140,73534.780,79158.790,78241.230,74890.220,-0.089,0.950,-0.294,-14.801,6.775,-1.587,66.667,121.000,1.000,14.399,0.000
74752.220,72753.950,82891.160,77111.800,73323.590,78932.430,78017.380,74676.060,-0.089,0.940,-0.290,-14.801,7.019,-1.740,66.667,122.000,1.000,0.023,0.000
74499.160,72509.460,82610.510,76853.590,73076.340,78664.990,77754.010,74425.450,-0.087,0.928,-0.287,-14.679,7.294,-1.678,66.667,123.000,1.000,1.791,0.000
74111.900,72133.240,82180.100,76457.570,72697.280,78254.130,77349.540,74040.070,-0.091,0.919,-0.284,-14.526,7.507,-1.526,66.667,124.000,1.000,2.530,0.000
73657.320,71689.670,81673.280,75988.140,72249.980,77771.780,76872.710,73583.880,-0.098,0.913,-0.284,-14.038,7.874,-1.465,66.667,125.000,1.000,8.743,0.000
73272.160,71312.110,81241.910,75585.040,71867.620,77361.630,76465.240,73192.550,-0.105,0.912,-0.287,-13.428,7.965,-1.373,66.667,126.000,1.000,2.572,0.000
72991.840,71038.230,80928.400,75291.270,71589.390,77063.340,76169.460,72907.470,-0.116,0.919,-0.289,-12.787,8.026,-1.617,66.667,127.000,1.000,3.049,0.000
72698.660,70754.480,80603.570,74989.200,71303.300,76755.950,75866.640,72615.880,-0.125,0.928,-0.290,-12.207,7.660,-1.831,66.667,128.000,1.000,0.010,0.000
72345.820,70415.680,80213.580,74627.120,70961.230,76389.670,75503.620,72267.740,-0.137,0.932,-0.289,-11.688,7.446,-2.075,66.667,129.000,1.000,15.616,0.000
71955.730,70040.110,79780.650,74225.680,70581.140,75983.630,75098.970,71881.170,-0.144,0.939,-0.289,-11.353,6.897,-2.350,66.667,130.000,1.000,3.105,0.000
71585.710,69678.990,79368.130,73843.160,70217.130,75594.910,74712.020,71512.790,-0.145,0.938,-0.290,-11.078,6.348,-2.533,66.667,131.000,1.000,0.010,0.000
71254.630,69352.700,78998.380,73499.300,69889.020,75245.240,74364.130,71182.330,-0.144,0.940,-0.292,-10.742,5.859,-2.625,66.667,132.000,1.000,1.943,0.000
70935.400,69036.550,78641.980,73169.230,69572.840,74906.000,74029.010,70864.150,-0.139,0.939,-0.294,-10.529,5.249,-2.502,66.667,133.000,1.000,2.518,0.000
70608.350,68712.300,78277.300,72832.030,69249.630,74555.170,73685.550,70538.090,-0.129,0.939,-0.290,-10.284,4.700,-2.319,66.667,134.000,1.000,2.486,0.000
70256.420,68366.230,77885.470,72467.980,68902.400,74179.150,73315.780,70187.090,-0.124,0.941,-0.293,-10.071,4.333,-2.045,66.667,135.000,1.000,2.518,0.000
69893.970,68012.800,77481.910,72093.300,68545.150,73794.810,72935.230,69825.060,-0.119,0.940,-0.296,-9.766,3.845,-1.648,66.667,136.000,1.000,8.735,0.000
69528.760,67657.510,77075.140,71716.270,68185.070,73407.560,72551.310,69457.800,-0.112,0.937,-0.296,-9.460,3.540,-1.343,66.667,137.000,1.000,4.364,0.000
69186.810,67325.200,76694.530,71361.670,67848.200,73045.250,72192.300,69113.040,-0.105,0.930,-0.298,-9.308,3.357,-1.068,66.667,138.000,1.000,0.010,0.000
68877.960,67025.790,76350.860,71040.440,67545.090,72719.130,71870.220,68804.020,-0.100,0.921,-0.302,-8.911,3.326,-0.824,66.667,139.000,1.000,6.925,0.000
68566.240,66722.640,76004.810,70718.510,67240.910,72389.000,71547.280,68494.550,-0.100,0.915,-0.307,-8.514,3.448,-0.641,66.667,140.000,1.000,2.384,0.000
68220.220,66385.640,75623.080,70364.130,66904.690,72022.430,71190.370,68151.990,-0.102,0.913,-0.313,-7.874,3.601,-0.427,66.667,141.000,1.000,8.772,0.000
67835.090,66012.110,75199.450,69969.580,66530.020,71617.480,70793.250,67770.400,-0.105,0.918,-0.321,-7.080,3.723,-0.305,66.667,142.000,1.000,3.112,0.000
67479.640,65668.160,74807.630,69602.790,66182.570,71245.310,70424.610,67416.090,-0.111,0.926,-0.324,-6.378,3.693,-0.336,66.667,143.000,1.000,0.008,0.000
67178.780,65376.620,74474.820,69291.180,65887.230,70928.890,70109.650,67114.500,-0.110,0.934,-0.325,-5.829,3.784,-0.397,66.667,144.000,1.000,1.959,0.000
66885.030,65091.760,74148.700,68988.630,65598.330,70618.720,69800.770,66820.270,-0.105,0.941,-0.327,-5.280,3.906,-0.305,66.667,145.000,1.000,11.894,0.000
66550.230,64769.510,73775.640,68643.370,65269.370,70267.720,69449.760,66485.200,-0.100,0.947,-0.328,-4.913,4.028,-0.092,66.667,146.000,1.000,0.015,0.000
66162.360,64394.880,73343.260,68241.700,64889.500,69862.980,69045.130,66097.520,-0.096,0.949,-0.330,-4.608,4.425,0.183,66.667,147.000,1.000,1.791,0.000
65804.090,64043.500,72945.340,67872.020,64539.760,69487.690,68673.050,65741.520,-0.096,0.950,-0.331,-4.456,4.486,0.458,66.667,148.000,1.000,2.511,0.000
65509.890,63754.710,72620.660,67570.630,64253.160,69177.380,68367.780,65450.830,-0.094,0.948,-0.332,-4.333,4.913,0.671,66.667,149.000,1.000,11.226,0.000
65232.740,63486.380,72315.520,67286.880,63983.510,68884.590,68079.840,65176.320,-0.098,0.946,-0.328,-4.181,5.402,0.885,66.667,150.000,1.000,6.827,0.000
64907.860,63172.210,71956.630,66952.370,63667.050,68541.900,67742.180,64853.650,-0.105,0.943,-0.330,-4.089,5.798,0.916,66.667,151.000,1.000,0.009,0.000
64514.400,62791.120,71521.130,66546.340,63282.430,68127.140,67332.620,64463.110,-0.108,0.941,-0.323,-4.028,6.134,0.824,66.667,152.000,1.000,8.238,0.000
64149.250,62436.990,71117.010,66170.080,62924.280,67741.330,66952.660,64101.350,-0.109,0.939,-0.323,-3.937,6.317,0.641,66.667,153.000,1.000,2.424,0.000
63856.610,62150.800,70791.880,65868.060,62635.940,67429.850,66647.860,63810.860,-0.111,0.940,-0.323,-3.845,6.592,0.427,66.667,154.000,1.000,5.042,0.000
63588.370,61886.570,70491.850,65589.260,62370.380,67143.230,66366.050,63541.140,-0.112,0.939,-0.321,-3.876,6.653,0.458,66.667,155.000,1.000,2.486,0.000
63270.450,61573.520,70136.160,65257.680,62056.080,66803.950,66030.740,63219.170,-0.111,0.937,-0.323,-3.876,6.805,0.305,66.667,156.000,1.000,3.058,0.000
62882.930,61193.680,69704.210,64855.950,61675.500,66392.610,65624.410,62829.630,-0.112,0.938,-0.327,-3.967,6.805,0.183,66.667,157.000,1.000,0.016,0.000
62528.210,60849.760,69310.180,64490.550,61329.380,66019.880,65254.520,62476.370,-0.110,0.939,-0.327,-3.967,6.989,0.000,66.667,158.000,1.000,5.646,0.000
62243.450,60575.920,68994.730,64197.240,61052.040,65722.660,64958.210,62193.090,-0.105,0.940,-0.330,-3.937,7.019,-0.092,66.667,159.000,1.000,2.496,0.000
61977.580,60318.070,68700.650,63923.160,60791.770,65442.930,64680.730,61925.620,-0.104,0.935,-0.330,-4.059,7.019,-0.214,66.667,160.000,1.000,2.511,0.000
61664.820,60011.860,68353.520,63600.110,60484.200,65111.090,64353.270,61609.580,-0.104,0.938,-0.329,-4.028,7.141,-0.519,66.667,161.000,1.000,9.409,0.000
61289.060,59644.520,67934.060,63209.000,60113.880,64711.880,63959.430,61230.030,-0.105,0.942,-0.322,-4.150,7.324,-0.732,66.667,162.000,1.000,0.015,0.000
60944.130,59308.290,67547.870,62846.670,59772.660,64345.190,63596.020,60879.000,-0.109,0.945,-0.319,-4.486,7.416,-1.038,66.667,163.000,1.000,13.545,0.000
60665.250,59033.750,67235.710,62551.960,59495.720,64046.770,63299.600,60592.450,-0.113,0.946,-0.312,-4.883,7.416,-1.404,66.667,164.000,1.000,0.008,0.000
60406.680,58777.400,66946.710,62279.790,59239.640,63769.390,63025.330,60327.960,-0.119,0.948,-0.309,-5.341,7.263,-1.678,66.667,165.000,1.000,36.436,0.000
60100.790,58478.380,66605.490,61961.630,58938.780,63445.710,62705.340,60019.920,-0.122,0.948,-0.313,-5.798,7.111,-2.075,66.667,166.000,1.000,0.029,0.000
59727.520,58114.750,66189.850,61576.330,58571.980,63050.780,62317.190,59647.750,-0.123,0.943,-0.314,-6.226,6.866,-2.502,66.667,167.000,1.000,0.005,0.000
59377.080,57771.030,65799.900,61216.210,58225.520,62675.160,61949.520,59298.030,-0.127,0.941,-0.320,-6.531,6.561,-2.808,66.667,168.000,1.000,0.004,0.000
59089.240,57489.160,65479.040,60920.400,57938.560,62366.530,61642.460,59007.600,-0.132,0.938,-0.324,-6.805,6.134,-3.052,66.667,169.000,1.000,0.005,0.000
58823.790,57231.690,65182.880,60645.730,57674.700,62087.180,61360.660,58739.470,-0.137,0.937,-0.328,-6.775,6.012,-3.540,66.667,170.000,1.000,2.889,0.000
58514.500,56930.790,64838.850,60325.680,57370.130,61762.090,61036.060,58430.140,-0.139,0.934,-0.330,-6.805,5.646,-3.906,66.667,171.000,1.000,0.008,0.000
58147.110,56572.440,64430.930,59946.520,57009.520,61371.040,60650.590,58064.200,-0.140,0.932,-0.330,-6.622,5.280,-4.242,66.667,172.000,1.000,0.005,0.000
57807.950,56243.460,64055.020,59597.080,56677.350,61008.630,60296.750,57726.940,-0.140,0.927,-0.326,-6.531,4.730,-4.456,66.667,173.000,1.000,3.276,0.000
57528.130,55972.180,63745.040,59308.990,56402.710,60710.980,60005.220,57446.820,-0.137,0.920,-0.325,-6.378,4.395,-4.608,66.667,174.000,1.000,0.021,0.000
57267.140,55715.310,63454.830,59040.530,56144.100,60431.740,59728.340,57182.360,-0.137,0.914,-0.326,-6.134,3.998,-4.608,66.667,175.000,1.000,5.454,0.000
56965.880,55417.540,63119.030,58730.120,55845.600,60108.040,59407.920,56878.620,-0.134,0.905,-0.322,-5.920,3.693,-4.639,66.667,176.000,1.000,2.586,0.000
56610.080,55070.950,62722.930,58361.520,55495.960,59730.410,59034.730,56522.960,-0.133,0.901,-0.314,-5.554,3.326,-4.456,66.667,177.000,1.000,2.461,0.000
56271.020,54744.820,62347.590,58010.780,55166.600,59378.720,58684.820,56186.420,-0.129,0.903,-0.309,-5.249,3.143,-4.395,66.667,178.000,1.000,2.525,0.000
55980.000,54466.220,62028.200,57711.260,54888.240,59084.440,58391.600,55902.130,-0.130,0.912,-0.306,-5.127,2.930,-4.364,66.667,179.000,1.000,2.428,0.000
55711.900,54209.580,61733.920,57434.470,54632.150,58811.050,58123.690,55642.870,-0.133,0.919,-0.302,-4.974,2.838,-4.211,66.667,180.000,1.000,2.541,0.000
55415.890,53924.560,61406.510,57127.810,54344.850,58499.840,57820.140,55352.240,-0.135,0.925,-0.300,-5.066,2.777,-3.815,66.667,181.000,1.000,5.525,0.000
55074.320,53594.200,61028.510,56775.430,54011.090,58140.090,57462.900,55011.080,-0.136,0.929,-0.298,-5.310,2.594,-3.601,66.667,182.000,1.000,0.007,0.000
54747.120,53278.070,60668.360,56442.710,53693.150,57799.580,57121.750,54684.520,-0.139,0.930,-0.301,-5.646,2.411,-3.448,66.667,183.000,1.000,13.856,0.000
54459.610,53001.800,60352.540,56152.410,53415.090,57500.520,56825.540,54400.440,-0.140,0.936,-0.300,-5.676,2.319,-3.387,66.667,184.000,1.000,0.013,0.000
54185.640,52738.930,60049.450,55868.780,53148.640,57214.390,56543.970,54128.620,-0.140,0.947,-0.296,-5.829,2.136,-3.265,66.667,185.000,1.000,4.980,0.000
53885.230,52446.460,59714.850,55553.950,52855.030,56901.200,56235.590,53829.530,-0.141,0.956,-0.295,-6.134,2.014,-3.052,66.667,186.000,1.000,0.019,0.000
53550.660,52118.110,59342.360,55208.250,52528.360,56551.400,55892.610,53499.890,-0.140,0.963,-0.294,-6.378,1.831,-3.021,66.667,187.000,1.000,1.879,0.000
53228.730,51804.910,58984.880,54877.760,52214.100,56212.570,55559.900,53183.130,-0.141,0.970,-0.293,-6.775,1.831,-2.899,66.667,188.000,1.000,4.947,0.000
52939.350,51524.750,58663.270,54579.730,51929.650,55905.600,55254.660,52891.680,-0.145,0.971,-0.291,-7.263,1.526,-2.838,66.667,189.000,1.000,2.503,0.000
52667.220,51259.880,58360.050,54299.650,51660.090,55616.230,54964.280,52613.270,-0.146,0.968,-0.292,-7.660,1.373,-2.808,66.667,190.000,1.000,18.216,0.000
52376.070,50975.640,58036.170,54000.310,51372.790,55308.090,54658.620,52320.800,-0.148,0.963,-0.292,-8.087,1.221,-2.777,66.667,191.000,1.000,0.017,0.000
52052.010,50657.770,57676.900,53666.360,51054.610,54964.850,54322.160,51998.980,-0.147,0.959,-0.291,-8.301,0.885,-2.777,66.667,192.000,1.000,1.750,0.000
51734.820,50346.210,57325.520,53336.080,50742.300,54627.610,53991.020,51681.250,-0.143,0.953,-0.296,-8.423,0.732,-2.777,66.667,193.000,1.000,2.608,0.000
51447.290,50066.100,57006.230,53034.380,50457.700,54320.960,53688.980,51392.040,-0.142,0.950,-0.299,-8.331,0.610,-2.838,66.667,194.000,1.000,2.431,0.000
51178.820,49805.170,56707.100,52756.010,50191.860,54034.530,53405.580,51122.750,-0.138,0.948,-0.300,-7.996,0.580,-2.655,66.667,195.000,1.000,2.567,0.000
50896.890,49528.480,56392.110,52466.090,49913.500,53734.420,53107.780,50838.880,-0.136,0.946,-0.299,-7.813,0.458,-2.533,66.667,196.000,1.000,4.956,0.000
50589.080,49224.080,56047.210,52148.030,49608.540,53403.270,52781.870,50527.580,-0.131,0.941,-0.299,-7.446,0.458,-2.350,66.667,197.000,1.000,2.433,0.000
50285.570,48923.100,55706.650,51834.690,49305.880,53072.800,52457.090,50219.740,-0.126,0.934,-0.308,-7.111,0.519,-2.014,66.667,198.000,1.000,3.150,0.000
50001.250,48644.670,55389.480,51542.810,49024.430,52768.080,52155.320,49934.390,-0.123,0.924,-0.309,-6.561,0.671,-1.556,66.667,199.000,1.000,0.008,0.000
49724.910,48380.380,55084.730,51257.970,48755.880,52479.960,51870.660,49663.510,-0.126,0.908,-0.314,-5.249,1.038,-1.129,66.667,200.000,1.000,8.106,0.000
49434.230,48102.790,54765.950,50956.200,48474.860,52176.620,51573.090,49378.720,-0.131,0.902,-0.316,-4.242,1.160,-0.824,66.667,201.000,1.000,3.109,0.000
49127.380,47805.080,54428.680,50639.300,48177.330,51853.640,51255.990,49074.140,-0.137,0.899,-0.321,-2.960,1.465,-0.458,66.667,202.000,1.000,0.010,0.000
48829.830,47514.040,54099.960,50336.570,47888.110,51540.240,50947.200,48778.430,-0.144,0.898,-0.322,-1.862,1.648,-0.305,66.667,203.000,1.000,1.923,0.000
48548.750,47237.550,53787.090,50050.820,47612.800,51242.970,50653.770,48498.890,-0.154,0.902,-0.328,-0.763,1.556,-0.183,66.667,204.000,1.000,8.688,0.000
48273.730,46966.080,53478.710,49764.190,47340.790,50950.790,50365.320,48222.170,-0.162,0.907,-0.328,0.244,1.587,-0.031,66.667,205.000,1.000,2.488,0.000
47994.050,46693.500,53164.270,49468.270,47062.910,50652.940,50069.630,47936.900,-0.169,0.915,-0.330,1.129,1.373,0.366,66.667,206.000,1.000,3.825,0.000
47704.590,46414.140,52841.150,49165.720,46778.150,50347.520,49764.230,47644.090,-0.172,0.919,-0.332,2.045,1.129,0.580,66.667,207.000,1.000,3.747,0.000
47411.240,46129.520,52516.660,48863.030,46493.250,50042.200,49460.190,47353.460,-0.176,0.922,-0.331,2.777,0.824,0.854,66.667,208.000,1.000,11.857,0.000
47123.670,45849.570,52199.210,48567.310,46213.430,49741.870,49164.480,47069.810,-0.178,0.924,-0.336,3.174,0.397,1.129,66.667,209.000,1.000,0.014,0.000
46844.250,45579.450,51891.610,48283.020,45940.050,49447.830,48875.260,46792.680,-0.181,0.925,-0.338,3.784,0.061,1.373,66.667,210.000,1.000,1.863,0.000
46564.380,45311.090,51583.900,47999.880,45665.670,49153.870,48581.750,46513.480,-0.185,0.926,-0.334,4.242,-0.336,1.587,66.667,211.000,1.000,3.703,0.000
46278.510,45036.250,51267.550,47704.710,45384.490,48854.250,48280.180,46226.590,-0.187,0.931,-0.335,4.669,-0.580,1.770,66.667,212.000,1.000,4.339,0.000
45989.450,44753.230,50945.400,47399.680,45099.240,48549.610,47976.710,45934.750,-0.189,0.939,-0.334,4.944,-0.977,1.892,66.667,213.000,1.000,0.012,0.000
45706.890,44471.560,50629.770,47105.660,44820.110,48247.880,47680.320,45648.970,-0.186,0.950,-0.339,5.188,-1.160,1.953,66.667,214.000,1.000,8.205,0.000
45435.160,44202.130,50326.660,46829.250,44552.380,47954.880,47394.860,45376.090,-0.183,0.962,-0.338,5.035,-1.526,2.289,66.667,215.000,1.000,9.296,0.000
45160.190,43936.250,50021.160,46546.270,44283.080,47661.000,47107.800,45102.250,-0.176,0.970,-0.339,4.578,-1.953,2.380,66.667,216.000,1.000,0.009,0.000
44877.500,43664.860,49708.540,46254.350,44007.480,47363.980,46814.880,44821.250,-0.173,0.974,-0.338,4.211,-2.167,2.594,66.667,217.000,1.000,1.744,0.000
44596.460,43391.200,49397.970,45966.030,43733.320,47070.360,46524.770,44542.080,-0.167,0.976,-0.341,3.662,-2.289,2.686,66.667,218.000,1.000,6.426,0.000
44317.490,43119.500,49089.590,45679.090,43461.280,46777.230,46236.750,44266.950,-0.161,0.975,-0.344,3.082,-2.258,2.716,66.667,219.000,1.000,2.483,0.000
44037.440,42848.360,48780.030,45391.060,43187.720,46479.120,45943.060,43989.700,-0.154,0.969,-0.343,2.411,-2.228,2.808,66.667,220.000,1.000,4.982,0.000
43756.030,42575.320,48468.700,45101.680,42911.200,46176.500,45642.570,43705.980,-0.145,0.963,-0.342,1.953,-2.167,2.991,66.667,221.000,1.000,2.569,0.000
43477.760,42303.840,48160.410,44816.690,42637.480,45878.860,45346.610,43424.080,-0.134,0.958,-0.342,1.526,-1.953,2.991,66.667,222.000,1.000,11.190,0.000
43205.810,42036.800,47856.190,44534.570,42369.270,45590.870,45061.580,43150.880,-0.127,0.953,-0.339,0.977,-1.465,3.082,66.667,223.000,1.000,2.479,0.000
42936.380,41773.790,47551.190,44247.340,42101.270,45305.960,44780.660,42879.650,-0.122,0.949,-0.334,0.427,-0.824,3.143,66.667,224.000,1.000,3.162,0.000
42665.610,41508.960,47245.490,43961.340,41832.380,45019.980,44499.300,42606.960,-0.116,0.946,-0.333,-0.214,-0.122,3.174,66.667,225.000,1.000,0.010,0.000
42392.310,41238.360,46941.100,43681.330,41564.550,44733.730,44217.670,42335.200,-0.113,0.939,-0.330,-0.702,0.580,3.082,66.667,226.000,1.000,6.864,0.000
42120.350,40972.700,46639.730,43401.340,41298.160,44448.140,43934.720,42063.300,-0.107,0.932,-0.327,-1.190,1.404,3.174,66.667,227.000,1.000,2.448,0.000
41852.650,40717.410,46341.630,43122.710,41032.870,44161.270,43648.840,41791.140,-0.105,0.931,-0.326,-1.526,2.197,3.113,66.667,228.000,1.000,2.581,0.000
41584.920,40459.790,46043.850,42847.860,40768.180,43873.880,43363.080,41521.290,-0.100,0.930,-0.326,-1.862,2.991,2.991,66.667,229.000,1.000,2.487,0.000
41314.020,40193.280,45744.170,42571.690,40503.140,43589.700,43081.180,41252.810,-0.097,0.938,-0.327,-2.258,3.998,2.930,66.667,230.000,1.000,3.734,0.000
41044.910,39927.110,45444.770,42294.850,40237.330,43306.680,42799.380,40982.410,-0.100,0.945,-0.330,-2.686,5.005,2.808,66.667,231.000,1.000,6.861,0.000
40782.120,39669.300,45148.430,42019.050,39972.520,43021.800,42515.210,40710.790,-0.103,0.953,-0.328,-3.143,5.768,2.747,66.667,232.000,1.000,0.083,0.000
40518.470,39410.820,44850.890,41740.630,39708.070,42736.390,42230.630,40438.040,-0.105,0.964,-0.328,-3.662,6.470,2.747,66.667,233.000,1.000,7.995,0.000
40250.720,39143.610,44550.970,41463.430,39443.840,42453.140,41947.890,40164.950,-0.106,0.979,-0.328,-4.272,7.050,2.655,66.667,234.000,1.000,2.476,0.000
39985.650,38880.920,44254.230,41191.520,39182.480,42172.940,41669.150,39896.140,-0.108,0.987,-0.332,-5.035,7.660,2.472,66.667,235.000,1.000,2.515,0.000
39723.250,38627.530,43960.330,40916.930,38921.980,41894.730,41393.380,39630.590,-0.112,0.993,-0.334,-5.859,8.301,2.289,66.667,236.000,1.000,2.495,0.000
39459.330,38368.210,43664.790,40637.080,38658.920,41616.090,41117.450,39363.580,-0.115,0.994,-0.331,-6.561,8.820,2.045,66.667,237.000,1.000,2.564,0.000
39195.040,38104.640,43369.490,40363.770,38395.990,41335.180,40839.880,39096.670,-0.118,0.993,-0.331,-7.477,9.216,1.892,66.667,238.000,1.000,8.697,0.000
38928.200,37845.800,43074.120,40090.530,38132.670,41050.540,40558.570,38829.030,-0.118,0.989,-0.326,-8.179,9.705,1.709,66.667,239.000,1.000,4.318,0.000
38656.380,37584.120,42775.790,39808.390,37867.570,40763.850,40276.510,38560.310,-0.119,0.986,-0.331,-8.789,9.949,1.556,66.667,240.000,1.000,0.009,0.000
38390.820,37322.510,42483.790,39537.800,37611.180,40486.070,40007.270,38303.080,-0.117,0.988,-0.334,-9.369,10.284,1.312,66.667,241.000,1.000,3.122,0.000
38137.300,37071.930,42201.520,39281.550,37364.950,40220.170,39749.210,38055.930,-0.117,0.988,-0.336,-9.888,10.529,1.251,66.667,242.000,1.000,13.781,0.000
37883.240,36825.660,41915.700,39015.590,37113.740,39952.080,39481.810,37798.030,-0.115,0.981,-0.335,-10.315,10.742,1.190,66.667,243.000,1.000,16.889,0.000
37620.100,36572.490,41620.750,38738.190,36853.400,39674.160,39203.250,37529.760,-0.115,0.975,-0.332,-10.681,10.986,1.129,66.667,244.000,1.000,0.018,0.000
37352.480,36313.610,41324.230,38465.340,36592.380,39391.920,38925.490,37266.630,-0.114,0.964,-0.333,-11.017,11.230,1.129,66.667,245.000,1.000,1.833,0.000
37092.460,36060.350,41036.890,38205.760,36338.840,39114.350,38653.300,37011.980,-0.111,0.951,-0.331,-11.292,11.566,1.099,66.667,246.000,1.000,2.598,0.000
36844.780,35819.900,40761.700,37954.380,36095.090,38847.120,38389.980,36763.040,-0.108,0.940,-0.327,-11.230,11.932,1.190,66.667,247.000,1.000,2.463,0.000
36597.720,35581.750,40487.300,37694.750,35852.370,38583.920,38130.800,36513.770,-0.110,0.928,-0.322,-10.925,12.299,1.373,66.667,248.000,1.000,4.942,0.000
36347.490,35339.120,40209.660,37428.790,35606.860,38319.040,37869.040,36262.520,-0.110,0.922,-0.318,-10.803,12.390,1.373,66.667,249.000,1.000,2.548,0.000
36097.710,35097.640,39931.530,37166.400,35360.280,38052.010,37603.360,36009.750,-0.106,0.909,-0.310,-10.559,12.634,1.251,66.667,250.000,1.000,2.514,0.000
35843.540,34852.840,39649.870,36904.040,35111.130,37781.990,37334.780,35754.180,-0.105,0.900,-0.305,-10.101,12.939,1.129,66.667,251.000,1.000,2.470,0.000
35581.110,34596.980,39364.110,36637.190,34860.990,37512.330,37067.680,35498.260,-0.108,0.893,-0.306,-9.613,13.031,1.190,66.667,252.000,1.000,8.742,0.000
35317.350,34339.250,39079.260,36368.050,34612.450,37245.260,36803.990,35243.520,-0.106,0.890,-0.308,-8.972,13.214,1.221,66.667,253.000,1.000,2.486,0.000
35062.960,34097.060,38801.380,36106.880,34367.400,36980.690,36542.390,34990.430,-0.104,0.891,-0.311,-8.148,13.336,1.312,66.667,254.000,1.000,5.612,0.000
34813.300,33861.820,38524.420,35848.450,34121.460,36715.700,36278.500,34734.330,-0.104,0.895,-0.309,-7.141,13.245,1.251,66.667,255.000,1.000,0.009,0.000
34564.180,33619.310,38246.090,35590.250,33875.550,36453.270,36016.500,34479.610,-0.104,0.901,-0.310,-6.348,13.306,1.190,66.667,256.000,1.000,1.873,0.000
34319.970,33377.770,37973.300,35343.720,33635.360,36195.670,35761.900,34236.090,-0.104,0.909,-0.312,-5.524,13.275,1.129,66.667,257.000,1.000,2.461,0.000
34071.110,33134.930,37696.880,35090.820,33390.600,35930.440,35503.010,33991.180,-0.105,0.916,-0.310,-4.791,13.275,1.190,66.667,258.000,1.000,3.183,0.000
33812.470,32882.050,37410.850,34818.800,33135.660,35655.020,35233.700,33734.760,-0.111,0.918,-0.312,-4.181,13.275,1.465,66.667,259.000,1.000,0.008,0.000
33559.010,32630.810,37129.380,34554.340,32884.310,35384.640,34966.340,33480.210,-0.112,0.920,-0.316,-3.418,13.245,1.495,66.667,260.000,1.000,1.872,0.000
33312.770,32389.250,36854.590,34300.120,32639.780,35122.940,34705.580,33232.290,-0.117,0.922,-0.319,-2.777,13.153,1.495,66.667,261.000,1.000,13.774,0.000
33066.520,32154.070,36579.590,34042.440,32395.780,34863.340,34446.340,32984.890,-0.121,0.929,-0.323,-2.197,13.000,1.434,66.667,262.000,1.000,4.402,0.000
32828.610,31925.460,36312.590,33800.930,32158.990,34608.240,34192.850,32744.220,-0.125,0.934,-0.325,-1.526,12.543,1.587,66.667,263.000,1.000,0.011,0.000
32590.720,31688.970,36045.640,33561.460,31923.680,34351.410,33940.550,32504.840,-0.127,0.939,-0.329,-0.671,11.871,1.465,66.667,264.000,1.000,25.015,0.000
32337.300,31435.670,35763.560,33290.580,31676.650,34084.430,33678.410,32252.750,-0.128,0.936,-0.328,-0.275,11.536,1.556,66.667,265.000,1.000,0.019,0.000
32084.330,31186.830,35482.700,33018.450,31430.120,33820.100,33416.720,31999.960,-0.128,0.932,-0.324,0.092,11.047,1.465,66.667,266.000,1.000,12.350,0.000
31846.910,30956.210,35217.700,32772.980,31195.600,33567.610,33165.410,31759.360,-0.129,0.926,-0.318,0.610,10.712,1.556,66.667,267.000,1.000,0.013,0.000
31613.110,30731.300,34956.780,32533.210,30963.690,33316.950,32916.010,31521.520,-0.125,0.916,-0.319,0.946,10.345,1.648,66.667,268.000,1.000,3.680,0.000
31372.770,30499.870,34690.630,32286.490,30727.810,33061.460,32662.540,31278.070,-0.123,0.912,-0.316,1.221,9.949,1.709,66.667,269.000,1.000,0.008,0.000
31131.130,30266.960,34423.750,32040.070,30491.750,32805.070,32407.800,31032.650,-0.120,0.911,-0.314,1.740,9.460,1.862,66.667,270.000,1.000,0.003,0.000
30889.280,30032.900,34155.950,31790.150,30254.720,32548.150,32152.460,30787.940,-0.116,0.911,-0.314,2.014,9.308,2.075,66.667,271.000,1.000,0.003,0.000
30645.700,29793.610,33885.440,31537.130,30014.630,32288.920,31895.330,30543.350,-0.115,0.921,-0.313,2.167,8.972,2.411,66.667,272.000,1.000,2.558,0.000
30402.640,29555.270,33615.750,31287.800,29775.340,32031.160,31638.970,30301.720,-0.110,0.932,-0.312,2.197,8.636,2.747,66.667,273.000,1.000,0.006,0.000
30159.180,29319.280,33345.920,31035.360,29536.850,31776.030,31383.840,30060.870,-0.108,0.939,-0.304,2.197,8.331,3.082,66.667,274.000,1.000,1.923,0.000
29920.480,29090.090,33080.180,30787.050,29300.760,31523.920,31132.080,29819.570,-0.107,0.941,-0.297,1.923,8.118,3.357,66.667,275.000,1.000,6.222,0.000
29688.280,28866.140,32822.330,30551.230,29070.190,31275.880,30887.060,29582.820,-0.105,0.937,-0.296,1.404,7.996,3.632,66.667,276.000,1.000,5.010,0.000
29447.300,28627.880,32558.000,30304.150,28835.660,31023.640,30640.150,29344.600,-0.104,0.937,-0.299,0.824,7.904,3.937,66.667,277.000,1.000,3.201,0.000
29193.320,28376.830,32279.570,30036.230,28591.840,30763.770,30385.500,29098.510,-0.103,0.932,-0.300,0.488,7.843,4.120,66.667,278.000,1.000,0.009,0.000
28944.570,28138.370,32004.320,29777.860,28351.730,30507.190,30132.430,28854.790,-0.098,0.929,-0.298,0.183,7.721,4.120,66.667,279.000,1.000,4.232,0.000
28709.070,27917.080,31742.410,29541.070,28123.030,30259.020,29888.290,28622.290,-0.096,0.928,-0.305,-0.183,7.538,3.937,66.667,280.000,1.000,2.561,0.000
28476.790,27692.020,31483.850,29303.630,27898.560,30015.000,29652.120,28397.110,-0.095,0.924,-0.308,-0.458,7.538,4.028,66.667,281.000,1.000,2.452,0.000
28244.760,27458.140,31224.770,29062.600,27672.920,29771.140,29416.540,28171.930,-0.092,0.919,-0.310,-0.580,7.599,3.693,66.667,282.000,1.000,9.357,0.000
28015.050,27229.990,30968.510,28829.790,27444.570,29523.030,29170.560,27939.520,-0.092,0.913,-0.313,-0.519,7.721,3.387,66.667,283.000,1.000,0.006,0.000
27785.850,27010.610,30715.400,28603.750,27215.770,29273.940,28918.480,27702.170,-0.092,0.902,-0.315,-0.488,7.904,3.082,66.667,284.000,1.000,1.881,0.000
27552.260,26785.780,30460.070,28373.270,26985.970,29025.790,28668.480,27465.280,-0.088,0.892,-0.316,-0.336,7.904,2.808,66.667,285.000,1.000,3.738,0.000
27317.420,26557.510,30201.580,28127.820,26754.070,28776.690,28421.000,27229.370,-0.085,0.883,-0.321,0.031,8.057,2.289,66.667,286.000,1.000,15.046,0.000
27089.820,26337.530,29946.940,27876.350,26526.470,28532.150,28180.310,26998.010,-0.087,0.883,-0.329,0.702,8.270,1.831,66.667,287.000,1.000,0.022,0.000
26865.190,26117.990,29695.660,27635.760,26304.670,28294.040,27946.910,26772.260,-0.090,0.888,-0.335,1.221,8.484,1.343,66.667,288.000,1.000,0.007,0.000
26635.510,25890.730,29441.710,27402.710,26082.530,28056.080,27713.450,26547.210,-0.091,0.898,-0.338,2.045,8.698,0.793,66.667,289.000,1.000,7.546,0.000
26396.450,25652.010,29178.510,27159.490,25852.170,27811.060,27471.800,26315.020,-0.095,0.909,-0.337,2.655,8.911,0.061,66.667,290.000,1.000,2.438,0.000
26156.670,25419.980,28913.380,26911.870,25618.520,27564.260,27224.680,26076.860,-0.094,0.916,-0.337,3.113,9.033,-0.641,66.667,291.000,1.000,2.503,0.000
25928.690,25211.110,28661.920,26686.900,25395.210,27325.650,26984.510,25845.980,-0.096,0.922,-0.338,3.357,9.094,-1.221,66.667,292.000,1.000,8.704,0.000
25706.590,25003.750,28418.240,26471.800,25179.470,27092.080,26754.690,25626.440,-0.099,0.926,-0.344,3.387,9.277,-1.526,66.667,293.000,1.000,2.459,0.000
25477.700,24775.980,28162.460,26224.480,24953.600,26850.940,26521.010,25400.860,-0.103,0.927,-0.346,3.448,9.338,-1.801,66.667,294.000,1.000,2.568,0.000
25246.700,24541.130,27898.800,25960.400,24718.730,26602.820,26277.850,25163.880,-0.110,0.939,-0.349,3.723,9.369,-2.136,66.667,295.000,1.000,5.012,0.000
25026.930,24325.710,27649.490,25728.710,24495.380,26362.220,26038.840,24935.310,-0.115,0.949,-0.351,3.754,9.338,-2.563,66.667,296.000,1.000,2.474,0.000
24811.060,24118.560,27409.090,25517.370,24281.180,26125.630,25805.370,24717.040,-0.122,0.961,-0.352,3.571,9.125,-2.808,66.667,297.000,1.000,6.305,0.000
24587.640,23900.900,27161.040,25289.380,24062.450,25883.990,25569.560,24495.650,-0.124,0.968,-0.350,3.235,8.667,-3.113,66.667,298.000,1.000,4.921,0.000
24361.680,23678.110,26909.000,25049.560,23842.350,25643.040,25334.330,24273.100,-0.125,0.970,-0.350,2.808,8.484,-3.387,66.667,299.000,1.000,3.123,0.000
24139.900,23454.410,26660.940,24817.670,23626.300,25406.350,25103.920,24055.960,-0.123,0.970,-0.348,2.167,8.331,-3.510,66.667,300.000,1.000,0.006,0.000
23922.970,23231.870,26418.940,24604.690,23413.080,25169.600,24875.050,23840.280,-0.120,0.963,-0.344,1.648,8.026,-3.571,66.667,301.000,1.000,1.874,0.000
23706.890,23019.240,26179.370,24393.840,23199.870,24931.610,24644.690,23620.990,-0.119,0.953,-0.345,0.916,7.965,-3.448,66.667,302.000,1.000,2.528,0.000
23487.820,22823.950,25937.460,24161.860,22985.590,24697.790,24415.330,23399.070,-0.121,0.939,-0.344,0.214,7.751,-3.204,66.667,303.000,1.000,3.755,0.000
23268.230,22630.320,25696.220,23932.500,22773.300,24471.440,24190.120,23178.410,-0.126,0.925,-0.342,-0.153,7.660,-3.021,66.667,304.000,1.000,14.979,0.000
23044.460,22408.750,25450.520,23704.050,22557.820,24244.910,23962.620,22954.840,-0.128,0.919,-0.350,-0.336,7.568,-3.021,66.667,305.000,1.000,3.133,0.000
22814.810,22165.250,25195.700,23451.920,22333.740,24011.740,23726.830,22724.180,-0.128,0.920,-0.355,-0.305,7.355,-2.991,66.667,306.000,1.000,0.006,0.000
22590.740,21935.070,24944.720,23205.140,22111.240,23779.630,23491.650,22496.930,-0.130,0.931,-0.358,-0.397,7.172,-2.960,66.667,307.000,1.000,1.875,0.000
22379.800,21733.590,24708.130,22992.140,21899.370,23556.150,23266.140,22281.170,-0.131,0.938,-0.358,-0.671,6.989,-2.777,66.667,308.000,1.000,2.523,0.000
22181.850,21555.670,24486.480,22805.800,21698.290,23339.990,23049.620,22075.350,-0.130,0.947,-0.358,-1.099,6.866,-2.686,66.667,309.000,1.000,5.004,0.000
21980.500,21377.170,24263.400,22609.770,21496.710,23122.560,22833.120,21869.960,-0.129,0.953,-0.354,-1.648,6.805,-2.411,66.667,310.000,1.000,7.502,0.000
21756.400,21161.220,24018.200,22379.620,21280.150,22892.970,22607.210,21654.810,-0.130,0.958,-0.356,-2.197,6.775,-2.075,66.667,311.000,1.000,3.097,0.000
21518.950,20921.860,23757.390,22128.840,21050.640,22650.340,22370.380,21427.660,-0.133,0.961,-0.355,-2.777,6.744,-1.648,66.667,312.000,1.000,0.008,0.000
21295.320,20693.730,23507.660,21898.250,20827.100,22407.850,22133.660,21199.770,-0.132,0.962,-0.353,-3.571,6.622,-1.343,66.667,313.000,1.000,5.622,0.000
21087.570,20472.740,23275.220,21700.160,20619.300,22176.590,21908.360,20986.410,-0.131,0.964,-0.354,-4.211,6.500,-1.038,66.667,314.000,1.000,2.502,0.000
20876.040,20257.920,23042.060,21489.880,20415.480,21951.250,21689.240,20781.260,-0.133,0.964,-0.348,-5.005,6.256,-0.885,66.667,315.000,1.000,2.427,0.000
20660.660,20058.580,22805.660,21259.790,20210.080,21725.390,21470.660,20575.210,-0.134,0.962,-0.352,-5.737,5.981,-0.793,66.667,316.000,1.000,2.547,0.000
20443.610,19866.280,22568.270,21018.770,20003.910,21500.730,21251.780,20366.650,-0.137,0.959,-0.347,-6.439,5.707,-0.580,66.667,317.000,1.000,11.263,0.000
20226.160,19666.260,22329.400,20776.170,19795.570,21277.730,21030.380,20152.560,-0.137,0.957,-0.347,-7.019,5.493,-0.610,66.667,318.000,1.000,3.061,0.000
20031.950,19467.950,22109.040,20587.860,19598.400,21059.760,20816.080,19948.170,-0.135,0.956,-0.351,-7.446,5.219,-0.671,66.667,319.000,1.000,0.016,0.000
19837.150,19265.600,21889.440,20411.960,19402.370,20838.200,20603.510,19748.750,-0.130,0.960,-0.353,-7.782,5.005,-0.702,66.667,320.000,1.000,1.866,0.000
19603.950,19063.090,21640.630,20167.420,19186.840,20607.360,20376.180,19529.670,-0.124,0.963,-0.354,-8.270,4.822,-0.763,66.667,321.000,1.000,8.743,0.000
19369.980,18855.850,21390.240,19916.020,18969.080,20378.910,20147.210,19305.000,-0.120,0.965,-0.351,-8.789,4.669,-0.824,66.667,322.000,1.000,20.680,0.000
19151.520,18610.130,21145.490,19680.790,18753.340,20148.070,19922.730,19085.080,-0.117,0.967,-0.347,-9.399,4.700,-0.854,66.667,323.000,1.000,0.019,0.000
18933.780,18377.730,20900.030,19426.540,18536.120,19917.450,19696.090,18862.950,-0.114,0.962,-0.347,-10.101,4.822,-0.854,66.667,324.000,1.000,15.567,0.000
18735.520,18201.630,20677.480,19209.030,18334.000,19701.550,19475.690,18649.260,-0.114,0.957,-0.343,-10.803,4.852,-0.885,66.667,325.000,1.000,2.483,0.000
18558.160,18034.930,20474.750,19046.660,18144.510,19494.170,19264.370,18446.280,-0.115,0.951,-0.339,-11.444,5.035,-0.977,66.667,326.000,1.000,5.050,0.000
18370.460,17844.730,20260.070,18869.310,17947.470,19281.100,19051.500,18239.910,-0.114,0.949,-0.334,-11.902,5.188,-1.068,66.667,327.000,1.000,16.216,0.000
18161.070,17640.970,20025.880,18649.460,17740.000,19061.570,18834.530,18029.370,-0.112,0.947,-0.331,-12.207,5.219,-1.312,66.667,328.000,1.000,2.538,0.000
17942.230,17424.070,19784.740,18419.800,17529.060,18839.800,18616.520,17819.850,-0.109,0.946,-0.326,-12.604,5.493,-1.404,66.667,329.000,1.000,2.511,0.000
17737.230,17219.430,19558.000,18223.640,17327.570,18623.800,18402.990,17619.470,-0.108,0.946,-0.323,-12.909,5.707,-1.587,66.667,330.000,1.000,4.951,0.000
17553.210,17053.220,19350.450,18041.010,17140.020,18417.880,18197.870,17430.350,-0.108,0.945,-0.323,-13.245,5.859,-1.923,66.667,331.000,1.000,2.547,0.000
17364.740,16885.340,19138.680,17835.190,16950.690,18212.120,17993.050,17238.620,-0.108,0.945,-0.320,-13.672,6.042,-2.258,66.667,332.000,1.000,2.529,0.000
17159.250,16676.130,18913.350,17631.320,16751.690,17998.710,17781.420,17038.700,-0.107,0.948,-0.323,-13.977,6.195,-2.625,66.667,333.000,1.000,2.415,0.000
16932.720,16434.970,18667.630,17398.170,16537.070,17771.060,17557.570,16825.520,-0.107,0.952,-0.324,-14.191,6.561,-2.991,66.667,334.000,1.000,2.466,0.000
16707.630,16212.800,18420.520,17143.380,16322.330,17543.110,17333.550,16611.310,-0.108,0.959,-0.326,-14.374,6.744,-3.387,66.667,335.000,1.000,2.491,0.000
16517.830,16025.780,18203.630,16944.360,16131.820,17334.540,17128.750,16419.090,-0.110,0.968,-0.327,-14.526,6.897,-3.906,66.667,336.000,1.000,2.615,0.000
16341.660,15850.020,18000.950,16775.270,15953.620,17135.230,16934.880,16239.170,-0.107,0.972,-0.323,-14.862,6.989,-4.333,66.667,337.000,1.000,2.390,0.000
16139.410,15661.240,17779.620,16570.220,15762.320,16925.410,16731.100,16048.030,-0.102,0.969,-0.324,-15.228,7.172,-4.791,66.667,338.000,1.000,5.025,0.000
15921.780,15467.760,17543.630,16334.210,15558.330,16704.930,16515.650,15843.260,-0.098,0.964,-0.322,-15.472,7.385,-5.066,66.667,339.000,1.000,2.564,0.000
15721.860,15292.410,17322.470,16122.160,15365.080,16493.860,16309.000,15644.720,-0.095,0.955,-0.321,-15.564,7.629,-5.463,66.667,340.000,1.000,2.452,0.000
15519.090,15080.360,17099.270,15917.860,15173.260,16286.420,16108.200,15448.940,-0.094,0.949,-0.324,-15.656,7.904,-5.585,66.667,341.000,1.000,2.528,0.000
15309.060,14853.740,16867.780,15699.810,14973.530,16077.700,15899.260,15241.880,-0.097,0.941,-0.319,-15.381,8.179,-5.768,66.667,342.000,1.000,2.461,0.000
15130.010,14699.560,16666.940,15527.720,14792.520,15886.870,15699.570,15047.470,-0.100,0.936,-0.315,-14.984,8.362,-5.829,66.667,343.000,1.000,3.045,0.000
14953.630,14529.940,16469.090,15376.630,14612.850,15689.510,15505.570,14864.130,-0.099,0.934,-0.314,-14.587,8.606,-5.951,66.667,344.000,1.000,0.009,0.000
14743.220,14290.880,16234.780,15164.350,14404.220,15464.260,15293.470,14656.610,-0.097,0.933,-0.310,-14.191,8.881,-5.890,66.667,345.000,1.000,2.648,0.000
14528.510,14087.910,15997.040,14907.310,14191.750,15244.010,15074.460,14435.530,-0.097,0.930,-0.308,-13.733,9.094,-5.859,66.667,346.000,1.000,0.011,0.000
14332.290,13916.630,15778.350,14668.330,13994.850,15041.020,14866.780,14230.390,-0.097,0.934,-0.308,-13.306,9.308,-5.676,66.667,347.000,1.000,5.528,0.000
14142.220,13710.870,15563.740,14466.810,13801.600,14837.700,14664.620,14036.940,-0.104,0.938,-0.308,-12.848,9.552,-5.646,66.667,348.000,1.000,3.125,0.000
13949.520,13518.450,15352.210,14285.080,13610.500,14637.460,14462.500,13842.850,-0.113,0.941,-0.304,-12.451,9.644,-5.402,66.667,349.000,1.000,0.009,0.000
13761.760,13366.870,15151.540,14105.590,13428.650,14446.730,14266.490,13652.360,-0.119,0.946,-0.302,-12.024,9.674,-5.280,66.667,350.000,1.000,1.907,0.000
13571.010,13190.170,14943.460,13911.650,13241.570,14247.550,14067.920,13456.960,-0.123,0.946,-0.300,-11.688,9.583,-5.127,66.667,351.000,1.000,2.528,0.000
13367.520,12972.180,14717.860,13704.070,13041.190,14034.100,13859.470,13250.340,-0.120,0.948,-0.300,-11.261,9.521,-4.913,66.667,352.000,1.000,3.038,0.000
13174.360,12792.650,14504.680,13507.750,12852.750,13833.960,13658.410,13054.350,-0.123,0.951,-0.302,-10.834,9.430,-4.883,66.667,353.000,1.000,0.015,0.000
12989.640,12645.500,14303.360,13312.040,12676.370,13645.970,13465.130,12868.900,-0.123,0.954,-0.296,-10.437,9.186,-4.700,66.667,354.000,1.000,13.839,0.000
12795.070,12443.660,14088.370,13105.120,12489.130,13441.850,13264.100,12676.730,-0.127,0.955,-0.296,-10.193,8.942,-4.425,66.667,355.000,1.000,0.013,0.000
12601.660,12218.710,13870.760,12906.850,12298.640,13229.350,13059.930,12485.030,-0.128,0.948,-0.292,-9.979,8.667,-4.181,66.667,356.000,1.000,2.370,0.000
12410.700,12024.870,13661.540,12718.180,12117.370,13026.500,12863.080,12305.980,-0.128,0.941,-0.294,-9.644,8.362,-3.906,66.667,357.000,1.000,0.010,0.000
12220.800,11841.810,13456.290,12537.360,11939.880,12828.600,12670.410,12132.830,-0.127,0.937,-0.296,-9.247,8.148,-3.723,66.667,358.000,1.000,3.073,0.000
12039.160,11674.010,13255.170,12354.900,11762.150,12632.390,12477.190,11956.680,-0.125,0.936,-0.297,-8.820,8.057,-3.448,66.667,359.000,1.000,14.443,0.000
11854.170,11514.210,13050.640,12150.070,11581.040,12436.840,12283.100,11776.530,-0.123,0.936,-0.297,-8.209,7.843,-3.204,66.667,360.000,1.000,0.008,0.000
11665.110,11347.840,12844.140,11948.200,11398.330,12239.600,12088.610,11593.110,-0.123,0.936,-0.299,-7.690,7.599,-2.808,66.667,361.000,1.000,8.100,0.000
11488.380,11203.580,12650.950,11779.740,11226.570,12051.910,11901.930,11416.070,-0.122,0.936,-0.298,-7.172,7.446,-2.563,66.667,362.000,1.000,0.006,0.000
11306.350,11032.950,12449.530,11595.510,11051.410,11863.250,11717.470,11237.680,-0.123,0.936,-0.299,-6.714,7.263,-2.350,66.667,363.000,1.000,0.004,0.000
11106.140,10788.450,12223.100,11373.920,10857.020,11655.310,11521.930,11043.980,-0.119,0.936,-0.300,-6.226,7.111,-2.167,66.667,364.000,1.000,11.898,0.000
10913.720,10559.430,12002.680,11167.780,10663.790,11445.670,11322.430,10849.620,-0.116,0.937,-0.297,-5.768,6.989,-2.045,66.667,365.000,1.000,0.009,0.000
10738.130,10383.640,11803.830,11008.150,10485.070,11249.520,11129.490,10669.420,-0.115,0.940,-0.296,-5.341,6.866,-2.045,66.667,366.000,1.000,8.115,0.000
10562.910,10207.760,11608.280,10852.940,10309.420,11058.940,10939.660,10491.470,-0.116,0.944,-0.296,-4.974,6.775,-1.984,66.667,367.000,1.000,2.498,0.000
10383.300,10044.800,11407.060,10641.460,10129.620,10868.850,10747.010,10302.370,-0.120,0.952,-0.293,-4.639,6.592,-1.923,66.667,368.000,1.000,2.458,0.000
10206.590,9903.458,11210.560,10422.180,9953.104,10683.810,10557.060,10115.010,-0.123,0.957,-0.290,-4.486,6.409,-2.014,66.667,369.000,1.000,3.085,0.000
10029.740,9739.479,11016.210,10242.880,9778.450,10503.590,10370.890,9933.758,-0.123,0.961,-0.290,-4.364,6.104,-2.167,66.667,370.000,1.000,0.011,0.000
9851.491,9549.934,10817.740,10076.030,9600.356,10321.960,10184.280,9750.633,-0.121,0.969,-0.293,-4.395,5.859,-2.441,66.667,371.000,1.000,1.959,0.000
9669.245,9356.880,10614.050,9901.166,9417.897,10131.010,9994.428,9565.161,-0.122,0.973,-0.295,-4.425,5.585,-2.625,66.667,372.000,1.000,11.164,0.000
9481.639,9173.397,10407.630,9715.127,9235.063,9936.924,9804.466,9382.005,-0.125,0.976,-0.295,-4.395,5.249,-2.777,66.667,373.000,1.000,8.773,0.000
9296.590,9000.352,10202.140,9508.891,9054.050,9748.244,9617.059,9198.610,-0.124,0.974,-0.296,-4.639,4.974,-2.991,66.667,374.000,1.000,0.011,0.000
9118.318,8836.237,10001.190,9296.918,8877.159,9565.439,9432.846,9015.055,-0.127,0.975,-0.293,-4.730,4.578,-3.143,66.667,375.000,1.000,0.006,0.000
8954.336,8686.248,9818.362,9128.590,8715.591,9391.348,9259.115,8846.490,-0.129,0.973,-0.293,-4.791,4.120,-3.357,66.667,376.000,1.000,2.511,0.000
8789.956,8521.131,9637.570,8983.766,8554.705,9209.739,9083.044,8682.812,-0.133,0.974,-0.302,-4.852,3.723,-3.479,66.667,377.000,1.000,2.548,0.000
8605.977,8328.988,9434.618,8801.108,8376.373,9008.981,8890.436,8507.218,-0.138,0.974,-0.305,-4.852,3.357,-3.845,66.667,378.000,1.000,8.711,0.000
8420.771,8151.851,9227.852,8592.504,8197.223,8811.487,8696.438,8328.765,-0.138,0.975,-0.302,-4.913,2.777,-4.211,66.667,379.000,1.000,3.134,0.000
8243.974,7983.262,9030.997,8402.427,8027.957,8626.611,8511.774,8154.410,-0.137,0.974,-0.306,-4.974,2.258,-4.425,66.667,380.000,1.000,0.007,0.000
8068.837,7808.638,8838.757,8230.081,7863.596,8446.373,8333.476,7984.249,-0.133,0.969,-0.307,-5.005,1.740,-4.608,66.667,381.000,1.000,5.501,0.000
7902.560,7653.287,8656.590,8063.435,7706.999,8274.663,8163.276,7822.292,-0.128,0.964,-0.303,-5.035,1.282,-4.822,66.667,382.000,1.000,9.432,0.000
7736.397,7501.400,8476.228,7891.148,7550.762,8104.671,7993.753,7660.004,-0.126,0.955,-0.303,-4.974,0.854,-4.913,66.667,383.000,1.000,0.012,0.000
7564.065,7348.827,8291.729,7713.475,7389.730,7931.665,7818.750,7491.012,-0.125,0.951,-0.305,-4.913,0.549,-5.096,66.667,384.000,1.000,4.403,0.000
7387.976,7174.576,8101.362,7541.201,7222.170,7750.681,7639.628,7320.324,-0.123,0.948,-0.306,-4.761,0.214,-5.249,66.667,385.000,1.000,2.436,0.000
7203.999,6962.345,7898.039,7354.560,7042.604,7555.468,7454.187,7145.205,-0.122,0.943,-0.308,-4.547,0.000,-5.310,66.667,386.000,1.000,11.847,0.000
7027.290,6779.663,7699.817,7160.697,6864.193,7362.690,7266.907,6966.960,-0.119,0.939,-0.312,-4.364,-0.305,-5.310,66.667,387.000,1.000,0.015,0.000
6860.069,6634.733,7513.715,6990.194,6692.556,7178.106,7079.617,6787.088,-0.119,0.940,-0.310,-4.120,-0.488,-5.432,66.667,388.000,1.000,1.907,0.000
6696.150,6474.250,7331.120,6836.534,6523.960,6995.995,6896.230,6610.661,-0.119,0.938,-0.313,-3.754,-0.519,-5.341,66.667,389.000,1.000,7.511,0.000
6536.007,6307.008,7150.297,6672.527,6358.517,6815.527,6720.316,6442.527,-0.121,0.940,-0.316,-3.540,-0.732,-5.280,66.667,390.000,1.000,2.491,0.000
6367.132,6149.563,6962.948,6485.303,6189.182,6633.563,6542.955,6271.527,-0.125,0.950,-0.320,-3.204,-0.916,-5.341,66.667,391.000,1.000,7.562,0.000
6195.807,5997.482,6775.405,6304.930,6019.921,6455.122,6365.078,6097.033,-0.125,0.959,-0.319,-3.021,-1.129,-5.280,66.667,392.000,1.000,2.477,0.000
6036.778,5870.233,6600.321,6145.748,5860.199,6287.463,6194.142,5928.769,-0.127,0.969,-0.318,-3.052,-1.282,-5.188,66.667,393.000,1.000,2.457,0.000
5876.041,5732.525,6420.053,5967.692,5697.314,6120.360,6021.890,5759.288,-0.123,0.978,-0.315,-3.143,-1.404,-5.188,66.667,394.000,1.000,3.070,0.000
5706.264,5545.854,6226.563,5780.268,5524.927,5943.292,5843.827,5585.510,-0.120,0.980,-0.308,-3.326,-1.526,-5.127,66.667,395.000,1.000,0.005,0.000
5533.961,5342.011,6032.637,5613.513,5353.651,5760.379,5668.134,5419.139,-0.121,0.979,-0.309,-3.662,-1.465,-5.005,66.667,396.000,1.000,1.936,0.000
5354.542,5141.827,5834.157,5431.593,5181.024,5575.333,5492.826,5255.425,-0.128,0.984,-0.310,-3.967,-1.556,-4.974,66.667,397.000,1.000,3.731,0.000
5175.371,4953.194,5635.041,5236.705,5008.260,5393.852,5316.754,5088.277,-0.134,0.989,-0.307,-4.211,-1.770,-4.669,66.667,398.000,1.000,14.344,0.000
5012.008,4806.209,5454.264,5077.429,4851.096,5227.696,5150.628,4930.719,-0.140,0.990,-0.305,-4.730,-2.167,-4.517,66.667,399.000,1.000,0.014,0.000
4867.732,4713.489,5296.113,4946.080,4714.521,5078.982,4998.008,4790.021,-0.141,0.989,-0.301,-5.127,-2.472,-4.517,66.667,400.000,1.000,9.411,0.000
4716.958,4591.458,5129.874,4788.672,4572.812,4922.073,4841.407,4644.719,-0.141,0.988,-0.296,-5.463,-2.625,-4.425,66.667,401.000,1.000,2.469,0.000
4542.561,4397.510,4937.863,4596.954,4411.007,4744.547,4670.756,4481.576,-0.138,0.983,-0.294,-5.798,-2.899,-4.333,66.667,402.000,1.000,2.551,0.000
4378.744,4218.323,4756.408,4432.261,4256.346,4573.570,4505.512,4324.074,-0.136,0.978,-0.286,-6.165,-3.082,-4.150,66.667,403.000,1.000,12.471,0.000
4236.158,4076.468,4595.138,4296.629,4114.928,4412.408,4350.842,4179.477,-0.135,0.972,-0.285,-6.531,-3.204,-3.937,66.667,404.000,1.000,2.532,0.000
4083.295,3925.237,4423.039,4132.115,3963.507,4244.511,4187.604,4024.448,-0.133,0.961,-0.283,-6.775,-3.479,-3.723,66.667,405.000,1.000,2.462,0.000
3915.496,3767.363,4238.544,3953.287,3801.801,4073.269,4012.789,3855.436,-0.127,0.952,-0.282,-7.050,-3.510,-3.326,66.667,406.000,1.000,8.072,0.000
3749.612,3616.098,4056.491,3784.052,3640.666,3901.500,3837.103,3687.148,-0.125,0.942,-0.283,-7.019,-3.448,-2.869,66.667,407.000,1.000,0.012,0.000
3587.425,3455.273,3876.552,3606.178,3480.131,3727.507,3664.838,3521.899,-0.123,0.936,-0.287,-6.866,-3.357,-2.502,66.667,408.000,1.000,4.427,0.000
3433.702,3299.206,3707.260,3453.032,3328.239,3560.310,3501.312,3365.454,-0.116,0.930,-0.288,-6.622,-3.296,-2.167,66.667,409.000,1.000,2.535,0.000
3284.183,3157.438,3543.446,3322.679,3182.619,3401.922,3343.484,3215.650,-0.111,0.925,-0.290,-6.165,-2.991,-1.770,66.667,410.000,1.000,2.486,0.000
3123.667,3011.688,3365.359,3149.744,3027.214,3243.276,3179.722,3056.697,-0.108,0.922,-0.288,-5.768,-2.655,-1.373,66.667,411.000,1.000,2.468,0.000
2959.077,2863.886,3180.439,2944.557,2862.383,3077.925,3008.163,2887.154,-0.105,0.915,-0.290,-5.341,-2.228,-0.916,66.667,412.000,1.000,8.102,0.000
2799.641,2697.491,2999.881,2770.465,2694.588,2900.136,2833.594,2717.347,-0.099,0.910,-0.292,-4.761,-1.678,-0.275,66.667,413.000,1.000,0.010,0.000
2641.137,2516.520,2821.637,2630.108,2527.922,2720.295,2661.373,2554.272,-0.094,0.910,-0.294,-4.150,-1.099,0.153,66.667,414.000,1.000,1.869,0.000
2473.636,2351.518,2637.344,2464.638,2359.522,2548.632,2489.906,2390.726,-0.091,0.912,-0.294,-3.326,-0.427,0.641,66.667,415.000,1.000,2.467,0.000
2311.405,2215.487,2458.621,2285.094,2195.892,2385.452,2323.251,2228.973,-0.087,0.920,-0.291,-2.838,0.305,0.946,66.667,416.000,1.000,3.262,0.000
2165.621,2094.871,2294.576,2130.660,2044.111,2229.106,2166.063,2074.470,-0.087,0.927,-0.289,-2.411,1.007,1.129,66.667,417.000,1.000,1.743,0.000
2013.488,1938.517,2122.954,1981.540,1890.611,2066.724,2007.995,1916.672,-0.083,0.934,-0.289,-2.014,1.678,1.373,66.667,418.000,1.000,8.123,0.000
1848.155,1750.720,1940.589,1826.296,1734.394,1898.545,1846.455,1756.784,-0.085,0.940,-0.290,-1.648,2.411,1.495,66.667,419.000,1.000,0.012,0.000
1682.893,1586.406,1761.849,1657.571,1583.301,1731.588,1684.978,1600.979,-0.086,0.949,-0.289,-1.495,3.082,1.434,66.667,420.000,1.000,1.819,0.000
1527.532,1445.019,1591.820,1486.128,1437.626,1564.267,1523.636,1448.846,-0.088,0.955,-0.288,-1.343,3.723,1.282,66.667,421.000,1.000,3.775,0.000
1383.947,1305.177,1433.114,1340.408,1301.409,1404.538,1368.319,1304.779,-0.095,0.956,-0.286,-1.343,4.364,1.068,66.667,422.000,1.000,9.435,0.000
1247.835,1180.065,1284.350,1206.448,1175.180,1257.373,1221.785,1169.687,-0.103,0.958,-0.287,-1.312,4.883,0.610,66.667,423.000,1.000,0.016,0.000
1112.175,1073.889,1137.973,1064.709,1050.541,1113.739,1077.142,1036.254,-0.109,0.954,-0.283,-1.404,5.157,0.092,66.667,424.000,1.000,2.411,0.000
971.160,946.315,985.419,923.453,919.234,960.961,928.466,900.280,-0.111,0.954,-0.283,-1.556,5.341,-0.427,66.667,425.000,1.000,0.079,0.000
824.296,777.517,824.108,784.277,780.034,797.664,776.014,762.350,-0.110,0.950,-0.288,-1.495,5.402,-1.007,66.667,426.000,1.000,24.370,0.000
668.533,599.374,653.272,625.869,633.249,633.686,620.232,617.967,-0.110,0.947,-0.290,-1.526,5.554,-1.526,66.667,427.000,1.000,2.414,0.000
511.316,454.645,481.749,451.732,483.841,475.952,462.917,465.210,-0.107,0.943,-0.287,-1.404,5.524,-2.014,66.667,428.000,1.000,2.429,0.000
362.943,327.419,317.683,292.967,337.647,321.827,308.378,312.843,-0.109,0.940,-0.286,-1.251,5.676,-2.502,66.667,429.000,1.000,6.294,0.000
217.305,170.107,153.571,150.206,191.595,164.919,156.810,166.599,-0.114,0.936,-0.285,-1.190,5.676,-2.899,66.667,430.000,1.000,2.448,0.000
74.287,27.742,-7.715,4.610,47.614,12.785,6.584,22.619,-0.121,0.938,-0.289,-1.129,5.646,-3.296,66.667,431.000,1.000,2.569,0.000
-62.602,-79.829,-162.698,-143.830,-94.342,-133.760,-144.065,-122.774,-0.125,0.936,-0.288,-1.007,5.493,-3.540,66.667,432.000,1.000,7.452,0.000
-200.074,-221.355,-321.624,-284.056,-240.828,-285.966,-296.281,-267.463,-0.130,0.936,-0.290,-0.793,5.219,-3.937,66.667,433.000,1.000,5.033,0.000
-347.549,-393.748,-489.613,-426.797,-392.255,-442.373,-450.155,-413.212,-0.133,0.934,-0.296,-0.702,4.913,-4.211,66.667,434.000,1.000,2.484,0.000
-505.669,-555.523,-664.408,-593.440,-548.686,-601.126,-607.301,-566.701,-0.133,0.933,-0.294,-0.458,4.486,-4.395,66.667,435.000,1.000,7.470,0.000
-659.640,-703.018,-836.794,-771.027,-705.938,-760.862,-764.883,-724.011,-0.137,0.935,-0.294,-0.397,4.120,-4.486,66.667,436.000,1.000,2.449,0.000
-795.843,-820.608,-992.193,-917.321,-850.187,-909.455,-914.810,-871.215,-0.141,0.933,-0.298,-0.214,3.540,-4.547,66.667,437.000,1.000,2.585,0.000
-929.803,-930.710,-1141.872,-1042.888,-987.404,-1050.331,-1062.488,-1011.647,-0.144,0.934,-0.293,-0.214,3.052,-4.578,66.667,438.000,1.000,3.099,0.000
-1084.156,-1099.871,-1313.449,-1202.817,-1141.450,-1209.095,-1223.317,-1164.690,-0.142,0.936,-0.296,-0.336,2.563,-4.761,66.667,439.000,1.000,0.014,0.000
-1238.184,-1272.306,-1485.774,-1376.273,-1297.381,-1372.745,-1387.594,-1323.405,-0.138,0.940,-0.301,-0.275,2.136,-4.730,66.667,440.000,1.000,1.868,0.000
-1372.288,-1376.339,-1632.233,-1517.629,-1431.286,-1516.073,-1538.446,-1470.120,-0.133,0.946,-0.300,-0.275,1.678,-4.700,66.667,441.000,1.000,2.389,0.000
-1506.060,-1487.256,-1776.437,-1645.860,-1558.664,-1657.870,-1681.985,-1608.901,-0.132,0.952,-0.307,-0.366,1.251,-4.547,66.667,442.000,1.000,2.536,0.000
-1645.234,-1637.550,-1928.627,-1774.336,-1686.893,-1804.118,-1822.570,-1741.301,-0.133,0.957,-0.306,-0.641,0.854,-4.364,66.667,443.000,1.000,3.131,0.000
-1783.146,-1768.868,-2078.135,-1900.251,-1810.611,-1946.876,-1961.388,-1867.782,-0.133,0.961,-0.305,-1.007,0.549,-4.120,66.667,444.000,1.000,0.011,0.000
-1928.047,-1889.881,-2234.532,-2049.117,-1941.945,-2098.036,-2107.635,-2002.308,-0.135,0.961,-0.309,-1.495,0.153,-3.723,66.667,445.000,1.000,4.337,0.000
-2078.668,-2039.229,-2399.942,-2219.525,-2082.789,-2258.458,-2258.570,-2145.337,-0.136,0.954,-0.310,-1.984,-0.183,-3.540,66.667,446.000,1.000,2.547,0.000
-2220.451,-2190.589,-2555.266,-2371.183,-2214.342,-2408.440,-2398.828,-2277.904,-0.134,0.955,-0.313,-2.197,-0.610,-3.235,66.667,447.000,1.000,3.747,0.000
-2354.467,-2326.689,-2700.835,-2506.531,-2335.796,-2544.545,-2527.587,-2397.852,-0.133,0.954,-0.317,-2.472,-0.916,-3.082,66.667,448.000,1.000,11.942,0.000
-2493.998,-2477.140,-2854.809,-2651.824,-2465.668,-2686.461,-2661.512,-2524.182,-0.133,0.955,-0.318,-2.777,-1.160,-2.808,66.667,449.000,1.000,0.014,0.000
-2634.971,-2621.554,-3011.140,-2791.436,-2602.566,-2833.646,-2805.031,-2662.431,-0.136,0.948,-0.314,-3.143,-1.526,-2.441,66.667,450.000,1.000,11.156,0.000
-2765.735,-2719.259,-3153.792,-2911.128,-2731.634,-2970.796,-2945.618,-2798.397,-0.138,0.943,-0.316,-3.632,-1.892,-2.197,66.667,451.000,1.000,0.010,0.000
-2898.841,-2837.664,-3299.936,-3040.600,-2862.986,-3111.660,-3083.729,-2931.109,-0.139,0.937,-0.319,-3.815,-2.075,-2.075,66.667,452.000,1.000,14.987,0.000
-3044.927,-3016.917,-3463.333,-3199.088,-3006.591,-3264.253,-3225.289,-3069.122,-0.140,0.935,-0.319,-3.906,-2.472,-1.923,66.667,453.000,1.000,0.013,0.000
-3180.427,-3160.364,-3615.043,-3352.024,-3141.275,-3403.327,-3361.343,-3203.559,-0.136,0.933,-0.316,-3.998,-2.777,-1.923,66.667,454.000,1.000,1.904,0.000
-3294.893,-3237.174,-3742.737,-3466.333,-3260.489,-3527.140,-3493.754,-3332.397,-0.134,0.933,-0.310,-4.211,-3.021,-1.740,66.667,455.000,1.000,2.491,0.000
-3423.590,-3345.549,-3886.014,-3591.110,-3394.930,-3667.710,-3641.090,-3476.106,-0.131,0.935,-0.309,-4.303,-3.265,-1.709,66.667,456.000,1.000,3.689,0.000
-3577.129,-3510.205,-4056.742,-3760.960,-3549.657,-3826.143,-3799.154,-3632.917,-0.130,0.934,-0.308,-4.639,-3.448,-1.678,66.667,457.000,1.000,0.006,0.000
-3726.677,-3663.695,-4222.458,-3925.430,-3697.579,-3977.136,-3949.315,-3780.261,-0.130,0.935,-0.309,-4.883,-3.693,-1.617,66.667,458.000,1.000,0.005,0.000
-3860.289,-3797.066,-4371.373,-4053.813,-3831.140,-4116.743,-4088.113,-3913.598,-0.128,0.935,-0.303,-4.944,-3.754,-1.617,66.667,459.000,1.000,2.523,0.000
-3982.379,-3915.522,-4508.253,-4168.798,-3954.112,-4244.695,-4216.833,-4037.905,-0.131,0.940,-0.302,-5.280,-3.876,-1.678,66.667,460.000,1.000,2.489,0.000
-4107.760,-4013.429,-4646.424,-4308.134,-4076.463,-4365.176,-4345.267,-4163.814,-0.129,0.944,-0.303,-5.615,-3.906,-1.831,66.667,461.000,1.000,2.483,0.000
-4245.806,-4129.754,-4798.275,-4464.503,-4209.730,-4497.438,-4485.116,-4299.223,-0.126,0.947,-0.299,-5.798,-4.211,-1.892,66.667,462.000,1.000,8.811,0.000
-4385.659,-4283.732,-4957.411,-4610.889,-4350.305,-4647.400,-4634.306,-4440.043,-0.125,0.946,-0.295,-6.012,-4.028,-2.106,66.667,463.000,1.000,9.292,0.000
-4517.757,-4437.986,-5112.751,-4753.577,-4488.533,-4801.417,-4784.306,-4579.808,-0.123,0.946,-0.298,-6.287,-3.998,-2.350,66.667,464.000,1.000,0.007,0.000
-4643.693,-4564.362,-5257.611,-4890.599,-4616.079,-4944.080,-4924.400,-4709.564,-0.123,0.944,-0.296,-6.531,-3.876,-2.289,66.667,465.000,1.000,16.915,0.000
-4766.651,-4682.162,-5392.069,-5002.864,-4732.174,-5073.729,-5051.609,-4825.785,-0.125,0.938,-0.293,-6.775,-3.815,-2.289,66.667,466.000,1.000,0.015,0.000
-4889.645,-4807.622,-5524.743,-5106.195,-4846.737,-5200.047,-5176.475,-4940.096,-0.128,0.939,-0.290,-6.805,-3.662,-2.319,66.667,467.000,1.000,0.005,0.000
-5015.136,-4911.256,-5660.532,-5238.938,-4966.586,-5330.656,-5307.805,-5064.485,-0.128,0.939,-0.288,-6.897,-3.571,-2.380,66.667,468.000,1.000,2.450,0.000
-5141.364,-5000.853,-5796.913,-5391.770,-5089.124,-5465.630,-5441.738,-5194.304,-0.130,0.937,-0.286,-6.958,-3.540,-2.441,66.667,469.000,1.000,6.311,0.000
-5265.011,-5139.188,-5933.209,-5521.724,-5208.911,-5599.489,-5568.490,-5313.771,-0.129,0.933,-0.289,-7.202,-3.448,-2.380,66.667,470.000,1.000,2.420,0.000
-5385.305,-5313.200,-6070.333,-5627.998,-5326.430,-5732.264,-5690.128,-5424.295,-0.126,0.932,-0.287,-7.111,-3.265,-2.258,66.667,471.000,1.000,5.054,0.000
-5506.369,-5450.021,-6208.714,-5748.117,-5448.105,-5867.335,-5819.989,-5547.262,-0.127,0.931,-0.284,-7.111,-3.174,-2.106,66.667,472.000,1.000,2.538,0.000
-5634.375,-5546.872,-6350.168,-5890.333,-5576.638,-6004.871,-5960.708,-5686.696,-0.126,0.929,-0.282,-7.050,-2.991,-2.075,66.667,473.000,1.000,2.436,0.000
-5768.617,-5656.507,-6496.682,-6036.063,-5709.025,-6145.482,-6102.247,-5827.199,-0.126,0.929,-0.282,-6.989,-2.838,-1.923,66.667,474.000,1.000,3.036,0.000
-5898.890,-5785.832,-6641.488,-6172.438,-5836.511,-6284.235,-6234.714,-5957.237,-0.128,0.929,-0.276,-6.866,-2.563,-1.801,66.667,475.000,1.000,0.007,0.000
-6021.073,-5899.898,-6777.609,-6298.665,-5954.554,-6413.993,-6357.758,-6077.192,-0.130,0.932,-0.277,-6.836,-2.411,-1.892,66.667,476.000,1.000,1.997,0.000
-6142.152,-6004.245,-6911.199,-6421.434,-6070.926,-6539.024,-6479.163,-6195.053,-0.132,0.934,-0.275,-6.653,-2.197,-1.801,66.667,477.000,1.000,24.295,0.000
-6269.433,-6136.133,-7051.817,-6550.273,-6194.854,-6671.431,-6606.229,-6318.652,-0.132,0.940,-0.274,-6.714,-2.136,-1.587,66.667,478.000,1.000,0.014,0.000
-6393.762,-6271.246,-7190.199,-6680.363,-6318.324,-6804.825,-6733.834,-6444.451,-0.133,0.944,-0.276,-6.744,-1.984,-1.434,66.667,479.000,1.000,2.574,0.000
-6503.566,-6374.429,-7314.858,-6788.348,-6431.294,-6929.167,-6854.389,-6562.322,-0.129,0.949,-0.276,-6.775,-1.862,-1.495,66.667,480.000,1.000,0.010,0.000
-6620.082,-6488.605,-7447.561,-6898.379,-6551.060,-7057.979,-6980.716,-6684.933,-0.129,0.954,-0.276,-6.897,-1.648,-1.282,66.667,481.000,1.000,4.979,0.000
-6758.664,-6637.367,-7601.298,-7047.486,-6687.547,-7196.859,-7120.060,-6822.852,-0.128,0.955,-0.274,-7.080,-1.495,-1.190,66.667,482.000,1.000,0.008,0.000
-6896.256,-6776.871,-7750.638,-7201.322,-6820.085,-7330.359,-7256.978,-6956.485,-0.129,0.957,-0.273,-7.263,-1.312,-1.038,66.667,483.000,1.000,1.814,0.000
-7016.918,-6875.573,-7879.948,-7327.359,-6936.007,-7448.097,-7382.979,-7074.733,-0.133,0.957,-0.273,-7.446,-1.129,-0.916,66.667,484.000,1.000,2.478,0.000
-7131.539,-6955.887,-8002.583,-7446.358,-7046.088,-7559.768,-7505.427,-7189.213,-0.134,0.956,-0.272,-7.568,-1.007,-0.854,66.667,485.000,1.000,2.510,0.000
-7247.990,-7049.003,-8127.234,-7562.812,-7155.661,-7672.658,-7627.111,-7303.709,-0.134,0.954,-0.272,-7.660,-0.885,-0.824,66.667,486.000,1.000,9.363,0.000
-7363.062,-7152.735,-8249.968,-7664.347,-7260.030,-7783.754,-7743.604,-7410.003,-0.133,0.950,-0.272,-7.721,-0.702,-0.702,66.667,487.000,1.000,0.018,0.000
-7484.056,-7280.886,-8381.188,-7776.043,-7371.113,-7906.702,-7863.179,-7517.080,-0.135,0.945,-0.273,-7.721,-0.427,-0.641,66.667,488.000,1.000,4.996,0.000
-7616.930,-7434.919,-8525.584,-7910.208,-7495.989,-8046.323,-7993.683,-7637.463,-0.132,0.937,-0.276,-7.568,-0.336,-0.671,66.667,489.000,1.000,0.004,0.000
-7745.840,-7567.106,-8663.287,-8040.241,-7617.771,-8182.340,-8124.070,-7759.984,-0.132,0.929,-0.279,-7.385,-0.061,-0.641,66.667,490.000,1.000,1.883,0.000
-7861.515,-7671.822,-8788.702,-8158.027,-7729.812,-8308.152,-8247.294,-7875.208,-0.134,0.924,-0.278,-6.989,0.061,-0.519,66.667,491.000,1.000,3.772,0.000
-7976.128,-7777.836,-8915.538,-8276.972,-7841.398,-8430.658,-8368.016,-7989.805,-0.135,0.920,-0.276,-6.592,0.244,-0.366,66.667,492.000,1.000,14.366,0.000
-8092.586,-7886.014,-9044.974,-8397.509,-7954.762,-8554.031,-8486.813,-8105.358,-0.137,0.916,-0.277,-6.134,0.427,-0.397,66.667,493.000,1.000,0.017,0.000
-8206.850,-7994.706,-9172.563,-8516.668,-8067.581,-8679.676,-8602.454,-8218.503,-0.140,0.918,-0.277,-5.707,0.519,-0.244,66.667,494.000,1.000,1.941,0.000
-8327.492,-8115.634,-9305.585,-8645.455,-8183.349,-8804.421,-8720.018,-8335.398,-0.140,0.922,-0.275,-5.341,0.610,-0.153,66.667,495.000,1.000,2.383,0.000
-8451.770,-8249.659,-9441.761,-8776.828,-8300.277,-8926.460,-8839.311,-8455.124,-0.142,0.925,-0.273,-5.066,0.732,-0.092,66.667,496.000,1.000,2.592,0.000
-8561.532,-8359.688,-9563.183,-8886.579,-8407.950,-9043.972,-8954.155,-8567.448,-0.143,0.928,-0.276,-4.608,0.610,0.000,66.667,497.000,1.000,8.649,0.000
-8658.895,-8432.065,-9671.464,-8980.958,-8507.979,-9157.032,-9067.402,-8674.639,-0.144,0.933,-0.275,-4.333,0.549,0.092,66.667,498.000,1.000,2.506,0.000
-8770.851,-8545.654,-9797.988,-9095.966,-8623.644,-9285.447,-9191.914,-8791.899,-0.147,0.940,-0.275,-4.120,0.519,0.275,66.667,499.000,1.000,2.519,0.000
-8899.783,-8710.378,-9947.074,-9239.918,-8759.151,-9432.461,-9328.375,-8922.837,-0.148,0.948,-0.275,-3.998,0.488,0.305,66.667,500.000,1.000,4.356,0.000
-9015.337,-8834.670,-10082.830,-9373.232,-8885.273,-9567.976,-9457.279,-9046.762,-0.146,0.957,-0.276,-4.028,0.305,0.397,66.667,501.000,1.000,0.009,0.000
-9110.313,-8909.690,-10195.560,-9474.627,-8992.803,-9685.937,-9573.793,-9155.417,-0.146,0.967,-0.277,-4.059,0.214,0.641,66.667,502.000,1.000,8.162,0.000
-9207.200,-8997.089,-10307.700,-9566.566,-9097.180,-9801.352,-9688.786,-9261.688,-0.145,0.971,-0.276,-4.211,0.153,0.793,66.667,503.000,1.000,2.489,0.000
-9316.148,-9113.367,-10428.830,-9670.331,-9203.814,-9917.123,-9804.716,-9370.643,-0.146,0.978,-0.276,-4.456,0.153,0.946,66.667,504.000,1.000,10.042,0.000
-9429.566,-9231.082,-10553.250,-9791.919,-9309.873,-10031.850,-9920.380,-9482.305,-0.148,0.982,-0.278,-4.700,0.061,1.038,66.667,505.000,1.000,3.127,0.000
-9537.258,-9336.622,-10671.650,-9914.412,-9409.688,-10141.660,-10031.890,-9591.573,-0.147,0.984,-0.279,-5.127,-0.153,1.068,66.667,506.000,1.000,0.015,0.000
-9640.423,-9435.766,-10783.420,-10020.810,-9503.240,-10244.540,-10139.190,-9694.110,-0.146,0.979,-0.279,-5.493,-0.275,1.160,66.667,507.000,1.000,1.830,0.000
-9750.462,-9529.538,-10900.470,-10126.780,-9601.761,-10349.130,-10250.320,-9799.277,-0.143,0.974,-0.279,-5.859,-0.458,1.373,66.667,508.000,1.000,11.288,0.000
-9862.874,-9615.593,-11022.650,-10242.370,-9706.230,-10459.130,-10365.120,-9908.421,-0.142,0.966,-0.279,-5.981,-0.488,1.465,66.667,509.000,1.000,2.954,0.000
-9976.639,-9721.923,-11149.650,-10364.790,-9815.495,-10575.650,-10481.880,-10018.730,-0.140,0.961,-0.278,-5.890,-0.366,1.587,66.667,510.000,1.000,0.009,0.000
-10095.880,-9856.418,-11282.020,-10489.540,-9930.195,-10698.630,-10600.290,-10131.780,-0.138,0.955,-0.283,-5.829,-0.397,1.740,66.667,511.000,1.000,1.962,0.000
-10208.050,-9989.472,-11406.890,-10602.910,-10040.070,-10819.580,-10713.300,-10239.260,-0.135,0.948,-0.288,-5.768,-0.305,1.801,66.667,512.000,1.000,5.013,0.000
-10303.880,-10083.390,-11514.640,-10698.410,-10135.520,-10924.740,-10815.990,-10335.080,-0.131,0.944,-0.289,-5.646,-0.214,2.014,66.667,513.000,1.000,5.024,0.000
-10395.000,-10137.860,-11615.720,-10789.590,-10224.830,-11014.740,-10914.820,-10429.900,-0.125,0.938,-0.287,-5.249,-0.031,2.197,66.667,514.000,1.000,2.475,0.000
-10500.280,-10229.180,-11732.960,-10896.260,-10328.900,-11120.500,-11022.110,-10536.130,-0.120,0.936,-0.287,-4.883,0.244,2.533,66.667,515.000,1.000,3.741,0.000
-10616.260,-10376.160,-11864.200,-11012.890,-10446.260,-11250.500,-11138.070,-10648.590,-0.117,0.932,-0.283,-4.547,0.549,2.747,66.667,516.000,1.000,13.743,0.000
-10729.960,-10508.350,-11992.310,-11129.320,-10561.540,-11380.290,-11257.180,-10761.970,-0.118,0.927,-0.282,-4.181,0.946,3.052,66.667,517.000,1.000,3.093,0.000
-10840.050,-10602.870,-12114.500,-11249.560,-10670.940,-11496.770,-11373.880,-10876.420,-0.117,0.926,-0.287,-3.815,1.251,3.357,66.667,518.000,1.000,0.013,0.000
-10945.200,-10689.540,-12230.560,-11362.020,-10773.080,-11599.660,-11480.450,-10984.590,-0.119,0.927,-0.285,-3.296,1.556,3.479,66.667,519.000,1.000,1.911,0.000
-11045.210,-10772.700,-12340.040,-11461.240,-10868.350,-11695.800,-11578.580,-11082.580,-0.124,0.932,-0.281,-2.899,1.862,3.601,66.667,520.000,1.000,2.523,0.000
-11148.090,-10851.370,-12450.450,-11568.080,-10963.700,-11795.410,-11677.030,-11177.560,-0.125,0.940,-0.280,-2.625,1.953,3.662,66.667,521.000,1.000,2.384,0.000
-11257.600,-10962.440,-12569.990,-11685.280,-11068.380,-11910.430,-11783.250,-11279.240,-0.130,0.948,-0.279,-2.411,2.258,3.723,66.667,522.000,1.000,11.356,0.000
-11364.730,-11103.890,-12692.030,-11791.490,-11180.170,-12038.460,-11896.900,-11386.980,-0.131,0.954,-0.281,-2.380,2.289,3.693,66.667,523.000,1.000,3.096,0.000
-11459.140,-11206.990,-12799.980,-11880.000,-11283.610,-12154.680,-12008.210,-11490.560,-0.134,0.958,-0.280,-2.319,2.289,3.632,66.667,524.000,1.000,0.009,0.000
-11553.320,-11275.890,-12903.390,-11975.720,-11381.620,-12256.530,-12117.230,-11591.890,-0.134,0.966,-0.284,-2.319,2.258,3.448,66.667,525.000,1.000,1.904,0.000
-11662.870,-11381.430,-13023.700,-12094.670,-11491.020,-12369.760,-12232.700,-11701.050,-0.132,0.974,-0.282,-2.380,2.197,3.296,66.667,526.000,1.000,13.670,0.000
-11774.700,-11506.990,-13148.480,-12214.890,-11602.970,-12491.460,-12348.110,-11812.160,-0.128,0.981,-0.280,-2.502,2.228,3.082,66.667,527.000,1.000,2.480,0.000
-11881.030,-11606.840,-13263.540,-12326.300,-11703.960,-12600.390,-12456.090,-11918.500,-0.124,0.984,-0.276,-2.747,2.380,2.869,66.667,528.000,1.000,3.870,0.000
-11988.710,-11698.430,-13376.180,-12438.390,-11800.080,-12701.480,-12562.360,-12023.350,-0.119,0.982,-0.274,-3.174,2.502,2.716,66.667,529.000,1.000,12.455,0.000
-12091.180,-11782.520,-13483.090,-12542.500,-11891.180,-12798.670,-12666.380,-12122.940,-0.119,0.973,-0.276,-3.754,2.808,2.411,66.667,530.000,1.000,2.472,0.000
-12187.000,-11859.590,-13584.180,-12633.380,-11977.780,-12893.770,-12766.950,-12216.310,-0.120,0.968,-0.277,-3.998,2.991,2.075,66.667,531.000,1.000,2.575,0.000
-12284.200,-11954.280,-13689.560,-12724.160,-12067.650,-12997.380,-12867.330,-12309.060,-0.120,0.961,-0.275,-3.937,3.174,1.923,66.667,532.000,1.000,2.451,0.000
-12380.720,-12058.550,-13796.420,-12821.390,-12158.270,-13104.260,-12966.350,-12401.680,-0.118,0.954,-0.277,-3.998,3.143,1.495,66.667,533.000,1.000,11.259,0.000
-12477.120,-12159.070,-13903.690,-12926.430,-12249.650,-13208.980,-13066.380,-12497.530,-0.118,0.947,-0.276,-4.028,3.235,1.282,66.667,534.000,1.000,3.084,0.000
-12573.290,-12260.210,-14012.060,-13028.110,-12343.330,-13313.280,-13167.130,-12595.340,-0.118,0.939,-0.275,-3.967,3.326,1.068,66.667,535.000,1.000,0.012,0.000
-12665.780,-12363.350,-14118.430,-13119.290,-12436.570,-13416.210,-13264.920,-12689.650,-0.117,0.933,-0.276,-3.876,3.540,0.732,66.667,536.000,1.000,1.868,0.000
-12758.370,-12460.460,-14225.080,-13216.100,-12530.430,-13518.470,-13361.580,-12782.520,-0.117,0.931,-0.277,-3.510,3.571,0.336,66.667,537.000,1.000,3.107,0.000
-12852.560,-12551.350,-14332.630,-13320.960,-12625.500,-13619.340,-13459.650,-12876.570,-0.120,0.927,-0.276,-3.265,3.784,0.244,66.667,538.000,1.000,0.018,0.000
-12951.380,-12644.810,-14442.900,-13427.940,-12723.770,-13720.990,-13562.540,-12976.460,-0.121,0.929,-0.277,-2.899,3.906,-0.031,66.667,539.000,1.000,1.913,0.000
-13053.460,-12740.320,-14554.240,-13530.470,-12824.060,-13826.070,-13669.490,-13081.060,-0.124,0.933,-0.274,-2.655,3.784,-0.275,66.667,540.000,1.000,2.512,0.000
-13148.980,-12828.710,-14658.860,-13622.970,-12919.270,-13928.260,-13772.470,-13180.710,-0.127,0.935,-0.274,-2.533,3.723,-0.488,66.667,541.000,1.000,2.471,0.000
-13238.430,-12899.580,-14756.630,-13714.840,-13007.060,-14020.300,-13865.700,-13272.260,-0.134,0.938,-0.278,-2.441,3.510,-0.610,66.667,542.000,1.000,4.388,0.000
-13326.800,-12961.710,-14852.300,-13808.840,-13091.640,-14106.940,-13953.620,-13359.630,-0.137,0.942,-0.274,-2.380,3.326,-0.854,66.667,543.000,1.000,0.013,0.000
-13421.870,-13062.320,-14957.580,-13905.260,-13185.610,-14208.040,-14050.160,-13451.610,-0.137,0.944,-0.273,-2.441,3.082,-1.099,66.667,544.000,1.000,8.045,0.000
-13527.060,-13204.400,-15075.490,-14005.430,-13291.930,-14326.820,-14158.530,-13551.490,-0.139,0.945,-0.271,-2.380,2.686,-1.160,66.667,545.000,1.000,14.272,0.000
-13629.430,-13318.730,-15188.560,-14103.060,-13395.720,-14439.560,-14266.930,-13652.540,-0.139,0.947,-0.272,-2.319,2.411,-1.221,66.667,546.000,1.000,0.013,0.000
-13723.420,-13390.080,-15290.830,-14199.080,-13491.090,-14535.620,-14369.610,-13750.680,-0.139,0.949,-0.274,-2.319,2.197,-1.251,66.667,547.000,1.000,3.787,0.000
-13815.600,-13465.940,-15391.210,-14296.530,-13583.500,-14626.810,-14467.990,-13845.000,-0.139,0.950,-0.272,-2.441,1.770,-1.282,66.667,548.000,1.000,0.012,0.000
-13906.420,-13560.410,-15491.570,-14392.000,-13674.820,-14723.220,-14564.200,-13935.520,-0.139,0.951,-0.273,-2.441,1.373,-1.221,66.667,549.000,1.000,11.222,0.000
-13992.660,-13641.720,-15587.790,-14485.520,-13762.590,-14819.280,-14659.790,-14024.210,-0.135,0.952,-0.273,-2.625,1.068,-0.916,66.667,550.000,1.000,0.013,0.000
-14077.590,-13697.000,-15680.750,-14579.930,-13846.800,-14908.580,-14755.060,-14112.990,-0.133,0.953,-0.275,-2.747,0.824,-0.885,66.667,551.000,1.000,6.830,0.000
-14172.240,-13778.950,-15782.660,-14679.550,-13936.780,-15002.480,-14854.580,-14206.510,-0.135,0.952,-0.272,-2.838,0.549,-0.671,66.667,552.000,1.000,0.015,0.000
-14275.680,-13906.940,-15895.630,-14784.280,-14034.520,-15106.220,-14958.010,-14303.970,-0.134,0.953,-0.271,-2.960,0.488,-0.427,66.667,553.000,1.000,0.009,0.000
-14369.510,-14012.100,-16000.170,-14881.610,-14124.980,-15204.370,-15054.430,-14394.450,-0.133,0.953,-0.273,-2.960,0.214,-0.183,66.667,554.000,1.000,2.568,0.000
-14454.100,-14086.070,-16095.560,-14971.500,-14207.120,-15293.020,-15142.830,-14478.870,-0.133,0.954,-0.275,-3.052,0.000,0.153,66.667,555.000,1.000,2.426,0.000
-14541.220,-14170.440,-16192.920,-15061.290,-14287.900,-15377.550,-15227.490,-14562.870,-0.131,0.958,-0.276,-3.082,-0.244,0.275,66.667,556.000,1.000,6.331,0.000
-14628.630,-14257.640,-16289.060,-15148.360,-14366.280,-15461.310,-15309.170,-14644.550,-0.132,0.957,-0.277,-3.296,-0.336,0.458,66.667,557.000,1.000,3.770,0.000
-14715.020,-14338.910,-16384.630,-15233.280,-14447.390,-15551.780,-15393.950,-14728.160,-0.129,0.958,-0.273,-3.540,-0.366,0.641,66.667,558.000,1.000,8.003,0.000
-14801.960,-14416.990,-16480.220,-15317.870,-14530.420,-15643.090,-15480.880,-14813.720,-0.130,0.957,-0.277,-3.693,-0.458,0.732,66.667,559.000,1.000,0.008,0.000
-14888.910,-14496.360,-16573.050,-15404.410,-14609.660,-15730.020,-15564.600,-14895.770,-0.127,0.953,-0.272,-3.754,-0.519,0.854,66.667,560.000,1.000,8.796,0.000
-14978.470,-14588.980,-16669.440,-15497.730,-14692.180,-15823.220,-15651.150,-14980.420,-0.126,0.951,-0.270,-3.967,-0.549,0.977,66.667,561.000,1.000,0.015,0.000
-15067.650,-14680.850,-16769.290,-15590.500,-14779.700,-15919.260,-15742.150,-15070.460,-0.125,0.951,-0.272,-3.967,-0.458,0.946,66.667,562.000,1.000,2.375,0.000
-15151.670,-14755.160,-16865.740,-15676.670,-14865.390,-16010.000,-15831.500,-15159.450,-0.124,0.953,-0.270,-4.120,-0.458,0.854,66.667,563.000,1.000,0.008,0.000
-15238.300,-14839.160,-16964.890,-15768.900,-14953.180,-16103.640,-15920.350,-15248.470,-0.123,0.956,-0.270,-4.303,-0.427,0.824,66.667,564.000,1.000,13.274,0.000
-15328.590,-14943.160,-17066.900,-15864.070,-15044.240,-16201.610,-16010.160,-15337.840,-0.119,0.959,-0.267,-4.486,-0.488,0.824,66.667,565.000,1.000,4.871,0.000
-15414.980,-15038.040,-17162.890,-15948.290,-15134.020,-16299.390,-16103.310,-15425.770,-0.118,0.959,-0.267,-4.761,-0.397,0.641,66.667,566.000,1.000,0.010,0.000
-15495.130,-15109.460,-17250.830,-16028.420,-15220.040,-16394.500,-16199.960,-15512.610,-0.118,0.955,-0.265,-4.883,-0.183,0.702,66.667,567.000,1.000,0.020,0.000
-15566.280,-15164.700,-17329.180,-16106.980,-15296.250,-16478.290,-16288.440,-15593.220,-0.116,0.949,-0.270,-4.974,-0.214,0.580,66.667,568.000,1.000,5.097,0.000
-15634.370,-15222.390,-17405.660,-16183.100,-15367.420,-16553.800,-16369.000,-15670.700,-0.116,0.943,-0.270,-4.913,0.061,0.305,66.667,569.000,1.000,2.330,0.000
-15715.050,-15306.360,-17497.790,-16269.850,-15450.480,-16641.140,-16458.650,-15758.890,-0.118,0.935,-0.275,-4.730,0.336,0.275,66.667,570.000,1.000,3.736,0.000
-15804.920,-15408.260,-17599.740,-16362.000,-15540.860,-16735.420,-16553.900,-15852.970,-0.119,0.929,-0.276,-4.517,0.458,0.122,66.667,571.000,1.000,16.367,0.000
-15889.830,-15488.100,-17692.080,-16447.050,-15620.890,-16814.130,-16639.410,-15937.550,-0.116,0.926,-0.276,-4.120,0.610,0.031,66.667,572.000,1.000,3.628,0.000
-15975.680,-15561.670,-17782.580,-16531.980,-15697.910,-16890.590,-16722.630,-16016.710,-0.113,0.929,-0.275,-3.693,0.885,-0.031,66.667,573.000,1.000,0.011,0.000
-16063.980,-15656.770,-17878.110,-16616.500,-15779.930,-16981.380,-16810.840,-16095.660,-0.114,0.930,-0.277,-3.174,1.312,-0.122,66.667,574.000,1.000,0.009,0.000
-16141.480,-15733.950,-17963.900,-16693.880,-15854.690,-17070.980,-16895.400,-16167.200,-0.113,0.929,-0.273,-2.716,1.495,-0.183,66.667,575.000,1.000,2.603,0.000
-16218.060,-15798.080,-18048.550,-16777.540,-15927.580,-17154.960,-16979.190,-16240.090,-0.114,0.927,-0.271,-2.289,1.770,-0.244,66.667,576.000,1.000,2.407,0.000
-16306.490,-15884.180,-18146.220,-16874.390,-16010.740,-17241.750,-17068.820,-16326.190,-0.114,0.927,-0.273,-1.678,2.075,-0.458,66.667,577.000,1.000,2.538,0.000
-16394.260,-15971.660,-18242.800,-16967.810,-16093.780,-17327.640,-17156.820,-16412.460,-0.114,0.931,-0.271,-1.221,2.228,-0.397,66.667,578.000,1.000,8.808,0.000
-16476.900,-16051.130,-18332.930,-17054.510,-16171.930,-17411.630,-17240.510,-16490.560,-0.115,0.933,-0.268,-0.763,2.533,-0.427,66.667,579.000,1.000,2.549,0.000
-16559.060,-16129.300,-18422.760,-17138.050,-16250.350,-17495.130,-17323.880,-16567.180,-0.119,0.936,-0.269,-0.397,2.625,-0.488,66.667,580.000,1.000,3.660,0.000
-16635.460,-16199.400,-18508.190,-17213.330,-16325.870,-17574.540,-17404.040,-16642.000,-0.121,0.941,-0.267,-0.122,2.869,-0.732,66.667,581.000,1.000,13.174,0.000
-16706.840,-16273.250,-18590.210,-17286.080,-16398.350,-17653.530,-17479.610,-16713.950,-0.123,0.943,-0.268,0.183,2.991,-0.793,66.667,582.000,1.000,0.022,0.000
-16782.200,-16358.040,-18675.210,-17363.510,-16472.680,-17736.510,-17555.120,-16788.200,-0.125,0.947,-0.264,0.366,3.143,-0.946,66.667,583.000,1.000,24.307,0.000
-16859.750,-16435.260,-18760.000,-17439.210,-16547.350,-17817.990,-17631.570,-16865.100,-0.126,0.950,-0.262,0.458,3.143,-1.068,66.667,584.000,1.000,2.519,0.000
-16937.940,-16504.080,-18846.230,-17518.530,-16625.840,-17900.560,-17712.540,-16947.180,-0.126,0.955,-0.262,0.519,3.174,-1.190,66.667,585.000,1.000,4.953,0.000
-17020.500,-16579.170,-18938.890,-17609.830,-16712.500,-17990.960,-17801.060,-17035.970,-0.127,0.960,-0.266,0.427,3.235,-1.160,66.667,586.000,1.000,2.487,0.000
-17101.670,-16659.970,-19029.880,-17697.270,-16797.110,-18079.750,-17887.500,-17120.700,-0.127,0.964,-0.268,0.305,3.174,-1.160,66.667,587.000,1.000,2.494,0.000
-17179.930,-16743.260,-19117.000,-17775.810,-16875.850,-18164.100,-17968.630,-17199.570,-0.125,0.966,-0.267,0.214,3.204,-1.099,66.667,588.000,1.000,6.242,0.000
-17257.390,-16819.810,-19202.600,-17850.770,-16951.580,-18248.310,-18048.860,-17277.100,-0.126,0.965,-0.269,-0.061,3.174,-1.038,66.667,589.000,1.000,2.472,0.000
-17329.190,-16880.430,-19281.650,-17917.690,-17020.160,-18325.380,-18123.710,-17347.960,-0.126,0.962,-0.264,-0.275,3.113,-1.038,66.667,590.000,1.000,2.553,0.000
-17398.640,-16947.060,-19360.130,-17989.260,-17087.210,-18400.630,-18194.980,-17414.170,-0.127,0.958,-0.265,-0.397,3.021,-0.946,66.667,591.000,1.000,2.417,0.000
-17473.150,-17033.240,-19445.180,-18074.110,-17160.740,-18483.600,-18270.670,-17485.090,-0.128,0.957,-0.266,-0.610,3.021,-0.702,66.667,592.000,1.000,2.601,0.000
-17550.050,-17114.170,-19529.440,-18157.010,-17234.840,-18564.000,-18348.500,-17559.200,-0.127,0.955,-0.265,-0.763,2.869,-0.793,66.667,593.000,1.000,2.470,0.000
-17622.930,-17169.160,-19605.470,-18230.230,-17301.700,-18630.780,-18422.050,-17629.590,-0.133,0.951,-0.265,-1.007,2.716,-0.763,66.667,594.000,1.000,2.476,0.000
-17689.900,-17216.560,-19675.190,-18296.650,-17362.230,-18690.000,-18489.560,-17694.390,-0.135,0.948,-0.267,-1.007,2.441,-0.763,66.667,595.000,1.000,7.448,0.000
-17754.330,-17261.580,-19743.090,-18360.800,-17421.700,-18751.960,-18555.570,-17758.080,-0.134,0.948,-0.266,-1.190,2.289,-0.702,66.667,596.000,1.000,0.014,0.000
-17826.160,-17321.910,-19820.890,-18430.990,-17490.870,-18827.390,-18630.680,-17829.170,-0.134,0.948,-0.266,-1.343,2.075,-0.732,66.667,597.000,1.000,0.007,0.000
-17911.320,-17433.960,-19917.080,-18513.380,-17575.300,-18920.310,-18717.840,-17910.180,-0.135,0.948,-0.268,-1.434,1.801,-0.732,66.667,598.000,1.000,2.577,0.000
-17998.540,-17543.600,-20014.000,-18604.850,-17659.490,-19010.850,-18805.880,-17993.810,-0.136,0.949,-0.270,-1.556,1.526,-0.763,66.667,599.000,1.000,5.524,0.000
-18076.390,-17607.790,-20096.220,-18693.290,-17731.040,-19084.430,-18884.740,-18072.460,-0.136,0.951,-0.268,-1.648,1.282,-0.732,66.667,600.000,1.000,0.018,0.000
-18149.090,-17669.730,-20172.850,-18770.960,-17797.450,-19151.900,-18955.680,-18145.300,-0.135,0.948,-0.270,-1.923,0.854,-0.732,66.667,601.000,1.000,1.880,0.000
-18220.130,-17737.690,-20250.180,-18839.290,-17865.000,-19222.400,-19026.360,-18215.160,-0.133,0.943,-0.269,-2.075,0.580,-0.763,66.667,602.000,1.000,2.560,0.000
-18286.480,-17789.240,-20324.120,-18903.370,-17930.510,-19292.990,-19097.250,-18281.070,-0.134,0.941,-0.271,-2.167,0.305,-0.824,66.667,603.000,1.000,2.464,0.000
-18353.530,-17848.950,-20400.100,-18974.530,-17996.610,-19365.760,-19165.620,-18345.010,-0.134,0.942,-0.270,-2.197,-0.031,-0.854,66.667,604.000,1.000,2.543,0.000
-18425.630,-17928.200,-20481.820,-19055.210,-18067.300,-19442.620,-19236.910,-18414.990,-0.131,0.941,-0.269,-2.197,-0.397,-0.854,66.667,605.000,1.000,8.758,0.000
-18495.860,-17995.860,-20559.690,-19131.380,-18136.250,-19516.390,-19311.020,-18488.110,-0.129,0.939,-0.271,-2.167,-0.488,-1.038,66.667,606.000,1.000,3.079,0.000
-18562.070,-18049.690,-20632.040,-19199.520,-18201.980,-19586.860,-19383.700,-18558.920,-0.125,0.941,-0.270,-2.075,-0.885,-1.068,66.667,607.000,1.000,0.008,0.000
-18630.880,-18117.200,-20708.160,-19267.540,-18271.960,-19663.110,-19457.430,-18630.540,-0.121,0.945,-0.273,-1.953,-1.068,-1.068,66.667,608.000,1.000,1.901,0.000
-18704.340,-18201.890,-20790.460,-19337.290,-18347.390,-19746.350,-19533.940,-18702.800,-0.117,0.946,-0.276,-1.984,-1.099,-1.038,66.667,609.000,1.000,11.226,0.000
-18776.080,-18286.320,-20873.000,-19406.430,-18422.750,-19829.360,-19611.270,-18772.430,-0.117,0.952,-0.277,-1.984,-1.160,-1.038,66.667,610.000,1.000,3.165,0.000
-18841.850,-18363.730,-20950.290,-19469.720,-18493.070,-19908.110,-19685.450,-18836.970,-0.119,0.955,-0.280,-1.953,-1.160,-0.946,66.667,611.000,1.000,0.008,0.000
-18907.480,-18428.460,-21023.390,-19532.720,-18558.470,-19981.450,-19755.170,-18897.940,-0.119,0.959,-0.279,-1.984,-1.221,-0.946,66.667,612.000,1.000,1.831,0.000
-18976.220,-18478.880,-21096.350,-19604.660,-18623.060,-20050.550,-19824.230,-18959.680,-0.118,0.959,-0.278,-2.045,-1.312,-0.854,66.667,613.000,1.000,11.312,0.000
-19042.960,-18533.300,-21170.620,-19679.710,-18689.880,-20121.700,-19895.380,-19022.150,-0.116,0.955,-0.277,-2.075,-1.373,-0.793,66.667,614.000,1.000,3.016,0.000
-19107.120,-18602.810,-21245.770,-19750.860,-18758.420,-20197.620,-19968.210,-19083.820,-0.116,0.949,-0.282,-1.984,-1.434,-0.732,66.667,615.000,1.000,0.009,0.000
-19174.030,-18678.370,-21321.620,-19818.820,-18827.110,-20274.620,-20042.590,-19147.280,-0.116,0.945,-0.279,-1.862,-1.434,-0.824,66.667,616.000,1.000,1.959,0.000
-19242.960,-18746.930,-21396.630,-19887.630,-18894.670,-20348.290,-20117.310,-19214.380,-0.118,0.947,-0.281,-1.770,-1.465,-0.793,66.667,617.000,1.000,8.701,0.000
-19305.900,-18797.070,-21465.300,-19954.530,-18956.480,-20412.630,-20187.070,-19280.720,-0.121,0.948,-0.284,-1.465,-1.434,-0.793,66.667,618.000,1.000,3.172,0.000
-19363.880,-18847.860,-21530.680,-20016.260,-19013.810,-20471.410,-20249.840,-19344.020,-0.122,0.949,-0.281,-1.343,-1.404,-0.946,66.667,619.000,1.000,0.008,0.000
-19422.480,-18910.210,-21597.110,-20075.070,-19069.790,-20529.780,-20308.360,-19406.280,-0.122,0.950,-0.281,-1.129,-1.434,-0.916,66.667,620.000,1.000,3.016,0.000
-19480.640,-18967.070,-21661.440,-20134.490,-19122.250,-20585.450,-20365.220,-19468.180,-0.120,0.950,-0.277,-0.977,-1.373,-0.916,66.667,621.000,1.000,11.977,0.000
-19540.520,-19032.910,-21728.630,-20202.710,-19176.820,-20646.490,-20424.860,-19532.750,-0.119,0.949,-0.280,-0.824,-1.373,-1.038,66.667,622.000,1.000,0.010,0.000
-19603.870,-19102.690,-21799.370,-20278.070,-19236.410,-20712.770,-20489.030,-19602.200,-0.120,0.948,-0.282,-0.732,-1.465,-1.129,66.667,623.000,1.000,2.312,0.000
-19667.580,-19153.740,-21866.140,-20345.640,-19294.840,-20774.250,-20553.430,-19671.010,-0.123,0.950,-0.285,-0.610,-1.343,-1.251,66.667,624.000,1.000,0.004,0.000
-19733.050,-19201.060,-21932.510,-20407.760,-19353.170,-20835.150,-20616.960,-19736.970,-0.123,0.952,-0.281,-0.397,-1.343,-1.373,66.667,625.000,1.000,10.695,0.000
-19803.920,-19258.160,-22005.750,-20478.510,-19416.380,-20901.690,-20683.700,-19805.130,-0.122,0.956,-0.281,-0.183,-1.251,-1.312,66.667,626.000,1.000,3.142,0.000
-19877.460,-19330.790,-22083.570,-20550.580,-19482.940,-20971.810,-20752.720,-19874.240,-0.120,0.956,-0.281,-0.031,-1.129,-1.343,66.667,627.000,1.000,0.007,0.000
-19947.200,-19412.480,-22159.440,-20615.440,-19549.080,-21042.340,-20821.100,-19940.930,-0.119,0.956,-0.287,0.031,-1.038,-1.434,66.667,628.000,1.000,5.669,0.000
-20011.180,-19481.540,-22230.420,-20677.830,-19613.750,-21111.830,-20889.710,-20006.860,-0.118,0.958,-0.287,0.183,-0.977,-1.190,66.667,629.000,1.000,6.275,0.000
-20071.640,-19538.380,-22297.930,-20739.500,-19676.950,-21178.830,-20957.060,-20071.550,-0.116,0.956,-0.285,0.305,-0.763,-1.129,66.667,630.000,1.000,10.510,0.000
-20128.930,-19593.880,-22363.330,-20801.000,-19737.740,-21241.580,-21020.000,-20132.560,-0.116,0.956,-0.289,0.397,-0.580,-1.068,66.667,631.000,1.000,0.012,0.000
-20184.560,-19644.030,-22427.410,-20862.210,-19796.080,-21300.960,-21080.320,-20190.180,-0.115,0.952,-0.288,0.580,-0.458,-0.946,66.667,632.000,1.000,1.904,0.000
-20242.630,-19690.910,-22492.610,-20922.270,-19854.370,-21362.400,-21141.750,-20245.760,-0.115,0.951,-0.285,0.793,-0.153,-0.916,66.667,633.000,1.000,2.524,0.000
-20304.550,-19748.390,-22560.800,-20980.500,-19915.210,-21430.840,-21205.340,-20300.060,-0.115,0.949,-0.288,1.068,0.244,-0.916,66.667,634.000,1.000,2.473,0.000
-20370.280,-19815.300,-22632.110,-21040.650,-19979.040,-21502.590,-21270.360,-20354.980,-0.116,0.949,-0.288,1.221,0.366,-0.824,66.667,635.000,1.000,12.497,0.000
-20437.600,-19882.360,-22705.120,-21108.440,-20044.320,-21571.550,-21335.600,-20411.440,-0.117,0.948,-0.290,1.617,0.732,-0.702,66.667,636.000,1.000,3.028,0.000
-20501.470,-19950.150,-22776.370,-21176.380,-20108.150,-21639.100,-21398.690,-20465.400,-0.117,0.944,-0.288,1.953,0.854,-0.702,66.667,637.000,1.000,0.012,0.000
-20560.080,-20014.090,-22843.070,-21236.270,-20167.730,-21705.500,-21458.180,-20515.150,-0.115,0.938,-0.286,2.136,1.038,-0.702,66.667,638.000,1.000,1.875,0.000
-20617.620,-20069.170,-22907.010,-21292.150,-20224.210,-21769.190,-21517.130,-20566.480,-0.115,0.932,-0.288,2.411,1.343,-0.702,66.667,639.000,1.000,2.572,0.000
-20679.560,-20126.960,-22973.500,-21350.220,-20282.510,-21835.450,-21579.690,-20623.880,-0.116,0.928,-0.288,2.808,1.526,-0.671,66.667,640.000,1.000,6.298,0.000
-20742.500,-20190.840,-23041.650,-21409.380,-20341.590,-21904.090,-21643.850,-20683.630,-0.117,0.925,-0.293,3.174,1.862,-0.854,66.667,641.000,1.000,3.668,0.000
-20799.030,-20243.320,-23105.180,-21468.660,-20395.500,-21966.680,-21704.690,-20741.840,-0.119,0.927,-0.294,3.601,2.106,-0.854,66.667,642.000,1.000,9.473,0.000
-20850.870,-20282.630,-23164.820,-21531.490,-20445.410,-22021.980,-21762.740,-20801.330,-0.121,0.934,-0.296,4.028,2.167,-0.885,66.667,643.000,1.000,0.010,0.000
-20901.270,-20327.160,-23223.080,-21591.330,-20493.860,-22073.280,-21818.710,-20861.790,-0.122,0.937,-0.296,4.364,2.319,-0.916,66.667,644.000,1.000,13.653,0.000
-20952.130,-20386.080,-23281.900,-21646.690,-20542.820,-22124.880,-21873.650,-20921.930,-0.121,0.937,-0.291,4.578,2.289,-1.038,66.667,645.000,1.000,0.012,0.000
-21003.870,-20448.300,-23341.360,-21703.570,-20593.770,-22178.240,-21929.640,-20982.020,-0.124,0.931,-0.289,4.578,2.441,-1.007,66.667,646.000,1.000,6.831,0.000
-21051.410,-20496.300,-23395.900,-21756.690,-20642.880,-22228.020,-21983.970,-21039.650,-0.125,0.928,-0.296,4.730,2.441,-1.068,66.667,647.000,1.000,6.354,0.000
-21096.460,-20536.050,-23448.020,-21807.040,-20691.800,-22276.500,-22037.340,-21097.870,-0.131,0.930,-0.298,4.974,2.411,-1.221,66.667,648.000,1.000,4.966,0.000
-21147.250,-20584.830,-23506.050,-21865.030,-20745.780,-22330.600,-22093.940,-21159.840,-0.138,0.935,-0.296,4.944,2.228,-1.556,66.667,649.000,1.000,2.475,0.000
-21202.540,-20640.990,-23567.190,-21925.270,-20800.870,-22387.280,-22151.740,-21220.390,-0.144,0.939,-0.294,5.035,2.014,-1.892,66.667,650.000,1.000,3.046,0.000
-21255.980,-20693.790,-23624.940,-21978.350,-20852.430,-22442.330,-22208.310,-21277.440,-0.143,0.942,-0.292,4.852,1.740,-2.228,66.667,651.000,1.000,0.011,0.000
-21308.070,-20738.930,-23680.910,-22030.550,-20903.060,-22498.130,-22266.120,-21334.490,-0.147,0.944,-0.294,4.791,1.587,-2.502,66.667,652.000,1.000,1.977,0.000
-21361.960,-20785.560,-23738.760,-22086.920,-20955.270,-22556.670,-22325.500,-21391.610,-0.148,0.946,-0.295,4.761,1.221,-2.747,66.667,653.000,1.000,2.522,0.000
-21417.240,-20841.860,-23800.170,-22145.800,-21010.340,-22617.170,-22385.470,-21449.070,-0.150,0.950,-0.296,4.547,0.885,-2.899,66.667,654.000,1.000,2.447,0.000
-21471.520,-20900.970,-23864.370,-22205.000,-21069.060,-22679.530,-22446.110,-21506.980,-0.148,0.953,-0.299,4.303,0.519,-2.960,66.667,655.000,1.000,2.504,0.000
-21526.130,-20959.950,-23929.400,-22264.210,-21130.300,-22745.070,-22506.770,-21562.620,-0.147,0.958,-0.303,4.120,-0.031,-3.113,66.667,656.000,1.000,4.312,0.000
-21582.030,-21013.330,-23990.660,-22320.630,-21188.410,-22806.630,-22564.220,-21612.380,-0.145,0.963,-0.305,3.906,-0.336,-3.143,66.667,657.000,1.000,0.009,0.000
-21637.450,-21062.960,-24048.080,-22371.310,-21242.220,-22861.070,-22617.860,-21656.860,-0.143,0.968,-0.306,3.510,-0.549,-3.143,66.667,658.000,1.000,8.188,0.000
-21692.110,-21118.850,-24107.240,-22418.960,-21296.960,-22917.440,-22671.370,-21700.880,-0.144,0.968,-0.307,3.082,-0.671,-2.930,66.667,659.000,1.000,2.988,0.000
-21745.580,-21171.100,-24166.610,-22467.890,-21349.480,-22972.850,-22721.990,-21743.490,-0.145,0.966,-0.305,2.625,-0.854,-2.808,66.667,660.000,1.000,0.005,0.000
-21799.750,-21217.410,-24225.010,-22523.110,-21397.150,-23022.640,-22767.880,-21784.430,-0.144,0.965,-0.306,2.228,-1.160,-2.655,66.667,661.000,1.000,15.790,0.000
-21857.700,-21269.510,-24285.170,-22580.520,-21444.470,-23074.260,-22815.350,-21828.950,-0.145,0.964,-0.309,2.014,-1.282,-2.502,66.667,662.000,1.000,3.051,0.000
-21916.790,-21325.190,-24344.950,-22635.030,-21492.300,-23130.060,-22868.150,-21878.330,-0.148,0.959,-0.308,1.648,-1.495,-2.380,66.667,663.000,1.000,0.017,0.000
-21971.440,-21370.750,-24399.460,-22689.700,-21537.310,-23183.730,-22923.120,-21928.720,-0.150,0.957,-0.306,1.373,-1.831,-2.258,66.667,664.000,1.000,1.838,0.000
-22022.440,-21407.080,-24449.750,-22744.680,-21579.340,-23232.220,-22975.980,-21978.190,-0.148,0.954,-0.306,1.099,-2.045,-2.197,66.667,665.000,1.000,2.536,0.000
-22072.850,-21451.450,-24500.750,-22796.250,-21621.920,-23280.430,-23025.990,-22028.410,-0.144,0.949,-0.306,0.885,-2.380,-2.045,66.667,666.000,1.000,3.782,0.000
-22120.690,-21507.050,-24552.930,-22842.030,-21666.200,-23332.090,-23073.980,-22078.660,-0.142,0.946,-0.308,0.732,-2.502,-1.801,66.667,667.000,1.000,4.277,0.000
-22165.790,-21562.320,-24605.550,-22885.400,-21711.230,-23383.590,-23120.350,-22126.310,-0.142,0.941,-0.303,0.549,-2.625,-1.648,66.667,668.000,1.000,0.032,0.000
-22210.750,-21610.730,-24659.080,-22935.160,-21757.550,-23433.460,-23166.880,-22174.910,-0.140,0.943,-0.307,0.580,-2.777,-1.404,66.667,669.000,1.000,13.175,0.000
-22255.180,-21652.430,-24711.350,-22989.440,-21804.640,-23484.500,-23216.590,-22229.300,-0.140,0.946,-0.307,0.519,-2.869,-1.160,66.667,670.000,1.000,2.483,0.000
-22301.320,-21691.310,-24762.720,-23039.650,-21852.860,-23536.800,-23271.380,-22287.980,-0.139,0.943,-0.305,0.427,-2.808,-1.007,66.667,671.000,1.000,2.440,0.000
-22353.130,-21736.740,-24817.950,-23087.410,-21904.110,-23588.750,-23329.230,-22347.080,-0.137,0.942,-0.300,0.275,-2.777,-0.763,66.667,672.000,1.000,2.571,0.000
-22404.890,-21790.670,-24874.550,-23134.400,-21955.300,-23640.220,-23384.400,-22401.960,-0.138,0.938,-0.298,0.244,-2.808,-0.671,66.667,673.000,1.000,9.269,0.000
-22449.440,-21839.130,-24926.180,-23183.290,-22002.980,-23690.580,-23434.500,-22451.770,-0.136,0.936,-0.296,0.366,-2.716,-0.641,66.667,674.000,1.000,0.011,0.000
-22490.930,-21881.060,-24975.740,-23235.580,-22051.260,-23742.870,-23484.280,-22501.300,-0.133,0.934,-0.292,0.397,-2.563,-0.580,66.667,675.000,1.000,4.481,0.000
-22533.790,-21926.350,-25026.250,-23282.750,-22101.400,-23798.600,-23535.070,-22549.940,-0.133,0.935,-0.296,0.549,-2.411,-0.488,66.667,676.000,1.000,2.497,0.000
-22576.300,-21971.720,-25076.200,-23327.180,-22150.120,-23852.130,-23584.060,-22595.630,-0.128,0.934,-0.290,0.732,-2.106,-0.519,66.667,677.000,1.000,3.713,0.000
-22617.180,-22013.680,-25125.320,-23375.120,-22197.140,-23900.520,-23631.070,-22640.430,-0.126,0.933,-0.291,0.916,-1.831,-0.458,66.667,678.000,1.000,7.482,0.000
-22656.990,-22053.950,-25172.390,-23418.830,-22241.070,-23943.370,-23675.340,-22682.790,-0.123,0.931,-0.293,1.007,-1.587,-0.336,66.667,679.000,1.000,6.879,0.000
-22698.770,-22094.980,-25220.580,-23460.110,-22284.960,-23985.820,-23720.500,-22725.160,-0.121,0.932,-0.290,1.160,-1.129,-0.275,66.667,680.000,1.000,0.029,0.000
-22744.120,-22139.740,-25274.340,-23507.730,-22334.460,-24034.070,-23772.040,-22774.300,-0.120,0.932,-0.290,1.404,-0.763,-0.061,66.667,681.000,1.000,1.843,0.000
-22789.290,-22183.280,-25327.320,-23557.140,-22383.400,-24082.010,-23823.820,-22823.910,-0.119,0.933,-0.293,1.526,-0.305,0.122,66.667,682.000,1.000,2.541,0.000
-22833.850,-22222.410,-25375.260,-23605.530,-22426.160,-24125.470,-23869.310,-22865.770,-0.119,0.933,-0.293,1.678,0.244,0.061,66.667,683.000,1.000,13.721,0.000
-22881.910,-22266.990,-25425.150,-23655.930,-22469.610,-24172.140,-23915.100,-22906.040,-0.118,0.937,-0.294,1.892,0.793,0.153,66.667,684.000,1.000,3.129,0.000
-22929.790,-22315.280,-25475.440,-23702.190,-22512.820,-24221.460,-23961.770,-22945.000,-0.120,0.937,-0.294,2.014,1.312,0.153,66.667,685.000,1.000,0.011,0.000
-22973.820,-22357.860,-25520.650,-23742.740,-22549.400,-24267.040,-24003.950,-22978.250,-0.116,0.935,-0.292,2.136,1.862,0.183,66.667,686.000,1.000,1.807,0.000
-23018.090,-22398.720,-25566.150,-23786.270,-22584.540,-24311.680,-24047.050,-23014.030,-0.114,0.935,-0.291,2.197,2.411,0.122,66.667,687.000,1.000,5.027,0.000
-23062.920,-22439.170,-25613.330,-23829.410,-22621.090,-24355.970,-24091.940,-23055.300,-0.113,0.932,-0.291,2.289,2.960,0.061,66.667,688.000,1.000,3.967,0.000
-23107.080,-22478.350,-25658.500,-23865.110,-22655.970,-24397.030,-24132.150,-23094.810,-0.113,0.933,-0.291,2.502,3.418,-0.092,66.667,689.000,1.000,4.839,0.000
-23151.300,-22520.470,-25703.360,-23904.870,-22691.300,-24436.840,-24168.860,-23131.680,-0.114,0.936,-0.294,2.655,4.089,-0.061,66.667,690.000,1.000,3.050,0.000
-23194.040,-22562.690,-25749.460,-23955.700,-22730.020,-24476.980,-24206.930,-23170.490,-0.115,0.937,-0.294,2.808,4.578,-0.244,66.667,691.000,1.000,0.009,0.000
-23235.100,-22603.080,-25796.250,-24004.610,-22772.360,-24519.190,-24248.720,-23213.010,-0.118,0.940,-0.293,2.869,5.035,-0.305,66.667,692.000,1.000,1.930,0.000
-23277.810,-22645.940,-25845.300,-24048.080,-22819.360,-24566.670,-24296.000,-23260.240,-0.119,0.942,-0.295,2.838,5.554,-0.488,66.667,693.000,1.000,13.752,0.000
-23321.110,-22687.910,-25894.030,-24091.230,-22866.950,-24614.880,-24344.990,-23308.710,-0.119,0.942,-0.296,2.930,5.890,-0.702,66.667,694.000,1.000,3.079,0.000
-23359.890,-22725.700,-25936.500,-24129.800,-22907.710,-24656.800,-24387.940,-23350.740,-0.122,0.942,-0.298,2.960,6.256,-0.885,66.667,695.000,1.000,0.018,0.000
-23395.040,-22763.380,-25975.210,-24165.150,-22943.930,-24694.640,-24426.160,-23388.410,-0.124,0.941,-0.299,2.960,6.683,-1.282,66.667,696.000,1.000,1.837,0.000
-23432.570,-22803.750,-26017.880,-24206.230,-22984.160,-24736.710,-24467.900,-23429.910,-0.127,0.941,-0.301,3.021,6.897,-1.373,66.667,697.000,1.000,2.480,0.000
-23473.560,-22843.460,-26064.790,-24250.790,-23028.820,-24782.800,-24514.280,-23475.570,-0.131,0.941,-0.297,3.052,7.111,-1.617,66.667,698.000,1.000,13.837,0.000
-23516.890,-22882.620,-26113.810,-24295.960,-23074.670,-24827.980,-24561.900,-23523.440,-0.132,0.941,-0.300,2.960,7.416,-1.862,66.667,699.000,1.000,4.911,0.000
-23563.910,-22927.600,-26166.280,-24343.640,-23123.050,-24875.130,-24610.450,-23573.600,-0.135,0.940,-0.302,2.960,7.477,-2.045,66.667,700.000,1.000,0.009,0.000
-23609.700,-22972.670,-26216.390,-24386.460,-23169.320,-24920.860,-24654.990,-23618.620,-0.137,0.940,-0.301,3.052,7.660,-2.258,66.667,701.000,1.000,0.003,0.000
-23647.800,-23009.680,-26258.160,-24423.340,-23207.800,-24960.130,-24691.420,-23653.510,-0.140,0.938,-0.304,3.113,7.751,-2.319,66.667,702.000,1.000,7.548,0.000
-23681.820,-23042.170,-26296.970,-24461.960,-23243.130,-24998.870,-24726.200,-23685.690,-0.141,0.938,-0.303,2.930,7.568,-2.533,66.667,703.000,1.000,2.485,0.000
-23717.770,-23076.570,-26338.750,-24501.410,-23280.350,-25041.510,-24766.030,-23720.370,-0.141,0.936,-0.304,2.991,7.477,-2.594,66.667,704.000,1.000,2.501,0.000
-23754.390,-23113.130,-26380.640,-24536.450,-23316.500,-25084.040,-24806.720,-23752.410,-0.144,0.935,-0.305,2.960,7.355,-2.563,66.667,705.000,1.000,2.472,0.000
-23790.260,-23146.690,-26419.990,-24568.460,-23349.060,-25122.790,-24841.990,-23778.380,-0.147,0.934,-0.311,3.082,7.263,-2.502,66.667,706.000,1.000,3.697,0.000
-23828.930,-23184.730,-26462.460,-24605.430,-23383.790,-25163.520,-24877.040,-23806.180,-0.150,0.934,-0.311,3.174,7.111,-2.472,66.667,707.000,1.000,31.896,0.000
-23869.610,-23232.040,-26508.290,-24646.650,-23421.000,-25207.910,-24915.000,-23839.590,-0.156,0.930,-0.312,3.113,6.714,-2.411,66.667,708.000,1.000,0.023,0.000
-23906.940,-23272.850,-26549.430,-24684.090,-23452.260,-25247.140,-24948.420,-23870.460,-0.158,0.928,-0.315,3.204,6.348,-2.380,66.667,709.000,1.000,5.090,0.000
-23943.040,-23303.300,-26587.110,-24717.540,-23479.130,-25281.930,-24978.760,-23898.620,-0.155,0.926,-0.316,3.204,5.920,-2.319,66.667,710.000,1.000,0.018,0.000
-23983.730,-23337.640,-26628.960,-24754.490,-23511.140,-25321.990,-25015.740,-23934.270,-0.149,0.927,-0.317,3.418,5.585,-2.106,66.667,711.000,1.000,0.010,0.000
-24025.690,-23377.160,-26672.370,-24796.160,-23547.150,-25365.180,-25056.090,-23975.790,-0.147,0.929,-0.319,3.510,5.341,-1.984,66.667,712.000,1.000,0.008,0.000
-24061.800,-23411.830,-26710.410,-24835.620,-23579.900,-25402.420,-25090.950,-24013.350,-0.147,0.935,-0.322,3.632,5.188,-1.740,66.667,713.000,1.000,0.009,0.000
-24092.720,-23442.150,-26744.310,-24871.230,-23610.030,-25434.380,-25122.310,-24047.490,-0.148,0.938,-0.320,3.540,4.944,-1.465,66.667,714.000,1.000,9.196,0.000
-24124.300,-23472.500,-26779.380,-24905.920,-23642.510,-25467.370,-25157.440,-24084.830,-0.146,0.941,-0.319,3.418,4.822,-1.251,66.667,715.000,1.000,0.008,0.000
-24159.630,-23504.950,-26818.900,-24943.610,-23679.800,-25504.300,-25198.690,-24127.380,-0.146,0.944,-0.323,3.296,4.547,-1.129,66.667,716.000,1.000,0.003,0.000
-24193.900,-23537.870,-26858.470,-24981.040,-23716.410,-25539.090,-25237.290,-24167.570,-0.144,0.947,-0.322,3.113,4.242,-1.007,66.667,717.000,1.000,2.604,0.000
-24223.490,-23567.230,-26892.880,-25011.740,-23747.840,-25567.780,-25268.660,-24201.030,-0.141,0.951,-0.320,2.899,4.150,-0.885,66.667,718.000,1.000,4.933,0.000
-24254.590,-23595.910,-26927.600,-25044.630,-23781.290,-25597.830,-25303.870,-24238.050,-0.139,0.954,-0.319,2.655,4.028,-0.702,66.667,719.000,1.000,2.464,0.000
-24287.700,-23625.540,-26964.540,-25084.330,-23818.720,-25630.330,-25344.070,-24281.680,-0.138,0.956,-0.317,2.411,3.815,-0.519,66.667,720.000,1.000,2.542,0.000
-24318.020,-23657.190,-26999.850,-25122.800,-23855.100,-25663.610,-25380.760,-24323.510,-0.137,0.955,-0.317,2.045,3.693,-0.275,66.667,721.000,1.000,4.994,0.000
-24348.920,-23691.320,-27035.850,-25158.490,-23891.890,-25702.760,-25418.300,-24363.280,-0.134,0.957,-0.315,1.709,3.723,-0.092,66.667,722.000,1.000,2.492,0.000
-24382.690,-23723.200,-27073.170,-25191.630,-23928.460,-25745.560,-25458.660,-24401.260,-0.132,0.953,-0.314,1.343,3.693,0.000,66.667,723.000,1.000,8.807,0.000
-24416.370,-23753.530,-27109.090,-25222.640,-23960.950,-25785.260,-25494.260,-24433.380,-0.130,0.955,-0.315,0.977,3.693,0.061,66.667,724.000,1.000,11.789,0.000
-24450.320,-23785.820,-27145.490,-25255.060,-23991.890,-25822.250,-25526.410,-24461.710,-0.130,0.953,-0.318,0.763,3.754,0.183,66.667,725.000,1.000,0.016,0.000
-24486.190,-23819.730,-27184.420,-25289.760,-24024.070,-25858.660,-25560.360,-24488.270,-0.132,0.952,-0.315,0.366,3.815,0.092,66.667,726.000,1.000,1.857,0.000
-24521.860,-23853.100,-27221.820,-25322.100,-24053.730,-25892.510,-25592.460,-24509.380,-0.132,0.950,-0.317,0.000,3.876,0.092,66.667,727.000,1.000,5.038,0.000
-24553.770,-23882.750,-27252.630,-25347.060,-24076.880,-25921.930,-25617.960,-24522.690,-0.128,0.948,-0.318,-0.244,3.967,0.122,66.667,728.000,1.000,2.463,0.000
-24583.430,-23911.970,-27281.570,-25370.100,-24099.190,-25951.170,-25642.740,-24535.850,-0.126,0.945,-0.316,-0.336,4.059,0.122,66.667,729.000,1.000,2.513,0.000
-24618.380,-23948.600,-27319.900,-25405.500,-24131.870,-25987.730,-25677.710,-24562.470,-0.122,0.942,-0.318,-0.549,4.181,-0.061,66.667,730.000,1.000,2.455,0.000
-24655.010,-23984.180,-27361.500,-25445.600,-24167.950,-26025.080,-25715.730,-24596.230,-0.122,0.940,-0.315,-0.610,4.333,0.122,66.667,731.000,1.000,2.568,0.000
-24683.780,-24007.420,-27392.290,-25472.060,-24192.870,-26051.840,-25742.740,-24621.830,-0.121,0.940,-0.318,-0.671,4.486,-0.122,66.667,732.000,1.000,2.445,0.000
-24710.830,-24032.250,-27419.570,-25495.950,-24214.460,-26076.420,-25766.240,-24646.100,-0.120,0.941,-0.319,-0.641,4.700,-0.244,66.667,733.000,1.000,11.865,0.000
-24741.810,-24068.330,-27452.510,-25528.590,-24243.030,-26108.460,-25795.630,-24677.370,-0.123,0.941,-0.317,-0.671,4.852,-0.427,66.667,734.000,1.000,0.017,0.000
-24771.000,-24101.120,-27485.300,-25562.020,-24273.270,-26141.410,-25825.980,-24710.000,-0.124,0.941,-0.320,-0.793,5.035,-0.519,66.667,735.000,1.000,2.471,0.000
-24794.390,-24122.320,-27512.580,-25588.480,-24299.040,-26166.980,-25852.570,-24739.530,-0.122,0.939,-0.316,-0.763,5.280,-0.641,66.667,736.000,1.000,0.007,0.000
-24812.500,-24138.440,-27535.440,-25607.890,-24320.610,-26185.940,-25875.960,-24765.970,-0.124,0.939,-0.317,-0.763,5.341,-0.671,66.667,737.000,1.000,1.879,0.000
-24833.050,-24160.050,-27562.740,-25634.180,-24346.720,-26209.720,-25904.140,-24797.280,-0.126,0.936,-0.320,-0.702,5.554,-0.793,66.667,738.000,1.000,8.721,0.000
-24862.320,-24191.230,-27599.570,-25673.560,-24382.140,-26244.500,-25941.440,-24838.080,-0.125,0.936,-0.318,-0.885,5.676,-1.038,66.667,739.000,1.000,3.121,0.000
-24892.000,-24221.400,-27634.610,-25709.810,-24415.220,-26278.950,-25976.790,-24875.820,-0.126,0.936,-0.316,-0.732,5.920,-1.190,66.667,740.000,1.000,0.009,0.000
-24917.450,-24245.260,-27661.930,-25735.410,-24440.450,-26306.510,-26005.090,-24904.660,-0.125,0.938,-0.317,-0.793,5.859,-1.312,66.667,741.000,1.000,3.088,0.000
-24944.600,-24270.280,-27690.230,-25760.730,-24466.610,-26333.910,-26033.320,-24932.980,-0.126,0.945,-0.320,-1.007,5.829,-1.617,66.667,742.000,1.000,7.523,0.000
-24976.050,-24300.630,-27725.650,-25794.370,-24499.580,-26366.390,-26066.830,-24966.760,-0.127,0.948,-0.318,-1.160,5.890,-1.862,66.667,743.000,1.000,2.565,0.000
-25008.870,-24332.930,-27763.710,-25831.680,-24534.590,-26399.820,-26102.110,-25002.680,-0.129,0.949,-0.321,-1.434,5.981,-1.953,66.667,744.000,1.000,27.496,0.000
-25036.110,-24359.010,-27794.280,-25861.440,-24561.350,-26424.510,-26129.110,-25031.420,-0.132,0.949,-0.320,-1.587,5.829,-2.045,66.667,745.000,1.000,3.011,0.000
-25058.210,-24378.900,-27819.060,-25884.390,-24582.320,-26444.010,-26150.400,-25055.340,-0.135,0.946,-0.319,-1.801,5.676,-2.106,66.667,746.000,1.000,0.014,0.000
-25085.160,-24402.080,-27849.340,-25911.900,-24609.280,-26469.600,-26177.590,-25085.520,-0.139,0.945,-0.322,-2.014,5.493,-2.228,66.667,747.000,1.000,6.905,0.000
-25117.040,-24429.850,-27884.210,-25944.100,-24639.830,-26498.190,-26207.130,-25116.790,-0.142,0.941,-0.317,-2.228,5.249,-2.380,66.667,748.000,1.000,2.523,0.000
-25145.200,-24455.410,-27915.110,-25970.930,-24664.790,-26523.100,-26230.720,-25137.960,-0.147,0.939,-0.317,-2.350,4.974,-2.441,66.667,749.000,1.000,2.519,0.000
-25169.040,-24477.060,-27941.230,-25992.010,-24685.010,-26547.560,-26252.960,-25153.200,-0.149,0.939,-0.322,-2.380,4.547,-2.472,66.667,750.000,1.000,2.541,0.000
-25192.030,-24497.310,-27965.030,-26012.380,-24703.460,-26574.250,-26276.890,-25167.950,-0.148,0.934,-0.323,-2.472,4.242,-2.563,66.667,751.000,1.000,2.452,0.000
-25217.450,-24521.490,-27990.320,-26036.200,-24722.860,-26603.490,-26302.060,-25185.060,-0.148,0.930,-0.328,-2.441,3.906,-2.655,66.667,752.000,1.000,5.189,0.000
-25245.270,-24549.210,-28017.060,-26062.710,-24743.340,-26633.080,-26327.870,-25205.980,-0.146,0.922,-0.331,-2.228,3.479,-2.655,66.667,753.000,1.000,6.037,0.000
-25269.510,-24572.450,-28039.480,-26085.020,-24760.930,-26658.740,-26351.080,-25226.330,-0.146,0.916,-0.327,-1.923,3.174,-2.716,66.667,754.000,1.000,2.561,0.000
-25291.350,-24595.210,-28060.780,-26105.670,-24779.500,-26684.900,-26375.140,-25247.320,-0.142,0.910,-0.329,-1.404,2.960,-2.808,66.667,755.000,1.000,2.470,0.000
-25312.630,-24618.200,-28082.540,-26126.480,-24799.040,-26711.570,-26399.510,-25268.130,-0.139,0.906,-0.327,-0.854,2.808,-2.777,66.667,756.000,1.000,2.512,0.000
-25330.340,-24632.030,-28100.440,-26143.690,-24814.170,-26731.810,-26419.340,-25285.750,-0.138,0.904,-0.327,-0.336,2.625,-2.716,66.667,757.000,1.000,5.015,0.000
-25349.430,-24645.070,-28121.210,-26163.090,-24832.480,-26752.300,-26442.090,-25308.190,-0.139,0.906,-0.326,0.153,2.533,-2.716,66.667,758.000,1.000,3.047,0.000
-25373.180,-24669.170,-28149.070,-26187.190,-24858.870,-26780.750,-26471.490,-25337.620,-0.139,0.910,-0.326,0.763,2.533,-2.563,66.667,759.000,1.000,0.012,0.000
-25398.020,-24699.610,-28178.660,-26212.730,-24887.460,-26812.540,-26500.680,-25368.000,-0.141,0.917,-0.324,1.068,2.594,-2.289,66.667,760.000,1.000,1.935,0.000
-25424.090,-24728.880,-28209.040,-26241.900,-24917.020,-26842.080,-26529.490,-25400.860,-0.142,0.923,-0.325,1.373,2.533,-1.892,66.667,761.000,1.000,2.420,0.000
-25450.590,-24753.620,-28238.840,-26271.610,-24947.150,-26868.820,-26559.990,-25434.950,-0.142,0.928,-0.324,1.526,2.472,-1.495,66.667,762.000,1.000,2.572,0.000
-25473.960,-24774.050,-28263.420,-26294.800,-24973.810,-26893.870,-26588.390,-25463.570,-0.143,0.932,-0.324,1.709,2.441,-1.190,66.667,763.000,1.000,2.508,0.000
-25494.280,-24791.510,-28283.450,-26315.040,-24996.070,-26915.310,-26611.300,-25486.520,-0.141,0.932,-0.325,1.831,2.441,-1.068,66.667,764.000,1.000,29.935,0.000
-25514.130,-24806.430,-28304.210,-26339.000,-25017.480,-26933.030,-26630.670,-25508.420,-0.143,0.937,-0.324,1.892,2.350,-0.916,66.667,765.000,1.000,0.026,0.000
-25537.380,-24826.880,-28331.580,-26366.540,-25043.940,-26955.790,-26653.670,-25534.420,-0.146,0.940,-0.323,2.106,2.319,-0.824,66.667,766.000,1.000,0.005,0.000
-25565.940,-24860.960,-28366.560,-26395.810,-25076.280,-26988.410,-26682.880,-25564.930,-0.147,0.942,-0.323,2.045,2.472,-0.702,66.667,767.000,1.000,2.546,0.000
-25593.650,-24895.590,-28399.590,-26422.600,-25104.520,-27018.690,-26708.850,-25591.570,-0.150,0.940,-0.325,2.075,2.350,-0.458,66.667,768.000,1.000,2.473,0.000
-25616.700,-24917.060,-28424.690,-26443.890,-25123.600,-27037.590,-26726.150,-25609.940,-0.151,0.939,-0.325,1.984,2.411,-0.214,66.667,769.000,1.000,11.231,0.000
-25638.910,-24933.940,-28447.460,-26463.050,-25140.000,-27052.150,-26740.870,-25624.810,-0.150,0.935,-0.324,2.045,2.319,0.122,66.667,770.000,1.000,2.523,0.000
-25663.190,-24955.820,-28472.970,-26485.420,-25158.910,-27070.050,-26758.010,-25640.850,-0.151,0.933,-0.326,1.892,2.167,0.275,66.667,771.000,1.000,8.765,0.000
