EEG 1, EEG 2, EEG 3, EEG 4, EEG 5, EEG 6, EEG 7, EEG 8, ACC X, ACC Y, ACC Z, GYR X, GYR Y, GYR Z, BAT, CNT, VALID, DT, TRIG
290772.000,272342.800,484530.200,410615.800,247995.000,233967.900,220485.000,227569.600,-0.149,0.916,-0.186,0.000,0.000,0.000,73.333,1.000,1.000,0.000,0.000
282884.400,264947.800,450013.200,385134.600,241229.000,227624.400,214535.600,221449.700,-0.144,0.937,-0.202,0.000,0.000,0.000,73.333,2.000,1.000,21.862,0.000
275994.800,258530.000,423424.200,365459.900,235349.900,222128.100,209370.400,216132.200,-0.139,0.942,-0.210,0.000,0.000,0.000,73.333,3.000,1.000,2.478,0.000
269906.800,252865.100,402131.300,349647.800,230147.300,217273.600,204797.900,211434.800,-0.141,0.944,-0.214,-4.913,3.021,-3.021,73.333,4.000,1.000,2.526,0.000
264512.700,247826.300,384624.500,336602.100,225512.600,212944.500,200721.200,207247.400,-0.141,0.946,-0.216,-3.326,1.404,-1.984,73.333,5.000,1.000,3.701,0.000
259717.500,243315.600,369954.300,325630.600,221375.400,209063.800,197063.400,203496.400,-0.142,0.950,-0.214,-2.625,1.190,-1.495,73.333,6.000,1.000,3.715,0.000
255387.600,239242.000,357447.900,316225.400,217658.800,205561.300,193753.700,200110.300,-0.145,0.955,-0.209,-1.953,1.404,-1.251,73.333,7.000,1.000,14.391,0.000
251418.800,235543.300,346630.500,308030.700,214283.800,202393.200,190760.100,197032.400,-0.148,0.957,-0.210,-1.709,1.678,-1.099,73.333,8.000,1.000,0.016,0.000
247758.600,232148.100,337150.600,300799.500,211166.500,199478.500,188011.200,194198.000,-0.150,0.959,-0.213,-1.373,2.014,-0.946,73.333,9.000,1.000,1.862,0.000
244421.500,229037.700,328794.300,294402.800,208301.100,196795.100,185478.800,191600.600,-0.154,0.960,-0.214,-1.190,2.289,-0.977,73.333,10.000,1.000,2.546,0.000
241393.500,226177.800,321387.300,288717.300,205691.000,194320.200,183159.000,189227.400,-0.156,0.961,-0.213,-1.221,2.502,-0.885,73.333,11.000,1.000,2.431,0.000
238614.500,223555.500,314778.500,283625.600,203318.500,192070.400,181046.100,187057.600,-0.157,0.962,-0.211,-1.068,2.899,-0.793,73.333,12.000,1.000,2.527,0.000
236006.000,221129.700,308810.500,278983.700,201119.300,189991.500,179093.000,185036.500,-0.160,0.964,-0.214,-0.946,3.052,-0.763,73.333,13.000,1.000,14.315,0.000
233560.500,218866.300,303390.300,274741.800,199051.900,188043.500,177262.500,183141.700,-0.161,0.966,-0.216,-0.824,3.174,-0.763,73.333,14.000,1.000,0.019,0.000
231307.500,216770.500,298468.700,270883.600,197118.300,186223.500,175551.600,181383.400,-0.165,0.969,-0.213,-0.793,3.235,-0.702,73.333,15.000,1.000,1.873,0.000
229219.100,214797.500,293966.700,267358.400,195308.100,184514.500,173938.700,179731.200,-0.164,0.969,-0.213,-0.854,3.357,-0.732,73.333,16.000,1.000,2.527,0.000
227265.300,212941.000,289840.500,264098.000,193634.800,182931.000,172451.900,178202.200,-0.164,0.970,-0.210,-0.977,3.326,-0.702,73.333,17.000,1.000,8.705,0.000
225422.100,211232.700,286049.600,261087.600,192081.000,181466.300,171076.200,176777.400,-0.167,0.972,-0.214,-1.038,3.387,-0.610,73.333,18.000,1.000,2.572,0.000
223686.100,209626.800,282547.800,258292.000,190609.800,180088.700,169781.500,175435.500,-0.168,0.971,-0.212,-1.068,3.357,-0.549,73.333,19.000,1.000,3.086,0.000
222075.200,208123.600,279313.100,255706.700,189219.900,178791.200,168553.600,174177.000,-0.170,0.971,-0.212,-1.190,3.510,-0.458,73.333,20.000,1.000,0.013,0.000
220585.300,206714.300,276325.200,253319.800,187924.000,177571.800,167394.600,172989.500,-0.170,0.969,-0.214,-1.221,3.510,-0.488,73.333,21.000,1.000,1.893,0.000
219170.000,205373.300,273539.200,251085.500,186712.600,176417.200,166296.300,171877.900,-0.169,0.965,-0.213,-1.343,3.571,-0.488,73.333,22.000,1.000,8.671,0.000
217818.300,204117.700,270941.100,248989.400,185576.500,175344.200,165278.300,170832.700,-0.165,0.963,-0.216,-1.556,3.510,-0.427,73.333,23.000,1.000,4.439,0.000
216535.000,202942.300,268517.100,247015.500,184504.300,174344.800,164338.900,169854.800,-0.163,0.960,-0.218,-1.495,3.693,-0.336,73.333,24.000,1.000,0.020,0.000
215342.100,201831.200,266255.400,245185.400,183481.800,173390.200,163437.900,168929.700,-0.162,0.958,-0.219,-1.526,3.754,-0.183,73.333,25.000,1.000,26.213,0.000
214239.800,200779.200,264140.700,243481.000,182521.900,172483.600,162577.400,168044.300,-0.161,0.959,-0.220,-1.404,3.876,0.000,73.333,26.000,1.000,0.022,0.000
213216.400,199803.100,262179.600,241893.800,181643.800,171652.900,161788.900,167231.200,-0.162,0.958,-0.219,-1.221,4.120,0.000,73.333,27.000,1.000,1.821,0.000
212218.100,198878.000,260328.400,240380.300,180812.000,170870.700,161047.000,166461.400,-0.163,0.961,-0.218,-1.099,4.089,0.092,73.333,28.000,1.000,5.023,0.000
211247.100,197989.600,258564.600,238931.500,179998.400,170107.200,160328.100,165712.400,-0.164,0.961,-0.219,-1.038,4.089,0.244,73.333,29.000,1.000,2.507,0.000
210339.600,197138.300,256901.500,237567.900,179215.900,169370.400,159634.800,164994.600,-0.164,0.961,-0.221,-0.916,4.059,0.122,73.333,30.000,1.000,2.469,0.000
209527.900,196355.300,255364.900,236318.300,178503.400,168693.400,158993.200,164340.200,-0.165,0.962,-0.219,-0.977,4.120,0.214,73.333,31.000,1.000,2.517,0.000
208755.500,195611.200,253915.900,235138.800,177840.900,168055.500,158391.200,163725.100,-0.167,0.964,-0.214,-0.916,4.181,0.275,73.333,32.000,1.000,2.433,0.000
207990.100,194904.800,252540.700,234001.000,177211.400,167457.400,157830.700,163143.500,-0.168,0.967,-0.214,-1.129,4.120,0.214,73.333,33.000,1.000,2.548,0.000
207250.400,194234.500,251233.500,232912.200,176598.800,166882.000,157297.500,162583.400,-0.171,0.969,-0.218,-1.099,3.906,0.122,73.333,34.000,1.000,5.015,0.000
206549.700,193578.500,249978.200,231876.500,175986.600,166303.200,156758.900,162023.300,-0.173,0.968,-0.218,-1.129,3.662,0.031,73.333,35.000,1.000,3.144,0.000
205931.800,192977.100,248822.600,230940.400,175433.100,165773.600,156262.400,161524.200,-0.173,0.968,-0.218,-1.312,3.571,-0.061,73.333,36.000,1.000,0.012,0.000
205372.900,192441.600,247761.000,230080.000,174952.800,165306.300,155827.300,161083.900,-0.176,0.964,-0.221,-1.373,3.326,-0.122,73.333,37.000,1.000,1.889,0.000
204781.700,191888.100,246711.900,229194.700,174469.300,164845.800,155397.900,160636.500,-0.174,0.963,-0.218,-1.556,3.052,-0.122,73.333,38.000,1.000,2.412,0.000
204191.100,191358.600,245690.100,228333.900,173969.300,164378.500,154963.500,160182.800,-0.176,0.963,-0.216,-1.587,2.716,-0.275,73.333,39.000,1.000,11.927,0.000
203664.300,190876.700,244746.300,227555.000,173509.500,163950.600,154565.600,159771.100,-0.175,0.963,-0.219,-1.770,2.319,-0.336,73.333,40.000,1.000,0.021,0.000
203195.500,190422.800,243867.600,226839.000,173093.500,163559.900,154196.400,159392.600,-0.176,0.963,-0.217,-1.892,1.984,-0.336,73.333,41.000,1.000,2.349,0.000
202756.100,190002.400,243045.300,226169.400,172722.100,163205.700,153862.600,159052.000,-0.174,0.962,-0.216,-2.045,1.678,-0.427,73.333,42.000,1.000,0.004,0.000
202301.500,189592.800,242242.200,225501.000,172356.000,162862.200,153536.500,158712.600,-0.172,0.963,-0.221,-2.014,1.373,-0.427,73.333,43.000,1.000,1.894,0.000
201853.300,189197.300,241465.200,224850.900,171988.800,162526.600,153216.200,158375.000,-0.170,0.960,-0.219,-2.289,1.099,-0.336,73.333,44.000,1.000,6.329,0.000
201442.100,188811.600,240726.300,224243.500,171627.600,162196.600,152899.700,158045.900,-0.169,0.961,-0.222,-2.289,0.824,-0.366,73.333,45.000,1.000,6.181,0.000
201080.700,188452.900,240039.100,223681.900,171298.700,161888.000,152605.000,157747.500,-0.168,0.958,-0.227,-2.502,0.549,-0.275,73.333,46.000,1.000,6.264,0.000
200746.700,188127.500,239401.000,223159.700,171016.800,161622.100,152345.300,157477.500,-0.167,0.958,-0.227,-2.594,0.336,-0.244,73.333,47.000,1.000,4.385,0.000
200403.000,187815.800,238782.500,222642.100,170745.900,161366.500,152100.500,157217.400,-0.163,0.960,-0.223,-2.655,0.153,-0.214,73.333,48.000,1.000,0.010,0.000
200066.200,187520.900,238189.100,222139.600,170476.700,161122.400,151865.900,156968.200,-0.159,0.960,-0.225,-2.777,0.153,-0.031,73.333,49.000,1.000,8.185,0.000
199757.700,187234.500,237621.700,221665.300,170205.700,160877.800,151629.400,156719.800,-0.157,0.959,-0.226,-2.869,0.031,0.031,73.333,50.000,1.000,3.083,0.000
199501.100,186975.900,237102.700,221244.200,169963.700,160650.000,151412.900,156497.400,-0.155,0.960,-0.229,-3.021,0.000,0.000,73.333,51.000,1.000,0.008,0.000
199253.400,186730.200,236605.600,220841.300,169747.700,160435.700,151206.600,156291.700,-0.156,0.963,-0.229,-3.113,-0.092,0.000,73.333,52.000,1.000,1.871,0.000
198971.900,186474.000,236109.000,220427.900,169532.500,160227.700,151014.900,156088.400,-0.153,0.966,-0.227,-3.235,0.061,-0.061,73.333,53.000,1.000,8.760,0.000
198698.900,186241.500,235636.500,220025.700,169320.600,160031.600,150838.600,155888.600,-0.152,0.967,-0.227,-3.387,0.031,-0.092,73.333,54.000,1.000,5.548,0.000
198478.000,186041.300,235207.700,219669.700,169127.300,159851.500,150672.100,155712.900,-0.153,0.968,-0.222,-3.693,0.092,-0.244,73.333,55.000,1.000,0.009,0.000
198269.900,185820.800,234781.700,219326.300,168920.500,159637.600,150466.100,155527.700,-0.150,0.969,-0.221,-3.784,0.244,-0.336,73.333,56.000,1.000,1.923,0.000
198075.600,185613.700,234376.100,219000.700,168739.800,159440.700,150284.500,155352.800,-0.150,0.965,-0.218,-4.059,0.519,-0.610,73.333,57.000,1.000,12.564,0.000
197866.100,185427.700,233989.100,218675.300,168577.700,159281.900,150147.900,155201.900,-0.150,0.961,-0.213,-4.181,0.671,-0.885,73.333,58.000,1.000,3.002,0.000
197652.000,185233.700,233613.700,218352.300,168412.300,159129.000,150017.400,155059.200,-0.146,0.955,-0.214,-4.333,0.916,-0.977,73.333,59.000,1.000,0.006,0.000
197462.100,185054.400,233251.000,218056.700,168233.000,158951.000,149855.300,154905.000,-0.146,0.952,-0.215,-4.242,1.068,-1.160,73.333,60.000,1.000,1.905,0.000
197301.800,184889.000,232910.900,217783.000,168071.900,158788.900,149702.700,154760.500,-0.144,0.948,-0.215,-4.059,1.282,-1.190,73.333,61.000,1.000,6.298,0.000
197155.600,184741.700,232599.600,217536.200,167943.800,158653.900,149579.900,154645.700,-0.144,0.945,-0.217,-3.693,1.709,-1.129,73.333,62.000,1.000,11.180,0.000
196973.600,184597.500,232282.300,217266.800,167814.900,158536.700,149473.000,154530.700,-0.146,0.943,-0.215,-3.448,2.106,-1.129,73.333,63.000,1.000,3.077,0.000
196798.900,184467.500,231981.100,217014.300,167687.300,158428.400,149369.600,154418.500,-0.147,0.944,-0.217,-3.082,2.472,-0.946,73.333,64.000,1.000,0.005,0.000
196658.400,184346.100,231697.400,216786.900,167560.700,158321.200,149267.300,154311.900,-0.147,0.947,-0.217,-2.869,2.716,-0.854,73.333,65.000,1.000,1.924,0.000
196541.700,184223.400,231426.800,216568.100,167442.800,158218.700,149164.500,154207.000,-0.151,0.949,-0.217,-2.625,2.960,-0.793,73.333,66.000,1.000,2.588,0.000
196435.000,184109.400,231177.500,216374.800,167346.200,158135.100,149073.700,154117.300,-0.154,0.949,-0.214,-2.533,3.174,-0.732,73.333,67.000,1.000,3.637,0.000
196315.500,184013.000,230938.800,216178.800,167264.900,158074.700,149006.800,154039.700,-0.156,0.951,-0.216,-2.411,3.296,-0.732,73.333,68.000,1.000,11.834,0.000
196182.000,183915.800,230696.600,215974.600,167165.000,157996.400,148929.500,153951.000,-0.165,0.953,-0.214,-2.106,3.510,-0.641,73.333,69.000,1.000,0.010,0.000
196082.600,183829.300,230476.100,215791.400,167071.300,157925.300,148855.700,153874.300,-0.167,0.958,-0.217,-1.892,3.571,-0.610,73.333,70.000,1.000,1.980,0.000
196009.100,183737.300,230268.000,215632.800,166983.700,157847.700,148773.800,153793.100,-0.173,0.966,-0.217,-1.831,3.601,-0.580,73.333,71.000,1.000,2.379,0.000
195932.400,183648.700,230067.600,215479.400,166914.600,157777.900,148701.800,153717.100,-0.177,0.971,-0.217,-1.862,3.418,-0.641,73.333,72.000,1.000,9.480,0.000
195852.600,183588.500,229890.400,215333.900,166874.100,157739.300,148667.700,153675.300,-0.178,0.974,-0.216,-1.923,3.174,-0.610,73.333,73.000,1.000,0.013,0.000
195743.200,183508.900,229690.700,215162.200,166794.900,157672.200,148598.300,153598.400,-0.175,0.976,-0.217,-2.014,2.930,-0.732,73.333,74.000,1.000,8.603,0.000
195658.300,183429.700,229497.700,215003.900,166707.400,157591.800,148518.200,153513.500,-0.173,0.973,-0.217,-2.228,2.747,-0.763,73.333,75.000,1.000,0.009,0.000
195616.100,183369.900,229338.800,214885.800,166651.100,157534.800,148460.900,153458.000,-0.172,0.974,-0.219,-2.380,2.594,-0.732,73.333,76.000,1.000,4.413,0.000
195574.500,183314.100,229192.500,214779.500,166618.600,157490.000,148421.700,153419.300,-0.170,0.974,-0.214,-2.472,2.625,-0.549,73.333,77.000,1.000,3.164,0.000
195505.000,183260.700,229042.500,214660.400,166584.700,157441.300,148388.200,153380.500,-0.166,0.974,-0.214,-2.655,2.441,-0.458,73.333,78.000,1.000,0.009,0.000
195417.900,183193.500,228878.400,214514.300,166520.300,157375.200,148338.100,153322.800,-0.163,0.974,-0.216,-2.838,2.319,-0.336,73.333,79.000,1.000,3.058,0.000
195355.200,183130.800,228726.200,214394.900,166454.000,157304.200,148285.000,153272.800,-0.161,0.976,-0.216,-2.960,2.319,-0.092,73.333,80.000,1.000,11.258,0.000
195317.100,183068.000,228584.500,214294.500,166400.300,157234.800,148225.700,153219.500,-0.163,0.975,-0.214,-3.326,2.380,0.183,73.333,81.000,1.000,6.914,0.000
195294.900,183022.400,228465.300,214209.900,166373.600,157189.600,148185.500,153181.100,-0.163,0.971,-0.216,-3.510,2.289,0.336,73.333,82.000,1.000,0.010,0.000
195248.700,182985.800,228346.100,214111.500,166346.700,157151.500,148166.100,153161.800,-0.165,0.968,-0.216,-3.754,2.350,0.580,73.333,83.000,1.000,6.120,0.000
195191.500,182948.000,228221.000,214016.600,166307.400,157106.800,148141.500,153133.800,-0.166,0.967,-0.215,-3.815,2.289,0.763,73.333,84.000,1.000,0.011,0.000
195147.200,182901.100,228096.700,213915.100,166258.100,157055.900,148101.100,153094.900,-0.164,0.968,-0.218,-3.998,2.228,0.763,73.333,85.000,1.000,8.837,0.000
195117.200,182862.000,227980.100,213827.900,166215.700,157008.000,148058.800,153065.400,-0.164,0.970,-0.217,-3.967,2.167,0.732,73.333,86.000,1.000,0.012,0.000
195085.900,182824.800,227870.100,213742.500,166192.700,156981.100,148034.100,153041.200,-0.165,0.971,-0.217,-4.028,2.136,0.641,73.333,87.000,1.000,2.509,0.000
195037.500,182794.700,227762.300,213652.100,166173.600,156975.400,148023.100,153020.600,-0.167,0.968,-0.215,-4.089,1.923,0.549,73.333,88.000,1.000,0.004,0.000
194969.700,182759.600,227642.300,213549.200,166132.800,156961.000,148000.600,152985.100,-0.169,0.970,-0.212,-4.181,1.801,0.366,73.333,89.000,1.000,19.375,0.000
194928.000,182732.000,227533.000,213465.800,166087.400,156941.600,147971.800,152951.600,-0.166,0.970,-0.213,-4.303,1.587,0.092,73.333,90.000,1.000,3.109,0.000
194930.300,182722.700,227456.400,213423.800,166077.500,156947.300,147964.400,152943.500,-0.165,0.968,-0.214,-4.395,1.404,-0.153,73.333,91.000,1.000,0.012,0.000
194941.100,182715.200,227389.000,213387.600,166090.300,156970.300,147976.400,152949.200,-0.164,0.965,-0.210,-4.364,1.160,-0.336,73.333,92.000,1.000,2.483,0.000
194893.600,182684.500,227285.200,213299.200,166071.800,156963.000,147955.400,152924.700,-0.164,0.965,-0.212,-4.456,0.977,-0.610,73.333,93.000,1.000,0.008,0.000
194842.500,182657.400,227185.200,213214.300,166041.800,156935.500,147918.200,152890.200,-0.162,0.961,-0.208,-4.395,0.885,-0.824,73.333,94.000,1.000,1.796,0.000
194822.400,182644.400,227102.000,213144.800,166014.900,156914.700,147898.000,152866.500,-0.162,0.957,-0.210,-4.333,0.916,-0.946,73.333,95.000,1.000,15.698,0.000
194820.900,182616.700,227025.200,213092.800,165995.000,156897.900,147877.600,152844.200,-0.162,0.954,-0.210,-4.211,0.885,-1.129,73.333,96.000,1.000,0.012,0.000
194824.100,182600.200,226962.400,213053.200,165998.500,156892.100,147875.000,152835.100,-0.164,0.952,-0.209,-3.937,0.824,-1.190,73.333,97.000,1.000,2.509,0.000
194790.800,182581.100,226887.700,212987.900,165987.100,156867.400,147852.300,152814.200,-0.164,0.952,-0.209,-3.693,0.793,-1.373,73.333,98.000,1.000,0.011,0.000
194744.300,182553.500,226799.500,212907.300,165955.100,156836.300,147819.600,152781.100,-0.162,0.951,-0.209,-3.448,0.732,-1.343,73.333,99.000,1.000,8.724,0.000
194716.300,182527.000,226715.200,212837.200,165917.500,156808.400,147794.800,152751.600,-0.163,0.951,-0.208,-3.326,0.610,-1.282,73.333,100.000,1.000,0.013,0.000
194724.700,182513.100,226655.900,212808.000,165902.800,156789.400,147782.200,152740.300,-0.164,0.950,-0.210,-3.082,0.702,-1.129,73.333,101.000,1.000,6.190,0.000
194735.500,182507.500,226605.600,212776.400,165907.700,156783.800,147780.200,152740.800,-0.164,0.950,-0.210,-2.869,0.824,-1.038,73.333,102.000,1.000,0.011,0.000
194699.100,182479.000,226525.800,212705.200,165893.400,156760.900,147760.100,152722.900,-0.164,0.951,-0.206,-2.716,0.702,-0.763,73.333,103.000,1.000,5.662,0.000
194675.800,182468.700,226457.300,212653.200,165881.300,156748.900,147756.800,152722.800,-0.163,0.951,-0.208,-2.502,0.702,-0.610,73.333,104.000,1.000,4.335,0.000
194653.500,182441.800,226383.000,212590.600,165846.000,156712.200,147729.900,152694.100,-0.161,0.952,-0.212,-2.258,0.854,-0.519,73.333,105.000,1.000,0.010,0.000
194676.500,182439.300,226343.100,212575.700,165844.900,156699.200,147723.700,152697.500,-0.160,0.952,-0.212,-2.136,0.824,-0.336,73.333,106.000,1.000,3.064,0.000
194690.500,182432.100,226302.000,212555.600,165850.200,156687.900,147721.700,152701.000,-0.157,0.953,-0.214,-1.923,0.977,-0.183,73.333,107.000,1.000,8.818,0.000
194684.600,182432.200,226261.100,212519.200,165863.500,156690.400,147735.200,152714.100,-0.156,0.957,-0.213,-1.801,1.129,0.061,73.333,108.000,1.000,4.332,0.000
194654.600,182415.400,226196.500,212463.800,165848.700,156675.700,147727.400,152708.100,-0.153,0.958,-0.216,-1.709,1.373,0.366,73.333,109.000,1.000,0.009,0.000
194644.900,182410.200,226136.000,212421.300,165826.100,156655.600,147712.500,152695.100,-0.151,0.961,-0.214,-1.648,1.526,0.458,73.333,110.000,1.000,10.669,0.000
194656.000,182404.300,226089.500,212398.300,165819.800,156645.300,147704.600,152694.500,-0.152,0.966,-0.215,-1.617,1.831,0.580,73.333,111.000,1.000,3.332,0.000
194662.900,182399.000,226044.900,212373.100,165827.400,156650.900,147703.200,152696.800,-0.153,0.966,-0.217,-1.740,2.045,0.763,73.333,112.000,1.000,0.008,0.000
194642.100,182398.800,225992.500,212328.800,165833.300,156666.600,147708.400,152692.600,-0.155,0.968,-0.215,-1.953,2.258,0.854,73.333,113.000,1.000,1.662,0.000
194602.800,182389.400,225929.100,212268.600,165818.600,156669.900,147702.500,152677.700,-0.156,0.969,-0.214,-2.136,2.411,0.854,73.333,114.000,1.000,8.738,0.000
194575.300,182374.900,225867.100,212212.500,165794.400,156670.100,147686.800,152658.500,-0.157,0.969,-0.216,-2.228,2.533,0.916,73.333,115.000,1.000,3.090,0.000
194603.300,182385.800,225841.400,212210.200,165801.900,156692.300,147694.600,152668.800,-0.156,0.969,-0.217,-2.319,2.594,0.854,73.333,116.000,1.000,0.010,0.000
194602.700,182373.800,225794.700,212176.900,165799.300,156692.300,147684.400,152665.500,-0.155,0.971,-0.217,-2.533,2.716,0.793,73.333,117.000,1.000,1.875,0.000
194570.900,182357.300,225739.000,212124.700,165792.400,156693.100,147676.700,152651.500,-0.156,0.970,-0.216,-2.625,2.899,0.702,73.333,118.000,1.000,16.291,0.000
194533.100,182348.500,225684.600,212073.600,165780.100,156694.700,147679.600,152642.200,-0.155,0.968,-0.216,-2.747,3.113,0.580,73.333,119.000,1.000,3.098,0.000
194522.900,182338.700,225636.500,212032.100,165759.400,156682.400,147660.500,152625.100,-0.156,0.969,-0.212,-2.930,3.235,0.397,73.333,120.000,1.000,0.011,0.000
194531.800,182321.500,225591.000,212015.300,165740.600,156664.000,147634.800,152611.200,-0.157,0.968,-0.212,-3.113,3.265,0.305,73.333,121.000,1.000,1.766,0.000
194544.900,182320.700,225556.800,211995.500,165746.500,156662.600,147631.500,152613.100,-0.156,0.967,-0.211,-3.082,3.357,0.153,73.333,122.000,1.000,7.637,0.000
194529.800,182316.100,225512.600,211950.700,165747.300,156662.600,147635.300,152606.000,-0.156,0.969,-0.212,-3.204,3.540,0.000,73.333,123.000,1.000,2.380,0.000
194508.600,182316.200,225471.100,211911.900,165740.300,156657.800,147639.500,152601.800,-0.156,0.969,-0.212,-3.418,3.632,-0.214,73.333,124.000,1.000,2.556,0.000
194496.000,182302.200,225426.200,211881.000,165718.500,156637.700,147626.200,152595.700,-0.156,0.968,-0.213,-3.510,3.693,-0.244,73.333,125.000,1.000,4.331,0.000
194498.600,182283.200,225385.000,211864.000,165705.000,156611.400,147608.300,152583.800,-0.156,0.966,-0.216,-3.479,3.693,-0.305,73.333,126.000,1.000,0.007,0.000
194511.100,182277.300,225357.100,211848.600,165713.100,156603.300,147604.600,152582.800,-0.157,0.965,-0.218,-3.479,3.662,-0.214,73.333,127.000,1.000,3.109,0.000
194494.100,182273.400,225320.300,211805.500,165714.600,156598.800,147609.300,152577.000,-0.156,0.963,-0.217,-3.571,3.723,-0.397,73.333,128.000,1.000,13.751,0.000
194465.500,182273.600,225277.500,211762.100,165701.900,156587.600,147611.900,152573.700,-0.157,0.965,-0.219,-3.571,3.784,-0.458,73.333,129.000,1.000,3.098,0.000
194460.700,182270.600,225239.300,211738.700,165684.500,156567.800,147602.500,152567.700,-0.159,0.964,-0.219,-3.571,3.632,-0.397,73.333,130.000,1.000,0.008,0.000
194489.300,182278.100,225220.600,211736.500,165685.200,156557.400,147599.600,152573.100,-0.162,0.962,-0.218,-3.540,3.540,-0.275,73.333,131.000,1.000,1.985,0.000
194499.300,182279.900,225192.900,211718.300,165686.700,156546.300,147593.400,152572.500,-0.163,0.961,-0.217,-3.693,3.357,-0.275,73.333,132.000,1.000,2.472,0.000
194474.100,182262.100,225152.400,211685.400,165685.500,156543.300,147593.700,152567.600,-0.163,0.958,-0.218,-3.632,3.235,-0.305,73.333,133.000,1.000,8.726,0.000
194445.500,182263.500,225111.200,211643.300,165673.600,156542.800,147587.100,152559.500,-0.162,0.958,-0.219,-3.540,3.082,-0.275,73.333,134.000,1.000,3.122,0.000
194437.800,182264.700,225070.500,211609.400,165656.500,156536.300,147575.100,152550.300,-0.166,0.958,-0.218,-3.387,2.777,-0.275,73.333,135.000,1.000,0.007,0.000
194451.000,182262.800,225036.400,211594.900,165647.700,156531.400,147559.000,152543.000,-0.169,0.958,-0.221,-3.418,2.411,-0.153,73.333,136.000,1.000,1.836,0.000
194482.200,182282.800,225033.900,211607.800,165680.500,156567.500,147578.900,152566.200,-0.172,0.958,-0.224,-3.387,2.075,-0.305,73.333,137.000,1.000,8.802,0.000
194467.700,182282.200,225002.800,211576.600,165690.500,156587.800,147587.100,152565.100,-0.176,0.958,-0.221,-3.265,1.587,-0.519,73.333,138.000,1.000,3.769,0.000
194443.700,182278.100,224960.600,211531.800,165679.500,156596.200,147586.200,152553.600,-0.177,0.958,-0.221,-3.235,1.129,-0.580,73.333,139.000,1.000,6.256,0.000
194453.800,182294.000,224941.700,211520.400,165683.900,156614.300,147598.500,152566.400,-0.176,0.959,-0.221,-3.204,0.580,-0.702,73.333,140.000,1.000,3.020,0.000
194481.400,182297.000,224924.600,211519.300,165690.500,156620.100,147599.400,152574.900,-0.174,0.959,-0.218,-3.204,0.000,-0.824,73.333,141.000,1.000,0.011,0.000
194499.800,182293.100,224909.000,211517.300,165708.100,156631.800,147607.400,152589.100,-0.170,0.961,-0.218,-3.235,-0.519,-0.916,73.333,142.000,1.000,1.958,0.000
194474.000,182282.900,224872.100,211477.500,165710.900,156635.700,147609.500,152583.700,-0.168,0.963,-0.219,-3.204,-0.854,-1.038,73.333,143.000,1.000,13.752,0.000
194449.500,182281.000,224833.100,211440.600,165700.800,156634.700,147604.300,152570.200,-0.165,0.965,-0.219,-3.418,-1.190,-1.007,73.333,144.000,1.000,3.047,0.000
194448.200,182281.300,224801.600,211413.500,165686.300,156623.400,147597.300,152562.900,-0.168,0.968,-0.220,-3.601,-1.526,-0.916,73.333,145.000,1.000,0.010,0.000
194471.600,182279.500,224785.200,211416.900,165690.300,156620.000,147602.700,152573.300,-0.166,0.969,-0.218,-3.662,-1.831,-0.885,73.333,146.000,1.000,16.972,0.000
194477.600,182270.300,224760.300,211408.500,165700.500,156617.200,147614.100,152580.100,-0.164,0.970,-0.216,-3.815,-2.106,-0.793,73.333,147.000,1.000,2.393,0.000
194452.900,182262.200,224725.000,211373.400,165701.700,156614.400,147614.200,152569.800,-0.158,0.973,-0.219,-4.059,-2.289,-0.885,73.333,148.000,1.000,5.741,0.000
194416.000,182248.400,224677.100,211326.600,165678.600,156592.500,147600.600,152546.800,-0.157,0.971,-0.220,-4.242,-2.411,-0.854,73.333,149.000,1.000,0.040,0.000
194415.000,182241.000,224646.900,211304.000,165657.700,156564.100,147574.900,152536.000,-0.156,0.968,-0.218,-4.425,-2.380,-0.885,73.333,150.000,1.000,1.807,0.000
194449.500,182238.200,224635.600,211308.000,165660.000,156551.000,147567.900,152537.400,-0.153,0.964,-0.217,-4.547,-2.167,-0.854,73.333,151.000,1.000,2.417,0.000
194478.300,182241.100,224631.200,211313.100,165678.100,156553.500,147585.800,152557.700,-0.151,0.962,-0.215,-4.639,-2.014,-0.854,73.333,152.000,1.000,2.554,0.000
194470.700,182243.300,224613.900,211301.200,165686.300,156548.500,147589.000,152562.500,-0.148,0.960,-0.212,-4.639,-1.709,-0.763,73.333,153.000,1.000,2.471,0.000
194439.400,182236.500,224573.600,211260.600,165660.700,156511.800,147554.900,152540.500,-0.146,0.959,-0.215,-4.547,-1.465,-0.763,73.333,154.000,1.000,3.749,0.000
194417.000,182208.600,224526.200,211209.800,165625.400,156479.800,147522.400,152511.100,-0.144,0.954,-0.216,-4.578,-1.160,-0.732,73.333,155.000,1.000,6.859,0.000
194447.300,182214.200,224516.700,211220.800,165629.000,156478.000,147523.600,152506.600,-0.143,0.950,-0.215,-4.303,-0.854,-0.671,73.333,156.000,1.000,0.008,0.000
194464.700,182230.300,224507.600,211225.400,165649.300,156497.400,147539.800,152519.700,-0.141,0.948,-0.215,-4.028,-0.458,-0.702,73.333,157.000,1.000,8.188,0.000
194447.000,182236.800,224483.300,211200.300,165660.900,156521.200,147560.700,152526.800,-0.140,0.948,-0.213,-3.723,0.000,-0.702,73.333,158.000,1.000,3.051,0.000
194418.500,182237.900,224452.500,211172.900,165654.000,156535.000,147566.700,152522.500,-0.142,0.950,-0.208,-3.418,0.336,-0.610,73.333,159.000,1.000,0.011,0.000
194411.300,182240.000,224424.300,211142.500,165640.800,156536.300,147563.800,152517.400,-0.141,0.952,-0.210,-3.204,0.610,-0.549,73.333,160.000,1.000,1.908,0.000
194431.200,182242.700,224408.900,211136.800,165643.800,156541.000,147562.100,152523.600,-0.144,0.956,-0.208,-2.991,1.038,-0.519,73.333,161.000,1.000,6.215,0.000
194442.600,182241.500,224394.900,211137.500,165659.800,156555.600,147567.000,152533.000,-0.145,0.959,-0.210,-2.777,1.373,-0.549,73.333,162.000,1.000,9.352,0.000
194428.400,182244.800,224373.200,211115.000,165673.300,156575.700,147579.500,152540.700,-0.147,0.958,-0.205,-2.533,1.801,-0.610,73.333,163.000,1.000,0.011,0.000
194398.000,182240.800,224337.300,211076.800,165665.700,156579.600,147576.300,152537.800,-0.149,0.960,-0.208,-2.411,2.014,-0.610,73.333,164.000,1.000,1.869,0.000
194396.100,182237.400,224312.200,211063.200,165656.600,156579.200,147571.900,152538.100,-0.155,0.959,-0.210,-2.319,2.289,-0.793,73.333,165.000,1.000,3.721,0.000
194420.800,182236.500,224300.100,211070.300,165661.500,156579.000,147570.500,152546.500,-0.156,0.963,-0.211,-2.258,2.472,-0.885,73.333,166.000,1.000,11.975,0.000
194420.600,182224.500,224274.500,211055.500,165666.300,156573.300,147566.200,152544.900,-0.161,0.967,-0.212,-2.197,2.625,-1.038,73.333,167.000,1.000,0.016,0.000
194403.400,182225.200,224250.000,211030.300,165674.100,156579.600,147573.700,152547.600,-0.164,0.970,-0.211,-2.228,2.625,-1.007,73.333,168.000,1.000,2.476,0.000
194382.900,182228.200,224226.500,211005.700,165669.200,156578.800,147577.400,152550.100,-0.167,0.970,-0.210,-2.167,2.625,-1.038,73.333,169.000,1.000,0.014,0.000
194386.100,182229.000,224207.500,210991.100,165658.500,156565.000,147568.400,152545.800,-0.171,0.973,-0.213,-2.197,2.533,-1.068,73.333,170.000,1.000,1.753,0.000
194413.300,182229.800,224198.600,210995.800,165656.300,156550.500,147555.900,152540.600,-0.174,0.975,-0.213,-2.441,2.502,-1.190,73.333,171.000,1.000,8.768,0.000
194442.000,182237.700,224199.700,211006.600,165676.300,156555.100,147566.900,152553.100,-0.174,0.973,-0.212,-2.533,2.411,-1.160,73.333,172.000,1.000,3.798,0.000
194421.400,182228.700,224174.000,210978.200,165674.500,156549.200,147569.900,152549.200,-0.175,0.973,-0.213,-2.747,2.258,-1.099,73.333,173.000,1.000,3.742,0.000
194383.400,182209.300,224130.600,210926.500,165647.100,156532.800,147558.900,152530.300,-0.172,0.971,-0.214,-3.021,2.167,-1.068,73.333,174.000,1.000,11.814,0.000
194383.900,182204.400,224108.100,210913.400,165629.300,156517.000,147550.700,152523.800,-0.172,0.971,-0.216,-3.052,1.984,-0.824,73.333,175.000,1.000,0.011,0.000
194405.600,182194.100,224093.100,210914.500,165624.700,156506.700,147550.000,152523.200,-0.175,0.970,-0.214,-3.265,1.862,-0.732,73.333,176.000,1.000,1.877,0.000
194432.900,182209.100,224093.800,210924.000,165648.000,156529.500,147575.200,152537.900,-0.174,0.967,-0.212,-3.265,1.617,-0.549,73.333,177.000,1.000,2.583,0.000
194408.600,182204.400,224061.400,210889.300,165639.900,156515.300,147554.400,152521.300,-0.173,0.964,-0.209,-3.418,1.556,-0.397,73.333,178.000,1.000,3.717,0.000
194380.500,182192.600,224030.900,210857.500,165623.000,156502.100,147538.800,152506.900,-0.172,0.964,-0.211,-3.296,1.404,-0.122,73.333,179.000,1.000,9.281,0.000
194387.700,182208.400,224021.600,210852.000,165625.300,156511.700,147546.700,152509.500,-0.172,0.961,-0.211,-3.387,1.343,-0.122,73.333,180.000,1.000,0.009,0.000
194406.500,182212.400,224011.700,210853.300,165631.600,156513.700,147545.800,152509.600,-0.170,0.959,-0.211,-3.387,1.190,0.031,73.333,181.000,1.000,1.900,0.000
194421.100,182220.800,224007.300,210858.600,165651.100,156525.600,147554.300,152518.600,-0.170,0.958,-0.213,-3.387,1.068,0.031,73.333,182.000,1.000,2.576,0.000
194410.900,182235.400,223998.100,210842.200,165673.000,156554.000,147571.500,152526.600,-0.166,0.958,-0.213,-3.387,1.007,0.214,73.333,183.000,1.000,33.804,0.000
194379.100,182231.100,223967.700,210807.200,165660.300,156556.000,147568.500,152518.800,-0.163,0.957,-0.213,-3.448,1.160,0.244,73.333,184.000,1.000,3.069,0.000
194375.500,182227.400,223946.700,210789.400,165643.700,156549.900,147559.300,152512.000,-0.162,0.958,-0.213,-3.326,1.129,0.244,73.333,185.000,1.000,0.007,0.000
194406.200,182233.700,223944.900,210800.300,165653.200,156553.800,147557.700,152516.600,-0.160,0.959,-0.213,-3.326,1.160,0.153,73.333,186.000,1.000,1.962,0.000
194423.900,182243.300,223941.900,210811.000,165675.700,156569.700,147567.500,152531.300,-0.159,0.959,-0.214,-3.204,1.251,0.183,73.333,187.000,1.000,2.363,0.000
194401.400,182241.500,223918.800,210792.800,165679.000,156577.500,147571.800,152532.700,-0.161,0.962,-0.214,-3.235,1.251,0.092,73.333,188.000,1.000,2.514,0.000
194373.500,182238.100,223887.900,210742.500,165662.200,156574.100,147568.900,152525.800,-0.160,0.964,-0.213,-3.174,1.190,0.000,73.333,189.000,1.000,2.451,0.000
194377.400,182240.300,223872.800,210734.600,165646.900,156565.800,147559.600,152522.400,-0.159,0.964,-0.212,-3.235,1.282,0.031,73.333,190.000,1.000,2.544,0.000
194390.800,182222.900,223853.300,210730.800,165637.200,156550.200,147542.500,152516.500,-0.157,0.966,-0.211,-3.113,1.343,-0.031,73.333,191.000,1.000,2.467,0.000
194399.800,182219.300,223842.000,210728.000,165645.400,156551.500,147545.800,152523.500,-0.158,0.964,-0.209,-3.143,1.343,-0.244,73.333,192.000,1.000,2.521,0.000
194383.900,182220.300,223824.600,210711.200,165650.800,156560.500,147559.300,152532.300,-0.158,0.962,-0.208,-3.113,1.526,-0.244,73.333,193.000,1.000,2.469,0.000
194361.500,182217.200,223799.400,210686.100,165639.700,156556.000,147563.000,152530.500,-0.159,0.960,-0.209,-3.113,1.556,-0.336,73.333,194.000,1.000,2.496,0.000
194377.000,182228.200,223795.500,210684.500,165640.600,156556.800,147574.500,152538.900,-0.157,0.963,-0.211,-3.082,1.587,-0.519,73.333,195.000,1.000,5.636,0.000
194409.100,182234.000,223792.400,210695.900,165647.100,156558.200,147586.600,152549.900,-0.158,0.962,-0.215,-3.204,1.648,-0.549,73.333,196.000,1.000,0.012,0.000
194412.600,182220.800,223771.900,210683.700,165649.600,156552.400,147591.000,152550.800,-0.156,0.964,-0.211,-3.265,1.770,-0.671,73.333,197.000,1.000,2.422,0.000
194381.200,182199.500,223735.900,210643.700,165634.700,156520.200,147561.100,152530.600,-0.156,0.964,-0.212,-3.265,1.953,-0.824,73.333,198.000,1.000,0.007,0.000
194351.100,182188.500,223705.300,210608.300,165617.600,156500.900,147546.900,152514.600,-0.157,0.964,-0.213,-3.418,1.984,-0.885,73.333,199.000,1.000,1.922,0.000
194370.900,182200.100,223705.300,210622.500,165617.100,156503.800,147549.700,152520.200,-0.156,0.960,-0.212,-3.540,2.136,-0.916,73.333,200.000,1.000,8.770,0.000
194401.500,182204.100,223703.500,210629.300,165620.300,156496.500,147540.800,152525.500,-0.156,0.956,-0.212,-3.571,2.350,-0.885,73.333,201.000,1.000,6.826,0.000
194425.900,182219.000,223707.300,210632.700,165643.100,156516.100,147558.000,152536.000,-0.156,0.954,-0.213,-3.510,2.563,-0.824,73.333,202.000,1.000,0.010,0.000
194390.800,182205.800,223675.800,210595.100,165634.800,156512.200,147545.800,152515.900,-0.156,0.954,-0.211,-3.418,2.625,-0.824,73.333,203.000,1.000,13.736,0.000
194364.900,182213.100,223656.000,210571.100,165631.000,156521.100,147547.200,152512.800,-0.154,0.956,-0.210,-3.418,2.747,-0.671,73.333,204.000,1.000,0.013,0.000
194368.500,182221.000,223644.800,210561.000,165625.500,156529.900,147546.400,152508.900,-0.156,0.956,-0.208,-3.265,2.777,-0.763,73.333,205.000,1.000,2.451,0.000
194390.300,182227.500,223640.200,210564.300,165629.000,156534.500,147535.700,152506.000,-0.158,0.957,-0.204,-3.082,2.991,-0.702,73.333,206.000,1.000,0.011,0.000
194421.500,182251.000,223653.600,210582.800,165662.900,156566.700,147558.000,152528.900,-0.161,0.960,-0.207,-2.899,3.052,-0.610,73.333,207.000,1.000,1.910,0.000
194402.700,182256.200,223639.000,210561.600,165670.600,156581.900,147570.300,152536.200,-0.162,0.963,-0.208,-2.869,3.204,-0.488,73.333,208.000,1.000,3.719,0.000
194381.100,182254.300,223620.900,210540.300,165665.300,156587.700,147576.100,152537.800,-0.164,0.962,-0.206,-2.716,3.204,-0.397,73.333,209.000,1.000,4.375,0.000
194383.600,182254.900,223605.300,210534.800,165654.000,156582.100,147569.800,152533.600,-0.164,0.962,-0.209,-2.472,3.235,-0.305,73.333,210.000,1.000,0.008,0.000
194403.900,182248.900,223599.500,210543.300,165655.600,156575.700,147565.700,152535.000,-0.166,0.964,-0.208,-2.411,3.174,-0.275,73.333,211.000,1.000,13.138,0.000
194417.600,182248.700,223597.000,210548.300,165669.300,156580.600,147570.800,152546.500,-0.167,0.965,-0.208,-2.411,3.113,-0.275,73.333,212.000,1.000,5.021,0.000
194400.800,182247.100,223580.800,210527.800,165671.500,156581.900,147574.600,152550.500,-0.168,0.968,-0.211,-2.350,2.960,-0.305,73.333,213.000,1.000,0.009,0.000
194372.800,182241.800,223553.800,210500.200,165654.300,156571.400,147571.500,152548.700,-0.167,0.967,-0.208,-2.472,2.838,-0.336,73.333,214.000,1.000,0.006,0.000
194368.100,182236.800,223535.100,210489.300,165634.400,156554.300,147562.800,152537.600,-0.168,0.966,-0.207,-2.472,2.747,-0.397,73.333,215.000,1.000,2.437,0.000
194377.500,182216.200,223517.700,210479.400,165623.600,156533.000,147546.600,152527.600,-0.167,0.966,-0.210,-2.411,2.563,-0.366,73.333,216.000,1.000,3.729,0.000
194387.000,182205.300,223505.600,210473.500,165626.900,156523.500,147543.400,152526.900,-0.167,0.965,-0.211,-2.411,2.350,-0.214,73.333,217.000,1.000,8.825,0.000
194374.700,182207.500,223491.700,210456.300,165629.100,156524.000,147552.600,152528.200,-0.168,0.962,-0.212,-2.533,2.197,-0.275,73.333,218.000,1.000,9.271,0.000
194349.100,182204.600,223468.800,210427.600,165613.000,156512.200,147547.300,152516.600,-0.167,0.961,-0.211,-2.441,2.014,-0.214,73.333,219.000,1.000,0.019,0.000
194365.800,182218.700,223469.900,210436.700,165616.900,156515.700,147551.800,152526.900,-0.166,0.962,-0.212,-2.533,1.831,-0.214,73.333,220.000,1.000,16.292,0.000
194404.100,182226.500,223475.300,210455.400,165631.200,156518.600,147556.300,152539.000,-0.169,0.966,-0.212,-2.441,1.678,-0.122,73.333,221.000,1.000,0.013,0.000
194411.600,182220.400,223466.600,210451.900,165641.100,156514.900,147556.200,152540.700,-0.167,0.969,-0.211,-2.563,1.282,-0.244,73.333,222.000,1.000,4.666,0.000
194394.400,182224.300,223454.800,210439.000,165651.000,156521.600,147568.600,152547.300,-0.169,0.970,-0.211,-2.533,1.099,-0.122,73.333,223.000,1.000,0.006,0.000
194367.100,182222.300,223431.000,210415.200,165642.400,156516.600,147567.200,152542.600,-0.167,0.968,-0.211,-2.594,0.854,-0.092,73.333,224.000,1.000,0.004,0.000
194338.800,182192.600,223388.200,210368.600,165608.600,156488.000,147535.200,152515.300,-0.169,0.969,-0.214,-2.808,0.610,-0.214,73.333,225.000,1.000,4.622,0.000
194371.800,182204.400,223396.800,210392.600,165623.900,156497.600,147539.800,152527.800,-0.167,0.968,-0.216,-2.930,0.336,-0.214,73.333,226.000,1.000,2.516,0.000
194397.400,182221.300,223409.500,210410.200,165655.600,156522.700,147562.000,152550.800,-0.166,0.970,-0.214,-3.021,0.092,-0.183,73.333,227.000,1.000,4.377,0.000
194385.200,182232.300,223400.700,210401.600,165671.900,156543.400,147583.800,152563.500,-0.166,0.973,-0.216,-3.296,-0.153,-0.122,73.333,228.000,1.000,0.006,0.000
194356.100,182229.600,223373.900,210366.800,165656.500,156541.300,147573.500,152542.900,-0.163,0.973,-0.215,-3.418,-0.275,-0.214,73.333,229.000,1.000,13.757,0.000
194358.200,182231.100,223363.000,210357.500,165644.700,156539.600,147562.900,152532.200,-0.163,0.970,-0.213,-3.601,-0.397,-0.275,73.333,230.000,1.000,0.010,0.000
194384.100,182231.800,223363.900,210369.600,165652.900,156544.200,147561.700,152537.300,-0.160,0.970,-0.216,-3.723,-0.580,-0.183,73.333,231.000,1.000,11.279,0.000
194411.500,182248.400,223371.600,210384.300,165678.800,156565.800,147579.500,152553.700,-0.161,0.970,-0.217,-3.876,-0.732,-0.214,73.333,232.000,1.000,0.013,0.000
194391.400,182250.000,223356.400,210363.300,165684.000,156579.000,147592.400,152560.000,-0.159,0.969,-0.215,-4.089,-0.946,-0.275,73.333,233.000,1.000,1.869,0.000
194345.800,182226.800,223317.300,210319.900,165657.500,156562.900,147579.000,152540.200,-0.159,0.968,-0.207,-4.150,-1.038,-0.305,73.333,234.000,1.000,2.466,0.000
194328.100,182209.900,223286.400,210291.200,165632.100,156543.600,147552.700,152514.100,-0.157,0.968,-0.209,-4.242,-1.129,-0.458,73.333,235.000,1.000,2.552,0.000
194358.800,182218.500,223294.700,210309.500,165643.900,156554.700,147558.700,152522.600,-0.156,0.968,-0.213,-4.303,-1.190,-0.549,73.333,236.000,1.000,3.048,0.000
194373.500,182219.800,223294.800,210314.800,165657.100,156563.300,147565.300,152533.500,-0.156,0.964,-0.211,-4.425,-1.282,-0.763,73.333,237.000,1.000,0.010,0.000
194349.700,182209.300,223272.300,210287.100,165647.400,156547.100,147555.400,152528.000,-0.156,0.962,-0.210,-4.456,-1.160,-0.824,73.333,238.000,1.000,1.903,0.000
194324.200,182203.300,223250.800,210262.300,165627.700,156530.300,147551.700,152521.800,-0.155,0.958,-0.208,-4.364,-1.190,-1.068,73.333,239.000,1.000,6.177,0.000
194331.500,182200.600,223239.700,210259.400,165611.500,156513.200,147536.500,152518.200,-0.153,0.953,-0.207,-4.272,-1.007,-1.373,73.333,240.000,1.000,9.418,0.000
194368.600,182205.900,223243.800,210277.000,165615.500,156505.500,147531.700,152528.300,-0.152,0.952,-0.208,-4.059,-0.793,-1.556,73.333,241.000,1.000,0.012,0.000
194388.200,182213.100,223242.200,210287.400,165626.600,156510.100,147543.700,152540.800,-0.151,0.954,-0.209,-3.876,-0.519,-1.556,73.333,242.000,1.000,1.844,0.000
194357.500,182196.900,223212.800,210258.200,165612.200,156493.000,147533.800,152530.700,-0.151,0.955,-0.212,-3.723,-0.366,-1.587,73.333,243.000,1.000,8.697,0.000
194319.500,182175.300,223178.000,210211.100,165587.500,156473.200,147517.700,152512.100,-0.152,0.956,-0.210,-3.540,-0.153,-1.617,73.333,244.000,1.000,3.142,0.000
194331.500,182178.300,223174.800,210215.600,165589.400,156476.200,147525.300,152517.800,-0.153,0.957,-0.206,-3.571,0.092,-1.434,73.333,245.000,1.000,0.005,0.000
194359.600,182183.800,223179.900,210235.300,165598.800,156476.300,147525.600,152523.500,-0.151,0.956,-0.204,-3.448,0.275,-1.312,73.333,246.000,1.000,6.913,0.000
194373.600,182191.800,223182.300,210241.400,165621.600,156489.400,147539.600,152535.700,-0.151,0.957,-0.208,-3.143,0.519,-1.282,73.333,247.000,1.000,4.939,0.000
194365.500,182208.400,223181.800,210230.300,165643.300,156512.400,147564.600,152549.100,-0.152,0.956,-0.208,-3.021,0.824,-1.099,73.333,248.000,1.000,2.489,0.000
194338.200,182209.600,223161.700,210202.700,165631.600,156509.900,147553.500,152535.400,-0.153,0.955,-0.210,-2.777,1.129,-0.946,73.333,249.000,1.000,2.542,0.000
194337.900,182208.400,223149.800,210192.200,165619.700,156504.000,147538.900,152521.100,-0.150,0.952,-0.209,-2.747,1.404,-0.763,73.333,250.000,1.000,12.526,0.000
194377.300,182225.000,223165.300,210217.500,165639.500,156517.600,147546.400,152536.700,-0.147,0.949,-0.209,-2.563,1.617,-0.641,73.333,251.000,1.000,3.046,0.000
194391.700,182229.400,223163.900,210221.400,165654.500,156530.200,147553.200,152543.100,-0.147,0.948,-0.209,-2.319,1.953,-0.519,73.333,252.000,1.000,0.006,0.000
194376.400,182233.300,223151.400,210199.700,165659.700,156543.400,147562.500,152539.800,-0.147,0.949,-0.208,-1.862,2.472,-0.214,73.333,253.000,1.000,1.879,0.000
194357.900,182234.800,223136.100,210181.400,165650.200,156552.400,147566.100,152531.600,-0.150,0.952,-0.212,-1.770,2.747,-0.031,73.333,254.000,1.000,3.792,0.000
194353.700,182222.900,223117.100,210167.400,165632.600,156547.300,147555.800,152522.000,-0.152,0.953,-0.208,-1.709,2.869,0.153,73.333,255.000,1.000,8.766,0.000
194388.300,182230.700,223123.100,210185.600,165644.900,156553.200,147563.200,152534.500,-0.156,0.956,-0.208,-1.648,2.930,0.244,73.333,256.000,1.000,3.045,0.000
194408.400,182236.400,223126.100,210198.900,165663.100,156565.000,147572.800,152545.900,-0.162,0.961,-0.210,-1.587,3.052,0.366,73.333,257.000,1.000,0.008,0.000
194382.000,182228.200,223103.800,210167.600,165657.400,156565.900,147573.000,152540.500,-0.167,0.965,-0.213,-1.556,2.991,0.305,73.333,258.000,1.000,1.955,0.000
194336.900,182203.000,223061.500,210118.500,165618.000,156541.300,147546.900,152511.100,-0.171,0.966,-0.214,-1.648,2.991,0.214,73.333,259.000,1.000,11.232,0.000
194341.200,182197.400,223049.400,210115.300,165597.200,156524.300,147532.100,152505.500,-0.177,0.969,-0.214,-1.831,2.808,0.092,73.333,260.000,1.000,3.069,0.000
194371.300,182198.100,223051.500,210129.800,165600.400,156517.900,147530.100,152513.200,-0.182,0.973,-0.211,-2.106,2.472,0.061,73.333,261.000,1.000,0.008,0.000
194384.400,182196.100,223045.900,210128.200,165609.300,156521.300,147530.200,152517.000,-0.184,0.979,-0.212,-2.197,2.258,-0.183,73.333,262.000,1.000,1.928,0.000
194361.800,182187.600,223027.800,210108.300,165606.600,156519.500,147531.400,152514.600,-0.185,0.985,-0.210,-2.533,2.045,-0.275,73.333,263.000,1.000,8.719,0.000
194340.100,182188.900,223014.600,210096.000,165601.100,156516.700,147539.800,152523.500,-0.182,0.989,-0.211,-2.930,1.678,-0.366,73.333,264.000,1.000,4.344,0.000
194340.300,182183.600,223000.700,210084.000,165588.500,156497.200,147526.300,152514.700,-0.181,0.991,-0.214,-3.296,1.312,-0.488,73.333,265.000,1.000,0.011,0.000
194362.400,182180.200,222995.900,210092.000,165588.200,156482.600,147508.600,152510.300,-0.176,0.991,-0.212,-3.784,0.885,-0.610,73.333,266.000,1.000,19.359,0.000
194364.400,182174.200,222989.300,210086.200,165597.000,156478.100,147505.500,152509.600,-0.170,0.990,-0.212,-4.242,0.671,-0.397,73.333,267.000,1.000,0.011,0.000
194351.500,182184.100,222986.000,210074.400,165610.200,156491.400,147522.700,152520.100,-0.163,0.986,-0.212,-4.639,0.549,-0.244,73.333,268.000,1.000,0.003,0.000
194332.200,182190.800,222976.300,210058.000,165605.800,156495.600,147529.800,152522.700,-0.158,0.979,-0.208,-4.974,0.549,-0.092,73.333,269.000,1.000,2.473,0.000
194329.100,182185.800,222958.500,210047.900,165590.100,156483.000,147517.900,152513.000,-0.157,0.974,-0.210,-5.035,0.610,0.153,73.333,270.000,1.000,2.531,0.000
194364.300,182196.200,222965.900,210067.400,165604.200,156489.700,147526.500,152525.100,-0.153,0.968,-0.208,-5.219,0.793,0.336,73.333,271.000,1.000,2.544,0.000
194390.500,182217.400,222984.500,210088.400,165637.400,156516.800,147555.000,152552.800,-0.153,0.965,-0.208,-5.280,1.007,0.458,73.333,272.000,1.000,2.460,0.000
194360.500,182210.300,222963.800,210062.300,165635.300,156513.200,147551.300,152540.600,-0.154,0.961,-0.208,-5.219,1.099,0.610,73.333,273.000,1.000,2.731,0.000
194331.300,182204.800,222942.900,210035.600,165619.700,156505.400,147537.900,152515.800,-0.154,0.956,-0.211,-5.157,1.129,0.732,73.333,274.000,1.000,8.556,0.000
194347.000,182215.600,222946.800,210041.100,165621.300,156512.600,147538.500,152513.500,-0.155,0.952,-0.207,-4.974,1.160,0.732,73.333,275.000,1.000,3.156,0.000
194355.700,182204.900,222933.400,210031.000,165612.700,156501.800,147519.800,152496.800,-0.157,0.948,-0.203,-4.700,1.312,0.641,73.333,276.000,1.000,0.020,0.000
194372.900,182214.800,222940.200,210040.600,165634.400,156522.800,147532.300,152503.100,-0.159,0.946,-0.206,-4.425,1.343,0.519,73.333,277.000,1.000,8.092,0.000
194361.200,182228.900,222935.800,210032.700,165648.900,156548.500,147554.100,152511.400,-0.161,0.945,-0.206,-4.211,1.282,0.397,73.333,278.000,1.000,4.944,0.000
194323.900,182211.800,222906.500,210000.500,165629.500,156545.600,147549.900,152498.100,-0.162,0.948,-0.206,-3.845,1.251,0.092,73.333,279.000,1.000,4.969,0.000
194335.400,182218.200,222904.100,210005.000,165626.300,156550.400,147552.700,152500.200,-0.163,0.951,-0.206,-3.662,1.068,-0.092,73.333,280.000,1.000,4.984,0.000
194358.100,182212.200,222898.000,210013.200,165623.800,156543.800,147545.800,152494.600,-0.161,0.953,-0.204,-3.510,1.007,-0.336,73.333,281.000,1.000,2.507,0.000
194368.100,182208.700,222892.900,210014.000,165633.000,156551.300,147555.100,152500.100,-0.161,0.955,-0.204,-3.235,0.916,-0.519,73.333,282.000,1.000,2.475,0.000
194351.300,182208.300,222880.800,209998.300,165634.800,156553.500,147554.300,152504.500,-0.163,0.957,-0.206,-3.082,0.824,-0.946,73.333,283.000,1.000,5.001,0.000
194326.800,182201.100,222861.100,209977.100,165615.300,156529.600,147530.800,152496.500,-0.163,0.958,-0.208,-3.143,0.763,-1.190,73.333,284.000,1.000,5.063,0.000
194322.800,182194.900,222847.000,209967.200,165593.600,156505.000,147511.600,152486.800,-0.161,0.960,-0.205,-2.960,0.763,-1.343,73.333,285.000,1.000,4.957,0.000
194349.400,182184.500,222851.200,209979.500,165599.000,156503.300,147511.500,152497.800,-0.160,0.960,-0.207,-2.869,0.763,-1.526,73.333,286.000,1.000,2.464,0.000
194361.000,182187.200,222851.900,209983.800,165611.900,156511.000,147518.000,152507.900,-0.161,0.961,-0.202,-2.808,0.671,-1.556,73.333,287.000,1.000,14.408,0.000
194332.200,182180.500,222828.200,209953.000,165604.600,156507.800,147519.800,152503.400,-0.163,0.966,-0.206,-2.747,0.641,-1.556,73.333,288.000,1.000,0.009,0.000
194313.200,182182.200,222813.200,209937.800,165598.600,156513.000,147534.100,152509.800,-0.165,0.966,-0.209,-2.777,0.458,-1.526,73.333,289.000,1.000,1.826,0.000
194317.500,182180.000,222799.700,209934.200,165589.700,156507.800,147535.300,152513.700,-0.165,0.966,-0.212,-2.869,0.488,-1.312,73.333,290.000,1.000,2.544,0.000
194329.700,182165.600,222783.300,209932.100,165580.200,156484.500,147511.000,152500.900,-0.167,0.966,-0.211,-2.930,0.458,-1.282,73.333,291.000,1.000,2.406,0.000
194348.800,182177.400,222792.500,209947.600,165605.200,156497.000,147519.500,152517.600,-0.168,0.967,-0.204,-2.960,0.366,-1.312,73.333,292.000,1.000,2.523,0.000
194323.700,182174.200,222777.300,209926.000,165608.500,156496.300,147522.800,152518.600,-0.168,0.967,-0.204,-3.113,0.336,-1.221,73.333,293.000,1.000,2.601,0.000
194292.000,182165.300,222752.400,209892.700,165589.100,156484.800,147516.200,152500.500,-0.169,0.967,-0.206,-3.326,0.275,-1.099,73.333,294.000,1.000,2.494,0.000
194302.500,182168.200,222747.600,209893.100,165580.500,156480.300,147512.500,152496.300,-0.170,0.967,-0.207,-3.326,0.244,-0.946,73.333,295.000,1.000,12.419,0.000
194351.000,182196.300,222774.200,209926.200,165609.000,156502.300,147531.700,152514.800,-0.167,0.966,-0.210,-3.296,0.092,-0.916,73.333,296.000,1.000,3.203,0.000
194382.200,182215.500,222796.000,209943.100,165644.500,156531.200,147553.500,152532.900,-0.166,0.964,-0.204,-3.418,0.153,-0.702,73.333,297.000,1.000,0.008,0.000
194367.600,182221.100,222791.800,209927.000,165654.700,156543.400,147557.600,152532.200,-0.164,0.963,-0.205,-3.418,0.092,-0.458,73.333,298.000,1.000,8.005,0.000
194320.800,182197.700,222751.100,209883.400,165620.500,156521.600,147527.300,152495.000,-0.162,0.962,-0.203,-3.448,0.122,-0.275,73.333,299.000,1.000,2.536,0.000
194314.700,182185.100,222729.000,209872.500,165601.200,156513.000,147519.000,152483.900,-0.159,0.959,-0.203,-3.387,0.275,-0.122,73.333,300.000,1.000,3.070,0.000
194344.300,182190.200,222734.100,209889.400,165611.400,156525.000,147525.400,152491.100,-0.156,0.956,-0.199,-3.387,0.427,0.031,73.333,301.000,1.000,0.011,0.000
194364.800,182203.600,222743.300,209899.800,165635.500,156549.100,147543.000,152504.300,-0.155,0.956,-0.202,-3.387,0.610,0.275,73.333,302.000,1.000,1.869,0.000
194344.800,182204.900,222729.300,209879.500,165636.100,156557.100,147550.800,152501.600,-0.155,0.958,-0.205,-3.296,0.824,0.427,73.333,303.000,1.000,18.140,0.000
194321.900,182204.200,222713.900,209859.600,165622.200,156557.300,147550.900,152492.000,-0.155,0.960,-0.201,-3.235,1.007,0.641,73.333,304.000,1.000,0.012,0.000
194299.000,182176.400,222685.300,209840.000,165585.900,156525.100,147519.600,152465.800,-0.154,0.961,-0.202,-3.082,1.160,0.580,73.333,305.000,1.000,3.126,0.000
194326.700,182178.500,222691.900,209855.700,165593.200,156524.300,147517.000,152472.500,-0.156,0.961,-0.202,-2.960,1.343,0.641,73.333,306.000,1.000,0.008,0.000
194346.400,182185.000,222698.700,209865.400,165610.300,156534.400,147524.100,152484.400,-0.157,0.963,-0.201,-2.899,1.526,0.549,73.333,307.000,1.000,0.006,0.000
194332.900,182188.000,222690.000,209854.200,165612.000,156536.400,147527.700,152485.900,-0.157,0.965,-0.204,-2.808,1.709,0.519,73.333,308.000,1.000,2.566,0.000
194304.300,182175.500,222666.800,209821.700,165592.500,156519.300,147517.200,152478.200,-0.160,0.966,-0.204,-2.838,1.801,0.366,73.333,309.000,1.000,2.441,0.000
194305.600,182165.700,222654.200,209812.500,165574.100,156500.900,147506.000,152471.600,-0.160,0.969,-0.202,-2.747,1.953,0.244,73.333,310.000,1.000,11.301,0.000
194338.300,182169.900,222660.800,209833.800,165579.000,156497.800,147506.700,152485.300,-0.158,0.968,-0.200,-2.655,2.014,-0.061,73.333,311.000,1.000,4.303,0.000
194345.200,182167.900,222657.900,209835.300,165585.400,156496.100,147505.500,152491.600,-0.157,0.968,-0.206,-2.747,1.953,-0.244,73.333,312.000,1.000,0.017,0.000
194312.300,182154.200,222634.900,209807.600,165574.800,156483.400,147500.400,152485.000,-0.157,0.965,-0.203,-2.686,2.106,-0.305,73.333,313.000,1.000,5.040,0.000
194292.400,182156.400,222623.800,209789.500,165565.900,156482.300,147504.900,152487.500,-0.156,0.966,-0.206,-2.655,2.228,-0.458,73.333,314.000,1.000,0.014,0.000
194307.100,182167.000,222629.700,209798.700,165566.700,156481.100,147508.200,152497.600,-0.158,0.967,-0.206,-2.747,2.441,-0.488,73.333,315.000,1.000,1.804,0.000
194320.500,182155.000,222623.500,209803.000,165562.300,156465.400,147494.500,152491.200,-0.158,0.969,-0.208,-2.777,2.472,-0.580,73.333,316.000,1.000,13.765,0.000
194341.100,182171.100,222635.200,209819.300,165588.700,156479.800,147510.800,152507.900,-0.160,0.969,-0.210,-2.869,2.563,-0.732,73.333,317.000,1.000,3.058,0.000
194329.300,182180.600,222629.700,209809.000,165601.000,156489.800,147522.700,152515.900,-0.161,0.970,-0.210,-2.930,2.563,-0.916,73.333,318.000,1.000,0.011,0.000
194297.600,182172.300,222602.500,209775.800,165580.800,156475.700,147506.600,152493.900,-0.161,0.970,-0.206,-3.082,2.625,-0.977,73.333,319.000,1.000,1.917,0.000
194305.700,182170.300,222597.300,209769.700,165576.500,156477.700,147506.100,152493.600,-0.162,0.970,-0.204,-3.143,2.563,-0.916,73.333,320.000,1.000,16.933,0.000
194350.800,182191.400,222619.900,209803.200,165602.400,156503.400,147521.600,152508.500,-0.165,0.969,-0.205,-3.296,2.289,-0.885,73.333,321.000,1.000,0.015,0.000
194366.400,182202.900,222626.300,209807.700,165621.900,156523.700,147529.700,152507.400,-0.171,0.967,-0.206,-3.357,2.197,-0.946,73.333,322.000,1.000,2.466,0.000
194355.000,182217.800,222626.300,209796.800,165641.100,156560.900,147565.900,152522.000,-0.176,0.965,-0.206,-3.448,1.953,-0.885,73.333,323.000,1.000,0.010,0.000
194320.200,182204.200,222599.700,209765.500,165620.400,156554.000,147553.700,152501.900,-0.178,0.965,-0.207,-3.448,1.862,-0.854,73.333,324.000,1.000,4.307,0.000
194315.900,182188.100,222582.900,209752.700,165595.700,156523.200,147512.500,152476.700,-0.180,0.962,-0.205,-3.418,1.495,-0.946,73.333,325.000,1.000,2.543,0.000
194361.800,182207.700,222607.800,209790.600,165621.300,156547.700,147530.100,152501.800,-0.179,0.959,-0.202,-3.387,1.160,-1.038,73.333,326.000,1.000,4.261,0.000
194362.300,182199.500,222596.400,209781.500,165621.700,156552.400,147529.200,152495.000,-0.178,0.956,-0.207,-3.296,0.916,-1.099,73.333,327.000,1.000,0.007,0.000
194339.200,182197.600,222582.600,209760.700,165619.600,156556.600,147531.400,152491.100,-0.177,0.956,-0.205,-3.082,0.580,-1.038,73.333,328.000,1.000,5.706,0.000
194312.300,182189.800,222562.800,209740.500,165604.000,156550.500,147523.400,152480.300,-0.175,0.955,-0.204,-2.960,0.366,-0.916,73.333,329.000,1.000,15.648,0.000
194318.800,182188.600,222553.700,209741.400,165590.200,156532.500,147508.800,152474.100,-0.172,0.953,-0.205,-2.808,0.153,-0.824,73.333,330.000,1.000,0.014,0.000
194343.600,182187.400,222553.600,209749.800,165592.400,156524.900,147507.000,152480.000,-0.173,0.951,-0.204,-2.563,0.000,-0.610,73.333,331.000,1.000,7.473,0.000
194352.100,182185.000,222553.600,209750.200,165603.200,156528.500,147514.500,152491.100,-0.171,0.953,-0.201,-2.258,-0.214,-0.488,73.333,332.000,1.000,0.010,0.000
194333.800,182186.900,222546.000,209739.900,165608.000,156529.500,147527.700,152498.500,-0.170,0.958,-0.204,-2.075,-0.092,-0.366,73.333,333.000,1.000,1.883,0.000
194291.800,182168.800,222511.100,209703.500,165576.300,156497.900,147508.100,152481.600,-0.167,0.961,-0.202,-1.862,-0.244,-0.183,73.333,334.000,1.000,3.062,0.000
194292.700,182164.100,222500.900,209695.000,165560.500,156480.500,147495.500,152477.800,-0.164,0.961,-0.202,-1.801,-0.305,0.061,73.333,335.000,1.000,0.005,0.000
194326.000,182172.000,222509.800,209715.800,165571.600,156481.400,147496.900,152490.600,-0.162,0.963,-0.203,-1.678,-0.275,0.214,73.333,336.000,1.000,9.397,0.000
194331.300,182167.600,222503.400,209714.300,165582.100,156480.500,147500.100,152497.600,-0.159,0.963,-0.202,-1.617,-0.183,0.458,73.333,337.000,1.000,3.154,0.000
194309.000,182162.400,222488.300,209697.900,165585.600,156484.200,147508.900,152499.800,-0.159,0.963,-0.203,-1.526,-0.092,0.580,73.333,338.000,1.000,0.004,0.000
194296.900,182169.700,222481.000,209687.300,165582.900,156486.600,147512.800,152500.700,-0.158,0.965,-0.207,-1.434,0.000,0.732,73.333,339.000,1.000,10.597,0.000
194307.900,182174.600,222481.600,209689.200,165577.500,156480.500,147504.400,152495.800,-0.159,0.964,-0.211,-1.404,0.092,0.854,73.333,340.000,1.000,3.017,0.000
194338.000,182177.200,222488.000,209708.600,165586.300,156478.100,147498.800,152494.300,-0.156,0.968,-0.210,-1.373,0.305,0.793,73.333,341.000,1.000,0.009,0.000
194357.500,182195.400,222497.700,209718.900,165607.100,156490.400,147508.400,152502.500,-0.157,0.968,-0.211,-1.434,0.427,0.824,73.333,342.000,1.000,2.017,0.000
194354.100,182201.700,222503.900,209712.500,165627.900,156514.300,147532.500,152516.100,-0.155,0.968,-0.210,-1.587,0.580,0.732,73.333,343.000,1.000,5.154,0.000
194326.800,182191.100,222484.000,209683.000,165613.800,156508.600,147528.900,152506.900,-0.155,0.969,-0.208,-1.678,0.793,0.610,73.333,344.000,1.000,24.836,0.000
194326.900,182183.500,222468.600,209671.900,165596.100,156494.000,147512.800,152490.100,-0.155,0.970,-0.209,-1.862,0.946,0.519,73.333,345.000,1.000,2.447,0.000
194349.100,182184.900,222471.000,209685.900,165602.900,156497.200,147511.600,152489.600,-0.156,0.970,-0.208,-2.014,1.190,0.458,73.333,346.000,1.000,7.521,0.000
194366.400,182198.100,222481.500,209698.400,165624.700,156517.700,147526.300,152503.500,-0.156,0.972,-0.208,-2.228,1.373,0.366,73.333,347.000,1.000,2.486,0.000
194339.400,182191.700,222466.400,209677.300,165621.000,156523.200,147530.100,152498.100,-0.154,0.971,-0.211,-2.411,1.495,0.183,73.333,348.000,1.000,2.490,0.000
194314.900,182188.500,222449.000,209657.100,165603.500,156519.700,147526.600,152486.600,-0.154,0.972,-0.214,-2.716,1.740,0.183,73.333,349.000,1.000,2.540,0.000
194334.800,182202.000,222455.800,209669.600,165604.800,156524.700,147532.300,152495.800,-0.153,0.971,-0.213,-3.052,1.740,0.031,73.333,350.000,1.000,2.486,0.000
194348.800,182191.200,222449.400,209676.300,165600.300,156516.100,147515.600,152485.100,-0.154,0.972,-0.214,-3.296,1.892,-0.122,73.333,351.000,1.000,2.471,0.000
194351.300,182183.600,222447.200,209674.700,165611.300,156524.500,147521.200,152491.200,-0.155,0.971,-0.214,-3.418,2.045,-0.153,73.333,352.000,1.000,7.528,0.000
194330.500,182186.400,222438.700,209661.500,165615.800,156538.100,147535.700,152497.400,-0.154,0.973,-0.212,-3.723,2.197,-0.275,73.333,353.000,1.000,2.543,0.000
194304.400,182184.300,222421.700,209634.700,165603.700,156539.800,147541.100,152493.200,-0.158,0.971,-0.214,-4.028,2.319,-0.427,73.333,354.000,1.000,2.457,0.000
194304.300,182180.300,222409.300,209627.500,165585.800,156526.700,147530.500,152485.500,-0.157,0.969,-0.211,-4.120,2.441,-0.427,73.333,355.000,1.000,3.058,0.000
194325.900,182174.600,222404.400,209636.700,165585.300,156515.800,147526.500,152490.300,-0.157,0.965,-0.209,-4.272,2.594,-0.549,73.333,356.000,1.000,0.006,0.000
194331.300,182169.700,222398.000,209634.900,165591.600,156510.000,147522.400,152494.300,-0.160,0.963,-0.207,-4.395,2.655,-0.702,73.333,357.000,1.000,1.881,0.000
194298.300,182153.300,222372.900,209604.300,165577.100,156489.700,147504.500,152487.500,-0.159,0.958,-0.207,-4.608,2.686,-0.793,73.333,358.000,1.000,2.604,0.000
194274.800,182150.700,222358.400,209585.000,165563.000,156475.500,147492.500,152484.200,-0.160,0.957,-0.203,-4.639,2.777,-0.885,73.333,359.000,1.000,2.382,0.000
194291.500,182159.900,222365.500,209597.600,165561.900,156466.200,147482.100,152487.100,-0.161,0.954,-0.203,-4.608,2.930,-0.916,73.333,360.000,1.000,3.117,0.000
194325.700,182170.100,222381.500,209620.100,165578.000,156468.800,147489.000,152502.900,-0.161,0.953,-0.203,-4.456,3.021,-0.916,73.333,361.000,1.000,0.007,0.000
194336.600,182176.900,222389.000,209624.800,165597.900,156482.900,147509.100,152510.600,-0.164,0.951,-0.207,-4.211,3.021,-1.099,73.333,362.000,1.000,1.898,0.000
194325.400,182188.500,222388.800,209618.400,165612.200,156501.400,147524.100,152516.100,-0.165,0.953,-0.207,-3.967,3.082,-1.007,73.333,363.000,1.000,11.807,0.000
194307.600,182190.500,222376.500,209603.800,165606.200,156503.600,147522.800,152510.500,-0.168,0.954,-0.202,-3.662,2.869,-1.068,73.333,364.000,1.000,0.009,0.000
194311.400,182180.400,222364.100,209595.700,165591.500,156492.900,147509.500,152498.300,-0.169,0.957,-0.200,-3.387,2.777,-0.763,73.333,365.000,1.000,5.017,0.000
194335.900,182179.800,222365.300,209605.200,165595.200,156492.600,147504.200,152494.600,-0.169,0.960,-0.202,-3.113,2.686,-0.732,73.333,366.000,1.000,0.007,0.000
194337.900,182176.600,222359.500,209598.500,165602.000,156496.200,147505.700,152492.400,-0.173,0.960,-0.199,-2.869,2.350,-0.610,73.333,367.000,1.000,1.891,0.000
194321.500,182179.100,222354.500,209584.900,165608.800,156505.100,147519.300,152493.700,-0.174,0.962,-0.201,-2.686,2.289,-0.549,73.333,368.000,1.000,8.824,0.000
194307.900,182178.500,222347.800,209574.300,165601.100,156505.800,147524.900,152492.600,-0.175,0.959,-0.202,-2.563,2.045,-0.549,73.333,369.000,1.000,2.435,0.000
194324.600,182184.400,222347.800,209579.500,165597.700,156504.800,147523.700,152492.500,-0.175,0.958,-0.198,-2.502,1.770,-0.397,73.333,370.000,1.000,4.386,0.000
194357.700,182194.500,222361.500,209598.900,165611.100,156513.100,147525.200,152496.000,-0.176,0.958,-0.197,-2.350,1.587,-0.366,73.333,371.000,1.000,0.008,0.000
194366.800,182201.900,222368.700,209606.400,165629.000,156527.200,147534.800,152500.600,-0.174,0.959,-0.199,-2.075,1.343,-0.336,73.333,372.000,1.000,8.143,0.000
194335.300,182191.900,222347.900,209581.500,165620.200,156520.300,147529.000,152489.800,-0.175,0.959,-0.203,-1.892,1.038,-0.183,73.333,373.000,1.000,2.451,0.000
194304.300,182182.900,222325.600,209555.600,165598.500,156508.900,147519.300,152474.000,-0.173,0.962,-0.205,-1.831,0.885,-0.061,73.333,374.000,1.000,4.341,0.000
194304.700,182174.100,222311.600,209546.500,165575.400,156493.300,147501.700,152459.700,-0.171,0.963,-0.205,-1.801,0.641,0.092,73.333,375.000,1.000,0.006,0.000
194337.500,182181.800,222325.800,209572.500,165590.000,156505.300,147511.400,152474.600,-0.171,0.962,-0.204,-1.892,0.427,0.061,73.333,376.000,1.000,3.108,0.000
194354.300,182195.200,222339.900,209593.300,165614.200,156527.900,147533.000,152494.100,-0.168,0.963,-0.205,-1.801,0.275,0.275,73.333,377.000,1.000,11.354,0.000
194330.800,182189.100,222326.300,209572.300,165606.500,156523.500,147528.000,152486.400,-0.166,0.963,-0.205,-1.801,0.153,0.275,73.333,378.000,1.000,3.062,0.000
194309.500,182184.800,222308.300,209544.000,165586.800,156516.200,147520.600,152476.600,-0.163,0.963,-0.208,-1.862,0.183,0.336,73.333,379.000,1.000,0.013,0.000
194304.300,182169.300,222288.000,209531.300,165562.300,156493.900,147503.000,152466.500,-0.161,0.962,-0.209,-1.831,0.153,0.488,73.333,380.000,1.000,10.600,0.000
194335.300,182174.300,222296.100,209554.200,165573.700,156498.800,147508.600,152486.600,-0.160,0.966,-0.208,-1.709,0.031,0.458,73.333,381.000,1.000,2.940,0.000
194347.300,182180.900,222299.800,209561.600,165594.500,156509.200,147521.900,152505.500,-0.159,0.971,-0.207,-1.862,0.122,0.580,73.333,382.000,1.000,0.006,0.000
194322.900,182177.100,222282.800,209540.400,165595.000,156509.700,147530.700,152505.300,-0.155,0.972,-0.211,-2.075,0.275,0.671,73.333,383.000,1.000,7.030,0.000
194284.400,182155.400,222251.700,209504.500,165570.800,156493.000,147516.800,152488.900,-0.151,0.974,-0.208,-2.441,0.397,0.763,73.333,384.000,1.000,2.511,0.000
194290.200,182153.300,222245.700,209504.000,165560.800,156477.500,147501.300,152488.100,-0.150,0.973,-0.209,-2.594,0.519,0.763,73.333,385.000,1.000,2.572,0.000
194331.300,182165.900,222267.500,209535.000,165584.500,156482.800,147511.200,152501.900,-0.149,0.971,-0.208,-2.899,0.763,0.702,73.333,386.000,1.000,24.267,0.000
194345.800,182174.800,222279.300,209544.100,165607.500,156503.000,147537.700,152517.500,-0.150,0.969,-0.203,-3.113,0.946,0.549,73.333,387.000,1.000,0.021,0.000
194319.200,182172.100,222267.000,209524.500,165606.400,156509.000,147543.300,152510.300,-0.149,0.968,-0.205,-3.174,1.160,0.427,73.333,388.000,1.000,0.011,0.000
194287.400,182163.500,222245.800,209496.500,165585.800,156491.500,147517.800,152490.700,-0.148,0.970,-0.202,-3.357,1.373,0.305,73.333,389.000,1.000,0.007,0.000
194300.400,182164.000,222243.900,209499.300,165574.000,156473.900,147495.400,152485.200,-0.148,0.968,-0.203,-3.448,1.770,0.122,73.333,390.000,1.000,1.905,0.000
194330.500,182163.300,222250.900,209516.500,165578.700,156465.600,147482.500,152485.100,-0.149,0.966,-0.201,-3.418,2.136,-0.122,73.333,391.000,1.000,2.516,0.000
194324.800,182151.400,222239.700,209509.500,165579.900,156464.300,147483.600,152480.100,-0.148,0.963,-0.204,-3.479,2.472,-0.488,73.333,392.000,1.000,2.466,0.000
194314.100,182164.500,222238.600,209502.100,165593.300,156486.900,147508.000,152486.600,-0.148,0.960,-0.206,-3.448,2.747,-0.610,73.333,393.000,1.000,2.548,0.000
194292.500,182165.500,222221.700,209476.600,165574.800,156482.900,147503.800,152468.200,-0.148,0.963,-0.204,-3.357,2.838,-0.702,73.333,394.000,1.000,2.457,0.000
194302.800,182168.000,222217.900,209479.000,165568.000,156480.500,147503.500,152461.200,-0.152,0.964,-0.201,-3.235,3.052,-0.763,73.333,395.000,1.000,2.454,0.000
194322.100,182155.700,222217.900,209489.000,165573.800,156483.300,147503.300,152460.700,-0.152,0.963,-0.202,-3.082,3.113,-0.763,73.333,396.000,1.000,3.786,0.000
194338.200,182174.400,222231.200,209500.400,165595.000,156502.100,147517.100,152474.100,-0.157,0.964,-0.203,-3.082,3.296,-0.824,73.333,397.000,1.000,8.757,0.000
194313.100,182175.400,222222.800,209479.800,165597.200,156510.600,147525.500,152475.800,-0.160,0.965,-0.203,-2.930,3.510,-0.977,73.333,398.000,1.000,4.319,0.000
194300.500,182188.200,222220.000,209475.200,165595.100,156519.100,147531.700,152483.100,-0.164,0.966,-0.202,-2.899,3.510,-1.038,73.333,399.000,1.000,0.009,0.000
194305.400,182185.200,222209.500,209473.500,165577.000,156504.600,147517.600,152479.900,-0.166,0.966,-0.206,-2.899,3.357,-1.160,73.333,400.000,1.000,11.337,0.000
194330.400,182174.700,222212.400,209495.200,165581.600,156498.200,147512.400,152488.900,-0.168,0.965,-0.208,-2.838,3.326,-1.099,73.333,401.000,1.000,0.009,0.000
194329.500,182167.700,222205.300,209490.800,165587.800,156493.600,147510.400,152494.300,-0.170,0.965,-0.205,-2.747,3.021,-1.221,73.333,402.000,1.000,1.784,0.000
194297.700,182159.200,222186.000,209467.200,165580.900,156486.200,147507.000,152491.300,-0.171,0.965,-0.205,-2.777,2.808,-1.129,73.333,403.000,1.000,2.539,0.000
194282.500,182162.300,222178.300,209456.100,165573.600,156485.800,147506.900,152491.500,-0.174,0.963,-0.203,-2.777,2.533,-1.007,73.333,404.000,1.000,8.699,0.000
194292.400,182159.200,222170.000,209450.300,165558.800,156469.800,147488.000,152479.900,-0.174,0.962,-0.205,-2.625,2.258,-0.854,73.333,405.000,1.000,3.129,0.000
194321.400,182155.500,222174.600,209464.600,165563.700,156466.600,147483.300,152483.000,-0.174,0.960,-0.206,-2.655,2.014,-0.793,73.333,406.000,1.000,0.007,0.000
194327.200,182159.500,222179.800,209465.500,165582.700,156477.200,147498.100,152496.200,-0.172,0.958,-0.208,-2.502,1.617,-0.671,73.333,407.000,1.000,7.104,0.000
194311.100,182169.200,222180.400,209454.500,165594.700,156491.600,147517.000,152508.600,-0.171,0.958,-0.208,-2.502,1.312,-0.580,73.333,408.000,1.000,4.777,0.000
194284.100,182160.800,222160.200,209432.200,165578.100,156480.000,147509.600,152499.200,-0.172,0.959,-0.207,-2.472,1.129,-0.427,73.333,409.000,1.000,2.511,0.000
194280.800,182148.000,222143.300,209419.300,165559.700,156458.800,147492.500,152485.800,-0.171,0.960,-0.208,-2.472,0.854,-0.244,73.333,410.000,1.000,5.015,0.000
194308.000,182149.800,222149.500,209438.000,165572.400,156458.300,147496.800,152496.800,-0.169,0.962,-0.208,-2.472,0.549,-0.153,73.333,411.000,1.000,2.488,0.000
194327.800,182165.300,222161.900,209451.400,165602.900,156480.700,147521.400,152510.700,-0.171,0.965,-0.208,-2.625,0.214,-0.092,73.333,412.000,1.000,2.488,0.000
194307.900,182168.000,222151.700,209432.800,165609.400,156489.900,147530.400,152512.000,-0.169,0.967,-0.207,-2.655,-0.153,-0.092,73.333,413.000,1.000,8.764,0.000
194290.600,182167.000,222138.900,209415.800,165599.400,156487.500,147527.900,152502.100,-0.166,0.967,-0.209,-2.808,-0.366,0.092,73.333,414.000,1.000,3.131,0.000
194290.900,182155.000,222125.800,209404.800,165578.100,156468.600,147505.200,152479.500,-0.164,0.965,-0.211,-3.052,-0.610,0.061,73.333,415.000,1.000,0.007,0.000
194335.100,182177.300,222152.300,209436.100,165601.300,156486.200,147517.000,152494.100,-0.164,0.965,-0.207,-3.204,-0.885,0.031,73.333,416.000,1.000,10.564,0.000
194342.500,182179.300,222156.800,209442.600,165617.100,156500.200,147530.000,152500.500,-0.163,0.963,-0.209,-3.326,-1.190,0.031,73.333,417.000,1.000,3.129,0.000
194314.500,182171.100,222138.300,209417.300,165610.800,156500.500,147529.200,152486.700,-0.161,0.961,-0.210,-3.540,-1.404,-0.092,73.333,418.000,1.000,0.011,0.000
194290.800,182165.300,222117.600,209390.800,165590.200,156492.000,147518.400,152470.300,-0.157,0.961,-0.212,-3.693,-1.404,-0.092,73.333,419.000,1.000,8.819,0.000
194291.000,182157.700,222104.900,209383.400,165570.000,156480.300,147505.600,152457.600,-0.155,0.963,-0.212,-3.754,-1.587,0.000,73.333,420.000,1.000,0.017,0.000
194323.700,182167.500,222120.000,209409.600,165589.200,156499.800,147522.400,152472.300,-0.153,0.963,-0.210,-3.906,-1.617,-0.061,73.333,421.000,1.000,4.944,0.000
194332.800,182171.900,222125.500,209415.300,165603.700,156515.700,147538.400,152479.800,-0.151,0.963,-0.209,-4.150,-1.526,-0.092,73.333,422.000,1.000,0.008,0.000
194303.000,182165.800,222107.100,209390.100,165589.100,156501.200,147516.700,152460.400,-0.152,0.962,-0.209,-4.211,-1.404,-0.244,73.333,423.000,1.000,5.627,0.000
194281.400,182158.800,222088.400,209368.800,165560.500,156470.800,147476.400,152444.100,-0.154,0.960,-0.210,-4.211,-1.434,-0.458,73.333,424.000,1.000,2.479,0.000
194284.500,182139.100,222076.800,209370.200,165538.000,156451.300,147458.800,152438.700,-0.153,0.963,-0.212,-4.303,-1.099,-0.732,73.333,425.000,1.000,8.710,0.000
194309.300,182139.700,222081.400,209382.800,165541.300,156444.700,147457.700,152453.400,-0.153,0.965,-0.210,-4.242,-0.854,-0.916,73.333,426.000,1.000,4.382,0.000
194316.200,182141.200,222086.900,209390.800,165560.100,156456.100,147473.300,152474.800,-0.153,0.965,-0.209,-4.150,-0.732,-0.946,73.333,427.000,1.000,0.008,0.000
194294.000,182140.700,222077.300,209377.700,165561.900,156462.300,147475.700,152476.000,-0.154,0.964,-0.208,-4.242,-0.671,-0.977,73.333,428.000,1.000,16.271,0.000
194274.800,182140.300,222066.300,209359.200,165551.600,156452.300,147475.800,152473.100,-0.158,0.962,-0.211,-4.181,-0.488,-1.129,73.333,429.000,1.000,0.013,0.000
194295.600,182149.400,222074.200,209371.700,165554.200,156456.800,147482.000,152483.400,-0.161,0.962,-0.208,-4.089,-0.397,-1.038,73.333,430.000,1.000,10.920,0.000
194324.100,182152.500,222082.100,209391.500,165570.300,156461.700,147483.100,152490.100,-0.163,0.963,-0.205,-4.028,-0.275,-1.099,73.333,431.000,1.000,0.012,0.000
194325.100,182154.700,222082.200,209386.500,165586.400,156470.100,147497.000,152497.400,-0.165,0.966,-0.205,-3.998,-0.275,-1.099,73.333,432.000,1.000,0.004,0.000
194319.300,182176.200,222088.900,209382.800,165608.300,156498.400,147529.500,152517.200,-0.166,0.971,-0.206,-3.876,-0.183,-0.916,73.333,433.000,1.000,2.157,0.000
194292.700,182166.500,222069.000,209360.700,165593.700,156491.200,147524.600,152505.200,-0.166,0.974,-0.205,-3.906,-0.153,-0.824,73.333,434.000,1.000,5.021,0.000
194288.000,182153.100,222053.800,209350.900,165574.000,156473.300,147512.000,152487.100,-0.165,0.974,-0.204,-3.906,-0.214,-0.641,73.333,435.000,1.000,2.498,0.000
194312.600,182145.400,222059.300,209366.200,165581.200,156472.600,147510.000,152489.000,-0.167,0.972,-0.204,-4.028,-0.183,-0.458,73.333,436.000,1.000,2.459,0.000
194326.300,182154.500,222067.300,209375.300,165599.000,156479.800,147518.500,152499.100,-0.164,0.969,-0.200,-4.120,-0.214,-0.305,73.333,437.000,1.000,3.095,0.000
194300.100,182154.500,222054.800,209355.800,165599.000,156483.900,147531.000,152499.800,-0.160,0.967,-0.196,-3.967,-0.153,-0.275,73.333,438.000,1.000,0.007,0.000
194271.300,182146.900,222032.900,209331.700,165580.700,156477.200,147529.800,152484.900,-0.156,0.965,-0.194,-3.937,0.000,-0.061,73.333,439.000,1.000,18.212,0.000
194282.400,182145.600,222029.500,209338.000,165572.300,156472.900,147532.300,152482.200,-0.155,0.964,-0.194,-3.815,0.153,0.000,73.333,440.000,1.000,3.107,0.000
194312.100,182147.700,222037.700,209359.100,165576.900,156464.900,147520.500,152478.500,-0.156,0.964,-0.195,-3.784,0.366,0.183,73.333,441.000,1.000,0.008,0.000
194309.800,182142.900,222035.200,209347.400,165583.900,156462.300,147508.500,152469.100,-0.156,0.965,-0.194,-3.815,0.519,0.305,73.333,442.000,1.000,2.390,0.000
194282.700,182140.200,222017.800,209321.300,165574.700,156460.300,147501.000,152454.900,-0.156,0.964,-0.194,-3.845,0.732,0.305,73.333,443.000,1.000,0.010,0.000
194276.700,182155.500,222019.400,209316.600,165571.500,156470.900,147504.800,152454.100,-0.154,0.962,-0.192,-3.754,1.038,0.397,73.333,444.000,1.000,1.908,0.000
194295.000,182154.600,222026.200,209330.300,165569.400,156473.400,147504.400,152453.900,-0.155,0.960,-0.194,-3.662,1.190,0.305,73.333,445.000,1.000,9.360,0.000
194318.200,182161.000,222035.000,209348.400,165579.000,156476.200,147502.700,152459.400,-0.157,0.958,-0.194,-3.510,1.526,0.305,73.333,446.000,1.000,0.007,0.000
194330.800,182174.400,222050.200,209361.600,165601.300,156492.300,147516.100,152478.400,-0.159,0.959,-0.196,-3.204,1.678,0.275,73.333,447.000,1.000,4.462,0.000
194307.700,182170.500,222036.500,209343.000,165596.800,156493.900,147516.400,152475.800,-0.160,0.961,-0.195,-2.930,1.740,0.031,73.333,448.000,1.000,2.442,0.000
194271.000,182146.900,222002.100,209307.400,165560.500,156468.600,147492.900,152454.900,-0.162,0.961,-0.196,-2.808,1.801,-0.061,73.333,449.000,1.000,8.722,0.000
194271.000,182133.200,221989.000,209300.200,165539.600,156445.800,147470.700,152446.500,-0.161,0.962,-0.193,-2.563,1.862,-0.214,73.333,450.000,1.000,3.192,0.000
194307.800,182147.000,222003.400,209323.600,165556.600,156453.600,147476.700,152462.000,-0.163,0.962,-0.194,-2.411,2.014,-0.305,73.333,451.000,1.000,0.010,0.000
194322.700,182158.300,222018.400,209341.500,165582.200,156477.800,147498.500,152483.300,-0.165,0.966,-0.194,-2.411,1.953,-0.488,73.333,452.000,1.000,1.791,0.000
194287.500,182144.900,221999.700,209313.000,165577.400,156475.500,147495.800,152482.200,-0.163,0.968,-0.197,-2.380,2.014,-0.580,73.333,453.000,1.000,10.014,0.000
194268.800,182143.300,221986.600,209299.000,165564.400,156465.300,147493.800,152475.400,-0.166,0.969,-0.197,-2.411,2.014,-0.549,73.333,454.000,1.000,3.057,0.000
194296.500,182158.500,221996.300,209311.700,165571.500,156469.900,147501.000,152489.200,-0.167,0.969,-0.201,-2.350,2.014,-0.641,73.333,455.000,1.000,0.011,0.000
194325.500,182161.900,222006.700,209329.600,165582.400,156468.800,147498.600,152492.500,-0.168,0.969,-0.201,-2.350,1.953,-0.702,73.333,456.000,1.000,8.226,0.000
194336.400,182170.500,222017.800,209341.600,165607.400,156486.500,147515.800,152507.600,-0.170,0.970,-0.201,-2.350,1.801,-0.641,73.333,457.000,1.000,9.359,0.000
194315.900,182173.300,222010.200,209324.600,165614.400,156496.400,147527.200,152508.600,-0.172,0.969,-0.201,-2.533,1.709,-0.580,73.333,458.000,1.000,0.011,0.000
194289.200,182163.700,221989.300,209296.700,165595.300,156486.300,147521.300,152493.000,-0.174,0.966,-0.199,-2.625,1.587,-0.458,73.333,459.000,1.000,5.616,0.000
194289.200,182151.200,221976.900,209289.000,165578.100,156473.400,147507.300,152477.300,-0.173,0.965,-0.198,-2.625,1.282,-0.366,73.333,460.000,1.000,2.513,0.000
194326.700,182164.500,221996.500,209316.900,165598.200,156487.700,147519.100,152492.100,-0.175,0.963,-0.202,-2.686,1.007,-0.336,73.333,461.000,1.000,2.456,0.000
194338.700,182176.500,222005.000,209322.800,165616.600,156500.300,147528.900,152501.100,-0.174,0.965,-0.200,-2.686,0.854,-0.305,73.333,462.000,1.000,3.172,0.000
194322.200,182193.500,222006.300,209309.600,165631.000,156516.700,147550.300,152509.300,-0.173,0.968,-0.203,-2.716,0.610,-0.305,73.333,463.000,1.000,0.015,0.000
194304.700,182187.800,221997.500,209297.600,165623.700,156514.000,147552.900,152505.000,-0.173,0.969,-0.204,-2.960,0.336,-0.244,73.333,464.000,1.000,1.838,0.000
194310.100,182182.000,221989.400,209296.700,165608.500,156496.800,147530.700,152489.100,-0.173,0.970,-0.208,-3.021,0.000,-0.214,73.333,465.000,1.000,13.108,0.000
194338.100,182183.200,221995.800,209315.300,165616.700,156493.700,147526.300,152486.600,-0.174,0.968,-0.207,-3.204,-0.305,-0.092,73.333,466.000,1.000,0.017,0.000
194340.000,182183.200,221992.700,209310.300,165624.100,156500.000,147530.500,152482.800,-0.172,0.965,-0.207,-3.387,-0.610,-0.153,73.333,467.000,1.000,1.870,0.000
194306.700,182166.200,221969.100,209282.000,165610.600,156498.100,147536.100,152479.000,-0.168,0.964,-0.204,-3.571,-0.824,-0.031,73.333,468.000,1.000,3.779,0.000
194277.700,182151.600,221942.600,209253.400,165585.000,156488.300,147524.900,152456.800,-0.170,0.964,-0.206,-3.662,-0.946,-0.061,73.333,469.000,1.000,3.638,0.000
194291.500,182154.000,221941.000,209256.800,165571.800,156477.300,147499.500,152449.500,-0.170,0.965,-0.204,-3.754,-1.282,-0.092,73.333,470.000,1.000,9.429,0.000
194317.400,182150.500,221943.500,209273.600,165571.300,156465.300,147475.400,152455.700,-0.168,0.965,-0.202,-3.937,-1.312,-0.183,73.333,471.000,1.000,0.008,0.000
194323.700,182143.800,221942.400,209280.600,165580.400,156472.600,147482.500,152472.100,-0.166,0.963,-0.199,-4.059,-1.373,-0.366,73.333,472.000,1.000,1.868,0.000
194287.500,182133.500,221919.600,209247.500,165567.100,156464.500,147475.600,152465.700,-0.162,0.961,-0.197,-4.059,-1.282,-0.519,73.333,473.000,1.000,11.257,0.000
194259.700,182123.600,221896.300,209221.800,165543.200,156451.600,147459.000,152450.900,-0.159,0.962,-0.196,-4.059,-1.190,-0.580,73.333,474.000,1.000,3.050,0.000
194265.800,182112.900,221886.100,209220.200,165529.100,156442.400,147446.800,152445.400,-0.155,0.961,-0.198,-3.998,-1.038,-0.580,73.333,475.000,1.000,0.015,0.000
194306.900,182128.500,221908.800,209253.000,165553.400,156463.400,147462.600,152468.100,-0.152,0.962,-0.198,-3.967,-0.946,-0.519,73.333,476.000,1.000,1.878,0.000
194319.300,182141.100,221925.300,209265.700,165583.900,156483.000,147489.300,152492.400,-0.151,0.962,-0.200,-4.028,-0.641,-0.488,73.333,477.000,1.000,11.317,0.000
194290.900,182134.300,221912.500,209243.200,165581.500,156481.200,147495.300,152491.100,-0.150,0.961,-0.199,-3.906,-0.336,-0.397,73.333,478.000,1.000,3.069,0.000
194274.000,182133.600,221897.800,209227.200,165566.600,156471.200,147492.300,152482.700,-0.148,0.960,-0.198,-3.723,0.061,-0.427,73.333,479.000,1.000,0.011,0.000
194283.000,182133.400,221897.000,209235.000,165562.600,156460.700,147486.200,152479.900,-0.150,0.961,-0.197,-3.571,0.336,-0.397,73.333,480.000,1.000,1.941,0.000
194309.000,182139.300,221909.300,209256.200,165581.100,156466.000,147493.700,152487.500,-0.148,0.958,-0.196,-3.418,0.641,-0.397,73.333,481.000,1.000,2.435,0.000
194314.100,182144.600,221914.000,209260.200,165599.400,156473.100,147504.400,152492.500,-0.145,0.958,-0.200,-3.113,1.007,-0.275,73.333,482.000,1.000,8.748,0.000
194299.200,182150.500,221911.300,209247.300,165605.300,156480.400,147519.100,152493.300,-0.144,0.957,-0.198,-3.052,1.434,-0.244,73.333,483.000,1.000,2.561,0.000
194285.800,182158.500,221905.500,209233.400,165593.900,156479.100,147518.200,152486.600,-0.144,0.958,-0.201,-2.777,1.801,-0.275,73.333,484.000,1.000,3.721,0.000
194297.800,182160.100,221905.300,209233.000,165586.600,156475.800,147506.700,152478.500,-0.144,0.959,-0.199,-2.472,2.258,-0.214,73.333,485.000,1.000,9.344,0.000
194329.200,182159.000,221918.200,209257.200,165603.900,156483.900,147513.800,152489.800,-0.147,0.960,-0.197,-2.319,2.563,-0.153,73.333,486.000,1.000,0.014,0.000
194335.400,182165.500,221924.300,209261.000,165618.300,156491.300,147525.800,152495.000,-0.150,0.962,-0.197,-2.106,3.021,-0.183,73.333,487.000,1.000,5.651,0.000
194311.400,182168.500,221916.900,209243.200,165617.400,156496.100,147534.200,152488.900,-0.154,0.963,-0.196,-2.014,3.326,-0.244,73.333,488.000,1.000,2.563,0.000
194289.200,182162.100,221900.400,209226.500,165599.000,156485.900,147526.700,152477.600,-0.157,0.966,-0.198,-1.923,3.387,-0.183,73.333,489.000,1.000,3.660,0.000
194304.100,182163.900,221897.800,209230.100,165586.700,156478.000,147518.100,152474.700,-0.160,0.965,-0.198,-1.923,3.601,-0.275,73.333,490.000,1.000,7.542,0.000
194328.000,182161.600,221900.800,209241.000,165585.400,156474.800,147505.700,152469.100,-0.163,0.965,-0.200,-1.953,3.662,-0.305,73.333,491.000,1.000,4.293,0.000
194332.300,182160.500,221902.600,209240.200,165591.900,156480.200,147503.000,152468.900,-0.169,0.964,-0.197,-1.923,3.632,-0.183,73.333,492.000,1.000,0.007,0.000
194305.400,182157.800,221886.000,209217.600,165579.500,156471.400,147495.400,152458.000,-0.173,0.964,-0.202,-1.892,3.601,-0.397,73.333,493.000,1.000,1.842,0.000
194286.100,182148.900,221869.800,209203.100,165557.900,156456.900,147486.000,152456.100,-0.175,0.965,-0.201,-1.862,3.418,-0.488,73.333,494.000,1.000,14.369,0.000
194306.300,182146.100,221874.300,209213.800,165555.000,156457.400,147479.600,152464.000,-0.176,0.966,-0.202,-1.770,3.296,-0.580,73.333,495.000,1.000,0.010,0.000
194326.400,182149.600,221878.900,209224.900,165563.900,156461.900,147472.300,152462.700,-0.176,0.965,-0.203,-1.770,3.052,-0.610,73.333,496.000,1.000,2.535,0.000
194326.200,182147.400,221878.300,209224.700,165580.100,156475.500,147483.000,152471.000,-0.177,0.964,-0.200,-1.709,2.930,-0.671,73.333,497.000,1.000,0.011,0.000
194307.500,182148.800,221874.300,209216.900,165593.800,156492.100,147502.400,152487.500,-0.174,0.965,-0.198,-1.770,2.747,-0.671,73.333,498.000,1.000,1.900,0.000
194278.400,182140.200,221854.800,209193.900,165575.400,156484.900,147495.500,152477.400,-0.173,0.967,-0.198,-1.801,2.625,-0.641,73.333,499.000,1.000,6.260,0.000
194280.200,182129.300,221844.400,209191.900,165560.400,156467.400,147482.500,152468.900,-0.171,0.968,-0.199,-1.831,2.380,-0.488,73.333,500.000,1.000,6.239,0.000
194314.300,182144.100,221863.800,209219.500,165585.200,156487.300,147508.900,152489.600,-0.168,0.969,-0.200,-1.862,2.167,-0.458,73.333,501.000,1.000,6.857,0.000
194316.000,182149.800,221867.900,209220.300,165602.400,156496.100,147518.200,152503.500,-0.168,0.971,-0.198,-1.984,2.075,-0.366,73.333,502.000,1.000,0.011,0.000
194270.000,182127.900,221836.100,209179.200,165576.200,156460.400,147476.300,152475.000,-0.167,0.971,-0.200,-2.167,2.045,-0.244,73.333,503.000,1.000,28.761,0.000
194265.400,182141.600,221838.800,209173.300,165576.000,156467.800,147485.700,152473.200,-0.167,0.970,-0.199,-2.258,1.801,-0.214,73.333,504.000,1.000,0.021,0.000
194296.000,182159.000,221855.400,209195.900,165585.700,156478.500,147501.300,152483.700,-0.166,0.968,-0.196,-2.411,1.801,0.000,73.333,505.000,1.000,14.897,0.000
194328.000,182167.700,221870.200,209218.200,165602.600,156486.700,147512.500,152493.100,-0.166,0.966,-0.197,-2.380,1.617,0.183,73.333,506.000,1.000,0.022,0.000
194334.200,182171.000,221878.300,209219.500,165626.700,156506.500,147533.000,152502.600,-0.166,0.968,-0.200,-2.380,1.556,0.366,73.333,507.000,1.000,0.011,0.000
194306.900,182164.500,221861.000,209196.100,165619.400,156503.100,147532.800,152493.400,-0.165,0.968,-0.201,-2.441,1.495,0.366,73.333,508.000,1.000,0.009,0.000
194285.800,182157.400,221840.300,209173.400,165594.600,156486.800,147521.100,152479.200,-0.166,0.968,-0.204,-2.441,1.495,0.458,73.333,509.000,1.000,2.412,0.000
194307.900,182165.800,221846.400,209190.000,165589.200,156482.700,147516.500,152480.500,-0.165,0.969,-0.204,-2.380,1.282,0.610,73.333,510.000,1.000,0.007,0.000
194334.100,182164.800,221852.500,209201.700,165594.200,156479.900,147509.900,152481.700,-0.164,0.968,-0.204,-2.472,1.221,0.427,73.333,511.000,1.000,2.535,0.000
194346.200,182174.100,221862.800,209207.500,165612.100,156492.800,147523.200,152490.800,-0.161,0.965,-0.202,-2.502,1.129,0.549,73.333,512.000,1.000,0.008,0.000
194320.800,182173.800,221852.600,209192.000,165611.500,156494.300,147530.800,152490.600,-0.162,0.963,-0.201,-2.472,1.160,0.458,73.333,513.000,1.000,4.439,0.000
194294.000,182164.400,221834.700,209170.600,165589.600,156482.300,147519.700,152474.100,-0.163,0.960,-0.201,-2.441,1.099,0.397,73.333,514.000,1.000,2.427,0.000
194316.500,182173.000,221844.000,209185.800,165586.900,156483.000,147515.800,152473.200,-0.162,0.959,-0.202,-2.441,1.038,0.397,73.333,515.000,1.000,2.573,0.000
194342.000,182175.700,221848.900,209202.600,165592.500,156480.400,147510.400,152479.000,-0.160,0.960,-0.203,-2.411,0.824,0.244,73.333,516.000,1.000,2.541,0.000
194354.200,182187.100,221861.300,209215.900,165616.900,156501.000,147523.800,152498.700,-0.159,0.961,-0.202,-2.228,0.916,0.031,73.333,517.000,1.000,2.461,0.000
194330.000,182176.500,221853.500,209201.400,165617.800,156505.200,147531.600,152498.600,-0.158,0.962,-0.204,-2.289,0.793,-0.153,73.333,518.000,1.000,2.500,0.000
194296.500,182166.800,221830.700,209174.900,165593.700,156489.600,147511.600,152481.000,-0.156,0.961,-0.204,-2.319,0.793,-0.183,73.333,519.000,1.000,5.549,0.000
194295.100,182152.000,221813.900,209164.800,165571.900,156464.300,147482.000,152463.400,-0.156,0.961,-0.205,-2.319,0.824,-0.244,73.333,520.000,1.000,0.007,0.000
194312.500,182144.000,221810.900,209172.200,165573.300,156460.300,147478.000,152468.700,-0.157,0.964,-0.206,-2.319,0.885,-0.244,73.333,521.000,1.000,1.922,0.000
194313.100,182144.900,221809.400,209169.300,165589.700,156475.500,147491.000,152480.700,-0.157,0.965,-0.206,-2.350,0.854,-0.427,73.333,522.000,1.000,13.715,0.000
194284.000,182142.000,221795.200,209149.000,165587.200,156479.900,147499.500,152483.000,-0.157,0.965,-0.207,-2.350,1.007,-0.549,73.333,523.000,1.000,3.041,0.000
194265.400,182139.800,221782.600,209136.800,165574.000,156474.600,147498.500,152479.900,-0.158,0.968,-0.204,-2.472,0.885,-0.671,73.333,524.000,1.000,0.007,0.000
194292.800,182153.000,221796.700,209162.200,165583.200,156482.700,147507.000,152493.700,-0.157,0.969,-0.204,-2.563,0.854,-0.671,73.333,525.000,1.000,1.917,0.000
194314.700,182151.300,221797.000,209169.300,165583.900,156476.400,147497.300,152483.300,-0.157,0.968,-0.205,-2.686,0.977,-0.763,73.333,526.000,1.000,2.564,0.000
194327.700,182160.200,221810.300,209181.600,165607.200,156501.000,147530.500,152504.100,-0.156,0.969,-0.206,-2.808,1.068,-0.793,73.333,527.000,1.000,13.196,0.000
194304.900,182169.700,221806.500,209161.700,165616.100,156522.900,147553.100,152510.300,-0.159,0.972,-0.206,-3.082,1.007,-0.824,73.333,528.000,1.000,0.017,0.000
194275.800,182155.500,221783.000,209129.500,165591.500,156496.700,147527.600,152488.200,-0.160,0.975,-0.204,-3.204,1.129,-0.977,73.333,529.000,1.000,1.816,0.000
194267.800,182129.600,221758.200,209115.200,165557.800,156460.100,147491.600,152455.200,-0.160,0.973,-0.199,-3.510,1.160,-1.038,73.333,530.000,1.000,2.580,0.000
194311.000,182147.600,221782.000,209149.200,165583.400,156472.100,147501.600,152473.200,-0.159,0.969,-0.196,-3.754,1.190,-1.038,73.333,531.000,1.000,2.384,0.000
194320.800,182158.600,221794.700,209159.500,165601.900,156477.400,147503.400,152490.500,-0.162,0.965,-0.199,-3.876,1.343,-1.007,73.333,532.000,1.000,10.572,0.000
194301.400,182163.600,221790.000,209144.200,165601.700,156484.800,147513.200,152490.200,-0.159,0.961,-0.203,-3.876,1.404,-1.129,73.333,533.000,1.000,0.010,0.000
194273.100,182146.300,221763.600,209113.900,165569.300,156464.200,147492.500,152457.100,-0.161,0.959,-0.203,-3.845,1.434,-1.099,73.333,534.000,1.000,1.897,0.000
194291.200,182148.400,221767.800,209126.200,165563.200,156458.500,147482.400,152455.400,-0.162,0.956,-0.199,-3.784,1.526,-0.946,73.333,535.000,1.000,2.465,0.000
194326.700,182159.000,221788.200,209154.500,165583.000,156469.500,147493.900,152473.700,-0.162,0.954,-0.199,-3.510,1.526,-0.763,73.333,536.000,1.000,13.820,0.000
194341.400,182179.500,221803.300,209161.200,165603.500,156483.000,147510.300,152488.000,-0.163,0.952,-0.197,-3.296,1.617,-0.671,73.333,537.000,1.000,9.363,0.000
194318.500,182187.600,221794.800,209145.100,165603.500,156487.800,147514.200,152484.700,-0.162,0.952,-0.198,-3.052,1.678,-0.580,73.333,538.000,1.000,0.012,0.000
194296.500,182157.300,221777.700,209129.100,165587.900,156479.300,147507.000,152476.500,-0.162,0.953,-0.198,-2.686,1.709,-0.549,73.333,539.000,1.000,4.379,0.000
194304.700,182157.300,221774.000,209127.300,165576.000,156472.900,147494.700,152468.000,-0.162,0.954,-0.197,-2.411,1.617,-0.427,73.333,540.000,1.000,2.474,0.000
194345.800,182175.000,221794.900,209161.600,165598.800,156484.000,147503.100,152484.000,-0.163,0.957,-0.197,-2.319,1.770,-0.305,73.333,541.000,1.000,2.649,0.000
194332.000,182160.700,221781.800,209149.600,165597.700,156474.900,147496.800,152478.000,-0.167,0.960,-0.197,-2.106,1.831,-0.244,73.333,542.000,1.000,2.320,0.000
194297.200,182149.400,221763.000,209121.900,165590.100,156472.100,147493.200,152472.300,-0.169,0.961,-0.197,-1.862,1.892,-0.092,73.333,543.000,1.000,2.543,0.000
194283.400,182152.200,221755.000,209108.500,165579.800,156472.600,147491.800,152475.700,-0.167,0.962,-0.192,-1.678,1.709,-0.153,73.333,544.000,1.000,4.989,0.000
194285.800,182143.100,221740.800,209101.800,165560.800,156456.300,147471.400,152464.500,-0.167,0.964,-0.196,-1.709,1.770,-0.061,73.333,545.000,1.000,4.948,0.000
194311.400,182146.500,221747.500,209119.900,165571.700,156459.800,147471.800,152473.100,-0.167,0.962,-0.195,-1.556,1.709,-0.031,73.333,546.000,1.000,3.104,0.000
194315.500,182155.600,221756.100,209127.200,165596.100,156484.900,147495.100,152493.900,-0.166,0.965,-0.198,-1.556,1.556,-0.122,73.333,547.000,1.000,0.012,0.000
194294.400,182160.200,221749.100,209117.000,165603.700,156500.900,147512.800,152504.900,-0.164,0.962,-0.198,-1.556,1.465,0.031,73.333,548.000,1.000,1.948,0.000
194284.000,182164.000,221737.700,209102.600,165595.000,156501.800,147511.200,152504.900,-0.162,0.964,-0.199,-1.495,1.587,0.000,73.333,549.000,1.000,8.658,0.000
194288.300,182150.500,221725.900,209100.800,165579.500,156488.200,147495.200,152485.500,-0.165,0.965,-0.202,-1.526,1.678,-0.092,73.333,550.000,1.000,3.157,0.000
194320.200,182157.400,221740.200,209122.400,165596.100,156496.900,147501.700,152493.900,-0.161,0.965,-0.200,-1.587,1.648,-0.061,73.333,551.000,1.000,0.016,0.000
194330.800,182170.800,221752.700,209126.300,165616.400,156514.400,147523.100,152510.700,-0.159,0.966,-0.198,-1.678,1.678,-0.122,73.333,552.000,1.000,1.806,0.000
194300.700,182163.900,221741.200,209103.300,165611.100,156511.800,147523.000,152503.600,-0.160,0.967,-0.201,-1.678,1.648,0.031,73.333,553.000,1.000,26.319,0.000
194268.200,182142.800,221711.700,209069.800,165576.700,156485.100,147502.600,152469.400,-0.158,0.969,-0.201,-1.892,1.770,0.031,73.333,554.000,1.000,3.068,0.000
194281.000,182139.900,221709.400,209072.400,165565.300,156474.400,147498.200,152464.000,-0.157,0.969,-0.203,-1.984,1.892,0.000,73.333,555.000,1.000,0.013,0.000
194323.500,182153.600,221730.100,209104.100,165586.900,156481.300,147506.100,152477.400,-0.156,0.969,-0.202,-2.106,2.106,0.122,73.333,556.000,1.000,1.859,0.000
194339.600,182168.500,221743.700,209116.800,165614.000,156503.400,147530.100,152492.000,-0.156,0.969,-0.203,-2.197,2.136,0.092,73.333,557.000,1.000,8.876,0.000
194310.200,182165.300,221725.600,209091.300,165605.500,156496.500,147520.200,152478.100,-0.157,0.972,-0.199,-2.350,2.289,-0.061,73.333,558.000,1.000,2.384,0.000
194285.500,182150.500,221702.600,209071.000,165577.300,156472.900,147499.700,152455.800,-0.158,0.975,-0.198,-2.533,2.350,-0.153,73.333,559.000,1.000,2.583,0.000
194306.900,182159.500,221712.200,209086.200,165577.600,156466.000,147493.500,152459.500,-0.159,0.973,-0.198,-2.686,2.502,-0.244,73.333,560.000,1.000,2.473,0.000
194330.500,182150.700,221725.500,209107.400,165595.100,156464.700,147487.600,152471.600,-0.159,0.973,-0.196,-2.808,2.747,-0.305,73.333,561.000,1.000,2.490,0.000
194326.900,182154.500,221726.700,209102.900,165606.100,156470.000,147491.000,152477.000,-0.160,0.970,-0.195,-2.991,2.899,-0.397,73.333,562.000,1.000,2.513,0.000
194290.200,182145.100,221707.700,209076.900,165592.900,156462.100,147486.500,152467.600,-0.160,0.968,-0.198,-2.991,2.960,-0.458,73.333,563.000,1.000,6.279,0.000
194261.200,182132.400,221682.700,209052.500,165563.500,156447.600,147468.300,152448.000,-0.161,0.967,-0.196,-3.052,3.082,-0.549,73.333,564.000,1.000,2.385,0.000
194292.400,182149.200,221699.500,209078.000,165572.700,156459.100,147476.400,152460.500,-0.162,0.968,-0.199,-2.960,3.113,-0.580,73.333,565.000,1.000,2.554,0.000
194341.500,182172.400,221728.000,209116.000,165605.800,156488.600,147498.100,152489.300,-0.163,0.969,-0.200,-2.930,3.021,-0.580,73.333,566.000,1.000,2.494,0.000
194339.800,182173.300,221724.200,209110.100,165616.300,156499.300,147506.600,152493.500,-0.164,0.967,-0.200,-2.838,3.113,-0.549,73.333,567.000,1.000,2.575,0.000
194300.100,182159.200,221698.000,209077.600,165600.200,156491.600,147497.900,152481.500,-0.166,0.967,-0.199,-2.899,3.113,-0.549,73.333,568.000,1.000,4.955,0.000
194280.800,182156.200,221687.400,209063.800,165582.900,156487.200,147492.500,152477.800,-0.166,0.966,-0.197,-2.899,3.021,-0.580,73.333,569.000,1.000,3.149,0.000
194294.500,182160.100,221691.900,209073.800,165580.200,156484.000,147488.300,152482.100,-0.169,0.966,-0.199,-2.899,2.869,-0.549,73.333,570.000,1.000,0.007,0.000
194320.700,182162.300,221704.200,209092.800,165600.000,156494.000,147497.100,152498.600,-0.170,0.967,-0.199,-2.869,2.838,-0.519,73.333,571.000,1.000,1.843,0.000
194329.800,182168.300,221713.500,209101.800,165621.300,156513.100,147518.700,152518.500,-0.169,0.966,-0.200,-2.747,2.594,-0.488,73.333,572.000,1.000,8.666,0.000
194293.200,182153.000,221691.800,209073.800,165606.000,156501.800,147515.200,152509.900,-0.169,0.964,-0.199,-2.625,2.441,-0.366,73.333,573.000,1.000,3.083,0.000
194261.300,182136.200,221668.400,209043.900,165579.100,156481.600,147498.400,152489.200,-0.167,0.963,-0.196,-2.533,2.197,-0.275,73.333,574.000,1.000,0.010,0.000
194268.800,182132.300,221665.900,209045.000,165569.300,156472.000,147485.400,152480.500,-0.168,0.962,-0.198,-2.502,2.045,-0.244,73.333,575.000,1.000,8.149,0.000
194301.800,182143.800,221683.600,209070.500,165591.600,156483.100,147497.300,152495.800,-0.168,0.958,-0.200,-2.472,1.740,-0.122,73.333,576.000,1.000,3.221,0.000
194313.200,182159.600,221697.000,209079.800,165618.200,156501.000,147515.300,152506.900,-0.167,0.956,-0.206,-2.228,1.740,-0.031,73.333,577.000,1.000,0.008,0.000
194286.800,182156.000,221683.400,209056.200,165612.900,156498.500,147515.800,152497.800,-0.167,0.955,-0.204,-2.136,1.556,0.000,73.333,578.000,1.000,1.881,0.000
194271.200,182153.800,221671.600,209039.700,165594.300,156487.100,147506.000,152484.800,-0.167,0.957,-0.203,-2.014,1.587,0.061,73.333,579.000,1.000,14.290,0.000
194286.700,182153.200,221671.300,209045.600,165584.300,156475.500,147499.500,152481.700,-0.166,0.961,-0.205,-1.892,1.373,0.000,73.333,580.000,1.000,0.017,0.000
194314.300,182153.400,221679.300,209059.400,165593.700,156471.400,147494.600,152477.700,-0.166,0.964,-0.207,-1.831,1.282,0.092,73.333,581.000,1.000,1.895,0.000
194327.500,182165.700,221693.200,209064.800,165616.500,156487.600,147511.000,152489.300,-0.166,0.966,-0.205,-1.831,1.099,0.092,73.333,582.000,1.000,2.515,0.000
194311.200,182170.500,221691.200,209057.400,165622.200,156493.600,147521.300,152491.500,-0.162,0.967,-0.201,-1.892,0.977,0.000,73.333,583.000,1.000,6.234,0.000
194294.400,182160.100,221674.900,209039.500,165602.300,156473.300,147510.000,152472.500,-0.161,0.970,-0.200,-2.045,0.854,0.061,73.333,584.000,1.000,4.303,0.000
194311.600,182159.400,221678.000,209047.700,165595.100,156458.700,147500.300,152466.400,-0.161,0.974,-0.202,-2.350,0.916,-0.031,73.333,585.000,1.000,0.010,0.000
194350.700,182175.100,221701.800,209081.400,165619.800,156470.000,147512.000,152485.200,-0.159,0.973,-0.204,-2.594,0.824,0.061,73.333,586.000,1.000,3.194,0.000
194364.000,182192.800,221714.100,209095.100,165647.000,156490.900,147530.300,152503.200,-0.160,0.972,-0.207,-2.808,0.793,-0.122,73.333,587.000,1.000,11.194,0.000
194325.100,182181.800,221688.900,209061.400,165630.600,156487.100,147523.600,152489.400,-0.159,0.970,-0.206,-2.899,0.549,-0.153,73.333,588.000,1.000,9.973,0.000
194318.700,182190.200,221682.600,209052.100,165618.900,156494.900,147524.400,152485.500,-0.156,0.968,-0.205,-3.021,0.549,-0.244,73.333,589.000,1.000,0.013,0.000
194337.000,182188.300,221680.800,209063.400,165608.200,156487.800,147507.700,152479.700,-0.156,0.968,-0.205,-3.204,0.458,-0.275,73.333,590.000,1.000,0.005,0.000
194336.000,182171.300,221664.900,209051.200,165594.500,156468.300,147480.200,152470.500,-0.156,0.965,-0.202,-3.204,0.488,-0.366,73.333,591.000,1.000,6.341,0.000
194320.400,182161.600,221653.800,209034.800,165596.300,156473.400,147484.000,152477.700,-0.155,0.962,-0.203,-3.510,0.519,-0.458,73.333,592.000,1.000,2.437,0.000
194296.800,182150.300,221646.700,209022.900,165598.700,156484.300,147499.300,152484.400,-0.154,0.958,-0.199,-3.479,0.732,-0.549,73.333,593.000,1.000,4.374,0.000
194288.500,182154.000,221641.100,209016.200,165589.200,156481.400,147496.000,152480.700,-0.155,0.952,-0.203,-3.387,0.793,-0.732,73.333,594.000,1.000,0.011,0.000
194299.000,182145.200,221634.900,209022.300,165577.100,156463.100,147476.800,152480.400,-0.156,0.953,-0.207,-3.174,0.916,-0.854,73.333,595.000,1.000,13.219,0.000
194312.800,182137.300,221633.500,209026.500,165580.400,156455.200,147465.300,152476.200,-0.154,0.950,-0.208,-2.930,0.977,-0.946,73.333,596.000,1.000,10.470,0.000
194309.100,182138.700,221635.700,209027.100,165594.000,156460.800,147473.600,152484.400,-0.156,0.948,-0.209,-2.655,1.160,-1.007,73.333,597.000,1.000,0.019,0.000
194283.700,182138.000,221627.600,209016.000,165592.800,156463.700,147482.300,152487.300,-0.160,0.947,-0.207,-2.411,1.221,-1.068,73.333,598.000,1.000,0.007,0.000
194271.600,182141.300,221621.000,209007.300,165582.500,156463.700,147484.300,152481.200,-0.163,0.948,-0.204,-2.258,1.251,-0.977,73.333,599.000,1.000,0.007,0.000
194293.600,182148.700,221629.300,209013.400,165580.900,156464.900,147482.900,152479.900,-0.168,0.954,-0.204,-2.075,1.343,-0.824,73.333,600.000,1.000,2.584,0.000
194323.200,182153.200,221639.100,209035.000,165594.300,156470.500,147486.800,152485.900,-0.172,0.959,-0.207,-2.045,1.282,-0.763,73.333,601.000,1.000,0.024,0.000
194318.800,182158.400,221638.900,209032.600,165605.700,156481.600,147496.800,152487.900,-0.173,0.967,-0.208,-1.892,1.129,-0.763,73.333,602.000,1.000,15.546,0.000
194281.500,182148.800,221620.600,209005.100,165598.400,156479.600,147500.200,152477.200,-0.171,0.973,-0.207,-1.984,1.221,-0.610,73.333,603.000,1.000,3.015,0.000
194266.100,182144.900,221612.100,208992.000,165587.000,156470.700,147497.500,152464.700,-0.169,0.978,-0.206,-2.106,1.129,-0.519,73.333,604.000,1.000,0.007,0.000
194288.300,182151.900,221619.300,209000.700,165585.600,156466.600,147494.400,152462.500,-0.167,0.977,-0.204,-2.228,1.038,-0.458,73.333,605.000,1.000,2.517,0.000
194324.000,182164.500,221637.500,209025.400,165607.100,156478.000,147504.900,152475.800,-0.162,0.981,-0.207,-2.441,0.946,-0.214,73.333,606.000,1.000,0.012,0.000
194335.700,182174.900,221648.600,209035.300,165629.400,156492.900,147522.400,152487.800,-0.161,0.980,-0.207,-2.716,1.038,0.061,73.333,607.000,1.000,5.705,0.000
194305.000,182167.400,221633.500,209013.200,165620.700,156487.200,147522.200,152478.800,-0.159,0.980,-0.206,-2.930,1.190,0.336,73.333,608.000,1.000,3.756,0.000
194285.300,182168.300,221620.900,208997.600,165604.300,156474.400,147518.300,152473.200,-0.155,0.978,-0.204,-3.235,1.282,0.641,73.333,609.000,1.000,3.646,0.000
194295.000,182161.600,221616.900,209001.700,165592.600,156458.600,147499.900,152461.800,-0.156,0.976,-0.206,-3.510,1.312,0.793,73.333,610.000,1.000,14.437,0.000
194328.100,182172.900,221634.800,209029.800,165615.200,156466.100,147503.300,152473.900,-0.155,0.977,-0.204,-3.693,1.495,1.007,73.333,611.000,1.000,0.016,0.000
194323.100,182172.800,221636.900,209028.800,165630.900,156478.600,147513.800,152485.600,-0.159,0.974,-0.202,-3.906,1.587,1.099,73.333,612.000,1.000,2.458,0.000
194304.000,182181.400,221633.300,209014.800,165634.700,156490.700,147526.000,152495.900,-0.158,0.975,-0.202,-4.120,1.617,0.946,73.333,613.000,1.000,0.013,0.000
194290.100,182175.900,221619.700,209003.200,165614.200,156480.100,147511.400,152486.300,-0.161,0.973,-0.205,-4.242,1.648,0.946,73.333,614.000,1.000,1.883,0.000
194301.600,182167.000,221612.600,209007.700,165599.900,156469.100,147498.400,152480.700,-0.163,0.971,-0.205,-4.486,1.495,0.793,73.333,615.000,1.000,16.268,0.000
194322.700,182166.100,221618.100,209023.000,165607.400,156478.800,147509.200,152491.000,-0.160,0.969,-0.203,-4.639,1.343,0.641,73.333,616.000,1.000,3.046,0.000
194316.100,182168.600,221614.000,209016.200,165612.400,156490.200,147513.700,152492.000,-0.161,0.965,-0.198,-4.669,1.251,0.458,73.333,617.000,1.000,0.017,0.000
194284.400,182150.800,221594.000,208989.900,165598.400,156479.800,147498.500,152481.000,-0.164,0.964,-0.196,-4.852,1.190,0.183,73.333,618.000,1.000,1.854,0.000
194257.600,182134.600,221569.800,208961.500,165566.400,156452.100,147467.300,152460.800,-0.162,0.960,-0.195,-4.883,1.190,-0.244,73.333,619.000,1.000,2.590,0.000
194283.300,182147.400,221583.000,208982.900,165570.300,156455.300,147464.500,152469.800,-0.160,0.957,-0.190,-4.852,1.190,-0.641,73.333,620.000,1.000,2.492,0.000
194310.300,182153.200,221593.800,209003.200,165587.000,156465.900,147472.900,152484.200,-0.158,0.955,-0.193,-4.547,1.190,-1.007,73.333,621.000,1.000,2.513,0.000
194295.300,182143.400,221580.900,208986.800,165589.600,156464.300,147472.400,152479.400,-0.157,0.953,-0.193,-4.364,1.312,-1.251,73.333,622.000,1.000,8.754,0.000
194259.400,182130.200,221558.800,208956.500,165576.500,156451.300,147465.700,152461.300,-0.156,0.952,-0.198,-4.120,1.312,-1.434,73.333,623.000,1.000,6.889,0.000
194250.600,182135.000,221552.200,208947.500,165565.300,156447.500,147467.200,152453.800,-0.155,0.950,-0.198,-3.632,1.343,-1.465,73.333,624.000,1.000,0.023,0.000
194271.300,182137.800,221556.200,208959.600,165560.800,156444.900,147467.300,152447.700,-0.154,0.950,-0.195,-3.265,1.434,-1.587,73.333,625.000,1.000,1.726,0.000
194301.000,182139.300,221568.900,208977.900,165574.900,156456.900,147479.000,152456.200,-0.156,0.954,-0.196,-2.838,1.587,-1.587,73.333,626.000,1.000,2.457,0.000
194308.500,182148.000,221579.400,208982.500,165594.600,156472.000,147498.900,152465.800,-0.157,0.954,-0.198,-2.533,1.648,-1.434,73.333,627.000,1.000,9.436,0.000
194286.400,182151.300,221571.400,208968.600,165594.200,156477.200,147506.900,152461.300,-0.159,0.957,-0.196,-2.197,1.709,-1.495,73.333,628.000,1.000,0.012,0.000
194277.100,182154.100,221566.100,208954.800,165586.000,156473.500,147507.200,152454.900,-0.162,0.960,-0.197,-1.892,1.801,-1.434,73.333,629.000,1.000,1.829,0.000
194300.400,182163.900,221576.600,208969.000,165590.000,156470.700,147506.500,152456.000,-0.162,0.958,-0.198,-1.740,1.862,-1.373,73.333,630.000,1.000,3.815,0.000
194329.600,182165.800,221589.200,208989.600,165608.000,156475.500,147511.000,152461.700,-0.164,0.959,-0.197,-1.465,1.953,-1.312,73.333,631.000,1.000,19.885,0.000
194327.900,182164.300,221588.900,208992.800,165621.800,156480.100,147517.000,152464.400,-0.163,0.960,-0.200,-1.251,1.862,-1.282,73.333,632.000,1.000,0.017,0.000
194298.700,182158.100,221571.300,208968.300,165612.800,156467.800,147511.900,152454.400,-0.164,0.962,-0.198,-1.160,1.892,-1.190,73.333,633.000,1.000,0.003,0.000
194282.100,182147.700,221558.500,208952.700,165592.700,156445.100,147494.600,152441.500,-0.162,0.963,-0.197,-1.038,1.923,-1.038,73.333,634.000,1.000,2.589,0.000
194304.900,182151.100,221567.100,208966.700,165592.100,156436.500,147486.700,152444.200,-0.164,0.965,-0.200,-0.885,1.953,-0.732,73.333,635.000,1.000,2.529,0.000
194341.200,182163.200,221587.400,208994.700,165612.900,156442.800,147490.300,152459.100,-0.164,0.965,-0.201,-0.885,1.984,-0.580,73.333,636.000,1.000,2.407,0.000
194335.300,182160.600,221587.000,208990.300,165621.300,156448.500,147490.100,152463.300,-0.162,0.969,-0.197,-1.068,1.953,-0.305,73.333,637.000,1.000,2.510,0.000
194296.500,182148.900,221566.700,208962.500,165606.400,156445.800,147478.900,152452.900,-0.164,0.969,-0.198,-1.129,1.984,-0.183,73.333,638.000,1.000,3.763,0.000
194279.000,182148.000,221556.400,208952.800,165591.700,156445.500,147473.100,152451.600,-0.165,0.970,-0.201,-1.221,2.014,-0.092,73.333,639.000,1.000,6.850,0.000
194290.000,182147.300,221551.000,208955.700,165581.200,156442.000,147458.500,152450.000,-0.165,0.971,-0.203,-1.373,1.923,-0.061,73.333,640.000,1.000,0.011,0.000
194321.100,182156.800,221563.700,208980.800,165601.700,156461.100,147468.200,152469.900,-0.166,0.975,-0.204,-1.526,1.892,0.092,73.333,641.000,1.000,5.626,0.000
194318.800,182152.600,221564.500,208983.300,165619.200,156480.000,147487.300,152488.300,-0.167,0.978,-0.203,-1.892,1.862,0.244,73.333,642.000,1.000,14.318,0.000
194286.400,182153.900,221547.000,208955.700,165610.600,156489.800,147491.700,152485.000,-0.166,0.977,-0.203,-2.197,1.801,0.244,73.333,643.000,1.000,0.011,0.000
194270.000,182149.200,221535.100,208942.800,165593.900,156488.700,147486.300,152476.300,-0.165,0.980,-0.205,-2.563,1.678,0.366,73.333,644.000,1.000,1.935,0.000
194282.500,182141.100,221530.900,208943.800,165582.500,156475.700,147473.300,152470.700,-0.164,0.979,-0.205,-2.899,1.648,0.336,73.333,645.000,1.000,4.324,0.000
194317.900,182156.400,221551.400,208964.700,165605.700,156491.500,147487.500,152490.600,-0.163,0.975,-0.203,-3.326,1.556,0.366,73.333,646.000,1.000,0.008,0.000
194310.300,182154.400,221550.300,208958.700,165615.400,156498.800,147495.400,152492.900,-0.162,0.976,-0.207,-3.601,1.404,0.275,73.333,647.000,1.000,3.675,0.000
194269.200,182138.200,221520.400,208920.300,165594.100,156483.900,147481.600,152465.300,-0.161,0.976,-0.208,-3.876,1.312,0.061,73.333,648.000,1.000,0.008,0.000
194251.700,182134.800,221507.500,208902.300,165579.400,156478.100,147477.400,152450.000,-0.163,0.976,-0.203,-4.150,1.282,-0.061,73.333,649.000,1.000,15.744,0.000
194283.700,182153.100,221525.400,208928.700,165591.800,156496.100,147499.400,152462.500,-0.163,0.979,-0.202,-4.425,1.190,-0.183,73.333,650.000,1.000,5.541,0.000
194309.000,182155.800,221531.800,208946.900,165602.800,156498.500,147504.200,152465.500,-0.165,0.978,-0.201,-4.669,1.251,-0.305,73.333,651.000,1.000,0.012,0.000
194307.400,182161.500,221536.600,208949.800,165615.800,156498.500,147496.900,152465.400,-0.164,0.974,-0.196,-5.035,1.282,-0.549,73.333,652.000,1.000,4.983,0.000
194280.300,182154.800,221524.000,208925.000,165607.200,156486.800,147487.900,152454.600,-0.162,0.967,-0.197,-5.127,1.190,-0.641,73.333,653.000,1.000,0.005,0.000
194269.300,182152.200,221518.000,208911.700,165591.000,156469.900,147476.900,152444.800,-0.158,0.957,-0.196,-5.280,1.251,-0.824,73.333,654.000,1.000,1.888,0.000
194294.600,182155.000,221529.500,208928.200,165589.900,156459.200,147465.100,152441.500,-0.154,0.954,-0.196,-5.096,1.526,-1.007,73.333,655.000,1.000,8.772,0.000
194330.100,182164.900,221549.200,208956.200,165611.400,156470.900,147477.600,152455.100,-0.153,0.952,-0.199,-4.761,1.648,-0.977,73.333,656.000,1.000,3.107,0.000
194322.000,182162.300,221543.600,208945.400,165617.400,156475.200,147485.000,152456.300,-0.153,0.952,-0.201,-4.517,1.831,-0.916,73.333,657.000,1.000,0.005,0.000
194288.900,182151.900,221519.000,208911.800,165601.400,156462.800,147473.700,152438.800,-0.155,0.953,-0.195,-4.364,1.923,-0.916,73.333,658.000,1.000,3.207,0.000
194284.300,182155.800,221513.900,208909.100,165592.100,156460.600,147470.500,152434.100,-0.156,0.953,-0.196,-4.089,2.106,-0.763,73.333,659.000,1.000,9.285,0.000
194303.800,182169.000,221521.100,208927.800,165592.400,156460.500,147467.700,152437.700,-0.160,0.954,-0.193,-3.815,2.258,-0.671,73.333,660.000,1.000,0.010,0.000
194326.300,182177.500,221532.900,208942.500,165610.700,156473.700,147474.000,152452.100,-0.156,0.952,-0.193,-3.571,2.319,-0.488,73.333,661.000,1.000,1.829,0.000
194323.000,182170.600,221540.100,208951.700,165634.600,156499.700,147495.000,152475.500,-0.156,0.952,-0.195,-3.296,2.563,-0.397,73.333,662.000,1.000,8.995,0.000
194292.900,182166.200,221527.100,208931.400,165627.100,156499.700,147495.900,152474.100,-0.158,0.954,-0.193,-2.960,2.563,-0.336,73.333,663.000,1.000,25.527,0.000
194275.400,182157.800,221508.300,208911.000,165601.800,156480.100,147477.500,152456.900,-0.162,0.954,-0.189,-2.716,2.686,-0.275,73.333,664.000,1.000,0.014,0.000
194289.200,182149.500,221502.000,208912.400,165585.800,156461.700,147458.900,152453.300,-0.165,0.958,-0.196,-2.350,2.625,-0.397,73.333,665.000,1.000,4.302,0.000
194330.500,182165.800,221527.000,208945.100,165616.000,156479.800,147473.400,152481.500,-0.170,0.959,-0.197,-2.136,2.655,-0.305,73.333,666.000,1.000,2.503,0.000
194321.000,182161.600,221522.400,208936.800,165624.300,156484.500,147479.800,152488.800,-0.171,0.964,-0.197,-1.892,2.563,-0.275,73.333,667.000,1.000,2.417,0.000
194284.300,182148.800,221500.700,208908.700,165609.300,156477.800,147477.800,152480.600,-0.170,0.963,-0.197,-1.709,2.441,-0.305,73.333,668.000,1.000,5.004,0.000
194274.500,182148.000,221490.600,208902.600,165597.300,156472.900,147482.400,152482.500,-0.170,0.964,-0.199,-1.678,2.350,-0.366,73.333,669.000,1.000,2.526,0.000
194287.500,182141.600,221487.100,208911.600,165588.500,156461.200,147468.400,152474.800,-0.169,0.966,-0.200,-1.587,2.289,-0.305,73.333,670.000,1.000,2.490,0.000
194307.800,182139.500,221491.300,208922.300,165595.600,156460.100,147463.800,152473.900,-0.168,0.965,-0.198,-1.556,2.167,-0.183,73.333,671.000,1.000,2.501,0.000
194308.200,182147.100,221497.700,208924.800,165611.900,156474.800,147477.600,152477.700,-0.167,0.967,-0.198,-1.465,2.075,-0.305,73.333,672.000,1.000,2.493,0.000
194274.800,182139.300,221481.100,208896.800,165601.000,156468.300,147478.300,152466.500,-0.167,0.967,-0.200,-1.556,1.923,-0.244,73.333,673.000,1.000,2.551,0.000
194259.500,182133.300,221468.200,208881.400,165581.800,156456.900,147471.500,152453.800,-0.165,0.966,-0.200,-1.526,1.923,-0.183,73.333,674.000,1.000,2.476,0.000
194282.800,182135.800,221474.500,208892.300,165579.800,156453.500,147470.500,152452.700,-0.166,0.970,-0.200,-1.556,1.862,-0.153,73.333,675.000,1.000,3.057,0.000
194314.500,182147.100,221489.100,208911.800,165598.000,156467.900,147481.800,152463.600,-0.165,0.971,-0.200,-1.648,1.801,-0.153,73.333,676.000,1.000,0.007,0.000
194308.700,182151.800,221487.800,208907.100,165608.200,156482.200,147494.200,152466.700,-0.167,0.974,-0.202,-1.740,1.678,-0.092,73.333,677.000,1.000,1.887,0.000
194285.500,182156.400,221476.100,208892.200,165605.700,156484.800,147503.500,152463.600,-0.167,0.976,-0.199,-1.923,1.648,-0.092,73.333,678.000,1.000,2.556,0.000
194264.800,182149.100,221457.300,208876.500,165584.800,156468.400,147491.500,152447.400,-0.169,0.976,-0.199,-1.953,1.465,0.000,73.333,679.000,1.000,3.057,0.000
194286.400,182146.000,221466.400,208891.300,165588.200,156465.600,147489.400,152453.800,-0.167,0.976,-0.200,-2.167,1.343,0.122,73.333,680.000,1.000,0.006,0.000
194318.600,182157.300,221486.700,208915.600,165611.800,156475.400,147498.900,152465.400,-0.167,0.976,-0.202,-2.380,1.099,0.183,73.333,681.000,1.000,8.168,0.000
194312.400,182157.900,221487.500,208912.500,165621.000,156481.300,147504.400,152468.500,-0.168,0.975,-0.199,-2.563,0.977,0.153,73.333,682.000,1.000,3.044,0.000
194286.100,182157.300,221475.900,208893.900,165615.100,156483.800,147503.700,152464.800,-0.168,0.975,-0.197,-2.869,0.977,0.092,73.333,683.000,1.000,0.087,0.000
194276.000,182160.100,221473.200,208889.800,165606.800,156484.400,147502.700,152460.700,-0.165,0.974,-0.199,-3.143,0.732,0.092,73.333,684.000,1.000,13.088,0.000
194291.500,182157.400,221476.100,208900.900,165602.700,156482.100,147491.700,152456.400,-0.165,0.972,-0.201,-3.387,0.549,0.122,73.333,685.000,1.000,3.058,0.000
194323.300,182166.500,221492.800,208924.700,165626.300,156493.300,147498.900,152474.000,-0.162,0.969,-0.203,-3.510,0.366,0.092,73.333,686.000,1.000,0.008,0.000
194306.400,182158.600,221482.600,208909.500,165628.100,156489.500,147495.900,152471.600,-0.160,0.969,-0.200,-3.693,0.244,0.122,73.333,687.000,1.000,1.951,0.000
194277.500,182154.000,221469.800,208887.200,165622.000,156489.100,147497.700,152474.600,-0.161,0.964,-0.199,-3.784,0.153,0.244,73.333,688.000,1.000,4.996,0.000
194272.200,182157.500,221464.100,208881.500,165613.100,156484.800,147491.700,152476.500,-0.160,0.962,-0.202,-3.815,0.092,0.031,73.333,689.000,1.000,2.436,0.000
194308.500,182178.400,221483.400,208910.000,165622.400,156494.900,147494.700,152489.400,-0.158,0.960,-0.201,-3.845,0.000,0.061,73.333,690.000,1.000,11.934,0.000
194309.100,182145.400,221468.800,208906.200,165613.600,156475.300,147473.800,152475.500,-0.156,0.958,-0.200,-3.845,0.000,-0.122,73.333,691.000,1.000,0.009,0.000
194296.000,182139.800,221462.300,208891.800,165613.700,156469.800,147467.600,152468.600,-0.155,0.959,-0.199,-3.723,0.061,-0.183,73.333,692.000,1.000,1.840,0.000
194272.700,182140.300,221456.300,208874.600,165608.700,156469.400,147477.400,152471.100,-0.154,0.957,-0.203,-3.693,0.061,-0.336,73.333,693.000,1.000,5.044,0.000
194253.800,182128.300,221440.700,208860.500,165586.000,156452.700,147465.700,152458.300,-0.154,0.951,-0.201,-3.571,0.122,-0.458,73.333,694.000,1.000,7.427,0.000
194286.500,182143.100,221456.500,208885.400,165592.000,156453.700,147470.100,152470.700,-0.154,0.950,-0.201,-3.235,0.244,-0.671,73.333,695.000,1.000,2.565,0.000
194318.300,182146.400,221471.800,208908.200,165612.000,156462.800,147483.000,152487.300,-0.156,0.949,-0.200,-3.021,0.336,-0.854,73.333,696.000,1.000,2.442,0.000
194305.100,182137.100,221462.200,208897.700,165614.300,156460.300,147486.100,152478.200,-0.156,0.951,-0.200,-2.838,0.336,-0.824,73.333,697.000,1.000,12.490,0.000
194276.500,182134.600,221447.100,208874.000,165605.300,156456.500,147487.200,152466.100,-0.153,0.954,-0.202,-2.686,0.519,-0.916,73.333,698.000,1.000,3.148,0.000
194268.700,182138.000,221440.000,208860.000,165593.400,156459.500,147492.200,152461.100,-0.154,0.957,-0.201,-2.380,0.519,-0.946,73.333,699.000,1.000,0.010,0.000
194292.700,182143.100,221445.300,208870.500,165594.500,156463.100,147496.900,152459.500,-0.159,0.960,-0.198,-2.319,0.580,-1.007,73.333,700.000,1.000,1.886,0.000
194326.200,182156.100,221462.100,208892.600,165615.800,156471.800,147502.100,152469.400,-0.162,0.964,-0.199,-2.228,0.793,-1.099,73.333,701.000,1.000,2.448,0.000
194317.600,182159.700,221459.000,208881.700,165627.200,156488.500,147522.300,152468.800,-0.161,0.964,-0.199,-2.167,0.793,-1.190,73.333,702.000,1.000,2.537,0.000
194293.500,182162.700,221449.700,208863.100,165628.300,156502.500,147529.300,152459.300,-0.163,0.966,-0.197,-2.136,0.854,-1.190,73.333,703.000,1.000,3.742,0.000
194280.900,182160.300,221439.400,208847.800,165606.400,156477.100,147489.500,152439.700,-0.165,0.969,-0.197,-2.136,0.885,-1.190,73.333,704.000,1.000,14.391,0.000
194294.000,182154.900,221438.800,208856.700,165597.000,156463.200,147473.600,152434.100,-0.166,0.969,-0.197,-2.197,1.068,-1.221,73.333,705.000,1.000,0.013,0.000
194311.200,182149.600,221440.000,208867.200,165603.500,156464.400,147470.100,152436.500,-0.166,0.968,-0.199,-2.106,1.129,-1.312,73.333,706.000,1.000,1.923,0.000
194309.800,182157.500,221440.200,208863.600,165614.900,156476.900,147479.900,152443.200,-0.167,0.966,-0.201,-2.258,1.221,-1.312,73.333,707.000,1.000,2.470,0.000
194271.400,182138.000,221416.200,208838.100,165599.600,156474.000,147478.100,152435.900,-0.166,0.967,-0.198,-2.197,1.251,-1.190,73.333,708.000,1.000,2.485,0.000
194259.800,182137.600,221409.100,208832.200,165587.200,156474.100,147474.000,152435.800,-0.166,0.966,-0.196,-2.136,1.282,-0.885,73.333,709.000,1.000,3.711,0.000
194284.500,182146.300,221419.200,208850.800,165589.900,156476.000,147471.300,152448.100,-0.165,0.968,-0.198,-2.197,1.343,-0.732,73.333,710.000,1.000,9.398,0.000
194301.800,182142.000,221425.000,208863.900,165600.900,156474.500,147472.200,152461.500,-0.167,0.968,-0.200,-2.258,1.343,-0.610,73.333,711.000,1.000,0.011,0.000
194295.100,182147.000,221427.900,208860.200,165614.300,156486.400,147485.400,152473.600,-0.167,0.967,-0.199,-2.350,1.434,-0.366,73.333,712.000,1.000,1.836,0.000
194266.700,182143.400,221416.100,208839.600,165608.700,156486.400,147490.300,152470.200,-0.168,0.969,-0.196,-2.319,1.404,-0.214,73.333,713.000,1.000,2.492,0.000
194260.400,182148.400,221415.000,208838.500,165604.000,156481.300,147493.200,152474.400,-0.168,0.970,-0.198,-2.258,1.465,-0.031,73.333,714.000,1.000,8.704,0.000
194292.000,182157.400,221431.000,208859.400,165614.200,156484.200,147499.300,152486.000,-0.167,0.971,-0.196,-2.289,1.495,0.061,73.333,715.000,1.000,3.106,0.000
194303.900,182146.300,221425.100,208862.100,165616.400,156474.200,147487.600,152480.700,-0.166,0.971,-0.200,-2.441,1.495,0.061,73.333,716.000,1.000,0.015,0.000
194298.500,182156.700,221424.200,208858.900,165628.600,156482.700,147496.400,152490.800,-0.166,0.970,-0.201,-2.472,1.404,0.214,73.333,717.000,1.000,1.915,0.000
194269.000,182151.900,221413.500,208840.300,165623.900,156483.900,147500.600,152492.300,-0.165,0.970,-0.201,-2.686,1.373,0.061,73.333,718.000,1.000,16.302,0.000
194267.200,182157.400,221414.300,208840.600,165619.200,156480.400,147507.000,152490.800,-0.166,0.969,-0.201,-2.686,1.312,0.092,73.333,719.000,1.000,3.061,0.000
194280.500,182153.500,221412.500,208843.300,165604.100,156459.900,147481.800,152472.100,-0.165,0.970,-0.203,-2.747,1.251,0.183,73.333,720.000,1.000,0.009,0.000
194311.600,182162.600,221429.200,208864.100,165620.700,156464.500,147487.400,152477.900,-0.165,0.966,-0.202,-2.808,1.251,0.183,73.333,721.000,1.000,1.879,0.000
194308.200,182166.600,221428.200,208857.900,165631.200,156470.600,147499.000,152479.400,-0.165,0.965,-0.198,-2.930,1.190,0.214,73.333,722.000,1.000,2.510,0.000
194274.300,182156.700,221405.800,208827.800,165617.600,156463.000,147494.600,152467.800,-0.164,0.962,-0.199,-2.899,1.160,0.153,73.333,723.000,1.000,5.010,0.000
194254.400,182144.200,221385.800,208807.600,165592.800,156445.500,147478.900,152451.100,-0.161,0.964,-0.199,-2.991,1.221,0.153,73.333,724.000,1.000,4.962,0.000
194279.500,182153.900,221396.400,208822.900,165591.700,156450.100,147476.000,152445.300,-0.163,0.967,-0.204,-3.082,1.190,0.122,73.333,725.000,1.000,2.445,0.000
194308.600,182159.100,221414.500,208846.600,165612.700,156468.300,147490.600,152458.300,-0.160,0.966,-0.204,-3.143,1.190,0.122,73.333,726.000,1.000,3.786,0.000
194310.100,182167.900,221421.200,208848.900,165631.600,156487.300,147509.100,152469.200,-0.159,0.969,-0.200,-3.357,1.099,0.122,73.333,727.000,1.000,4.298,0.000
194271.900,182153.200,221396.800,208815.200,165612.200,156477.600,147499.300,152448.700,-0.158,0.970,-0.200,-3.326,1.007,0.061,73.333,728.000,1.000,0.010,0.000
194260.600,182148.200,221386.500,208805.600,165594.400,156470.400,147492.400,152441.000,-0.156,0.969,-0.198,-3.571,1.007,-0.061,73.333,729.000,1.000,10.733,0.000
194281.300,182154.900,221393.500,208820.600,165593.300,156479.000,147499.600,152446.300,-0.155,0.968,-0.199,-3.662,1.038,-0.092,73.333,730.000,1.000,6.932,0.000
194308.700,182165.000,221409.000,208843.400,165615.900,156506.100,147527.600,152457.400,-0.154,0.968,-0.200,-3.815,1.160,-0.183,73.333,731.000,1.000,0.027,0.000
194309.500,182171.600,221412.200,208847.900,165627.200,156510.000,147519.100,152457.500,-0.154,0.968,-0.202,-3.845,1.129,-0.183,73.333,732.000,1.000,11.118,0.000
194280.400,182157.700,221395.500,208815.900,165613.400,156499.900,147498.100,152450.000,-0.155,0.967,-0.199,-3.845,1.190,-0.397,73.333,733.000,1.000,0.010,0.000
194269.600,182156.600,221386.800,208802.800,165597.400,156489.200,147482.700,152444.000,-0.156,0.964,-0.198,-3.967,1.282,-0.519,73.333,734.000,1.000,2.495,0.000
194286.700,182152.900,221386.100,208811.300,165590.000,156475.000,147457.100,152432.000,-0.156,0.958,-0.201,-4.089,1.373,-0.702,73.333,735.000,1.000,0.010,0.000
194302.200,182146.100,221390.300,208824.000,165600.000,156471.800,147449.500,152438.300,-0.156,0.955,-0.199,-3.937,1.434,-0.763,73.333,736.000,1.000,16.397,0.000
194295.800,182141.900,221393.700,208824.000,165616.500,156480.700,147463.200,152457.000,-0.155,0.953,-0.198,-3.815,1.495,-0.946,73.333,737.000,1.000,0.021,0.000
194258.600,182135.000,221372.500,208796.700,165605.700,156479.700,147470.200,152456.000,-0.156,0.948,-0.194,-3.479,1.495,-0.977,73.333,738.000,1.000,2.304,0.000
194248.800,182137.100,221361.600,208787.800,165589.300,156473.000,147471.200,152459.400,-0.156,0.947,-0.195,-3.113,1.709,-0.977,73.333,739.000,1.000,0.010,0.000
194278.300,182149.400,221372.900,208813.200,165595.700,156473.300,147475.900,152473.700,-0.159,0.948,-0.198,-2.747,1.678,-1.068,73.333,740.000,1.000,2.587,0.000
194296.400,182149.800,221378.600,208828.200,165608.200,156468.700,147476.500,152482.800,-0.161,0.954,-0.193,-2.411,1.648,-1.068,73.333,741.000,1.000,0.009,0.000
194281.600,182139.300,221371.300,208815.800,165615.300,156467.700,147483.600,152486.000,-0.161,0.957,-0.193,-2.136,1.831,-1.068,73.333,742.000,1.000,10.545,0.000
194263.100,182142.700,221366.100,208802.700,165615.300,156470.500,147493.600,152485.500,-0.164,0.959,-0.192,-1.923,1.862,-1.038,73.333,743.000,1.000,4.418,0.000
194258.300,182146.900,221361.200,208801.500,165599.400,156458.900,147486.000,152473.700,-0.165,0.960,-0.192,-1.770,1.801,-1.007,73.333,744.000,1.000,0.009,0.000
194290.000,182150.600,221378.800,208819.600,165604.900,156456.700,147486.500,152475.400,-0.166,0.961,-0.193,-1.556,1.740,-0.854,73.333,745.000,1.000,7.424,0.000
