EEG 1, EEG 2, EEG 3, EEG 4, EEG 5, EEG 6, EEG 7, EEG 8, ACC X, ACC Y, ACC Z, GYR X, GYR Y, GYR Z, BAT, CNT, VALID, DT, TRIG
52950.970,49594.930,88235.270,74775.100,45161.080,42606.670,40151.380,41441.520,-0.149,0.916,-0.186,0.000,0.000,0.000,73.333,1.000,1.000,0.000,0.000
180541.200,169097.100,296954.000,252340.700,153973.800,145271.900,136905.500,141308.400,-0.144,0.937,-0.202,0.000,0.000,0.000,73.333,2.000,1.000,21.862,0.000
277237.700,259668.100,445849.500,380715.900,236427.000,223088.200,210252.800,217024.100,-0.139,0.942,-0.210,0.000,0.000,0.000,73.333,3.000,1.000,2.478,0.000
297655.900,278812.000,463681.900,398818.300,253824.600,239547.800,225780.600,233068.000,-0.141,0.944,-0.214,-4.913,3.021,-3.021,73.333,4.000,1.000,2.526,0.000
295993.200,277285.300,447132.400,387461.800,252391.000,238248.400,224565.300,231833.800,-0.141,0.946,-0.216,-3.326,1.404,-1.984,73.333,5.000,1.000,3.701,0.000
283263.100,265380.600,415233.500,362604.200,241505.300,228026.100,214935.800,221917.800,-0.142,0.950,-0.214,-2.625,1.190,-1.495,73.333,6.000,1.000,3.715,0.000
252136.000,236223.300,355630.000,313759.100,214920.100,202975.400,191327.600,197576.200,-0.145,0.955,-0.209,-1.953,1.404,-1.251,73.333,7.000,1.000,14.391,0.000
233972.000,219200.900,321157.000,285570.100,199403.100,188349.000,177535.800,183365.300,-0.148,0.957,-0.210,-1.709,1.678,-1.099,73.333,8.000,1.000,0.016,0.000
242490.700,227182.500,332873.600,296175.900,206662.900,195206.600,183988.400,190041.500,-0.150,0.959,-0.213,-1.373,2.014,-0.946,73.333,9.000,1.000,1.862,0.000
258256.800,241965.500,356094.100,316589.400,220108.600,207906.900,195951.700,202398.600,-0.154,0.960,-0.214,-1.190,2.289,-0.977,73.333,10.000,1.000,2.546,0.000
256859.600,240670.700,349845.300,312163.700,218907.500,206788.700,194899.100,201324.300,-0.156,0.961,-0.213,-1.221,2.502,-0.885,73.333,11.000,1.000,2.431,0.000
232513.500,217867.500,306004.300,275763.700,198129.700,187190.000,176436.400,182284.100,-0.157,0.962,-0.211,-1.068,2.899,-0.793,73.333,12.000,1.000,2.527,0.000
216858.000,203198.500,278821.300,253086.900,184774.500,174583.400,164563.900,170039.800,-0.160,0.964,-0.214,-0.946,3.052,-0.763,73.333,13.000,1.000,14.315,0.000
223319.200,209250.600,289496.100,262284.400,190293.900,179781.000,169468.300,175102.600,-0.161,0.966,-0.216,-0.824,3.174,-0.763,73.333,14.000,1.000,0.019,0.000
236169.900,221294.800,310010.200,279931.200,201263.200,190122.400,179220.100,185166.500,-0.165,0.969,-0.213,-0.793,3.235,-0.702,73.333,15.000,1.000,1.873,0.000
235636.700,220804.400,307225.300,277998.700,200808.000,189691.100,178818.500,184755.000,-0.164,0.969,-0.213,-0.854,3.357,-0.732,73.333,16.000,1.000,2.527,0.000
217049.700,203398.800,274632.800,250759.600,184947.600,174731.400,164722.000,170211.200,-0.164,0.970,-0.210,-0.977,3.326,-0.702,73.333,17.000,1.000,8.705,0.000
204902.100,192019.200,254298.000,233633.600,174581.400,164955.000,155509.500,160705.800,-0.167,0.972,-0.214,-1.038,3.387,-0.610,73.333,18.000,1.000,2.572,0.000
209647.600,196462.200,262767.700,240783.600,178627.000,168772.000,159109.500,164421.700,-0.168,0.971,-0.212,-1.068,3.357,-0.549,73.333,19.000,1.000,3.086,0.000
219347.000,205546.400,278776.500,254430.500,186897.000,176575.000,166466.000,172015.500,-0.170,0.971,-0.212,-1.190,3.510,-0.458,73.333,20.000,1.000,0.013,0.000
219043.400,205262.500,277276.900,253379.300,186633.400,176331.600,166235.300,171780.500,-0.170,0.969,-0.214,-1.221,3.510,-0.488,73.333,21.000,1.000,1.893,0.000
205220.600,192320.000,253387.800,233330.300,174840.300,165212.300,155749.200,160963.200,-0.169,0.965,-0.213,-1.343,3.571,-0.488,73.333,22.000,1.000,8.671,0.000
195997.800,183686.900,238252.300,220508.900,166972.600,157791.500,148744.600,153744.000,-0.165,0.963,-0.216,-1.556,3.510,-0.427,73.333,23.000,1.000,4.439,0.000
199119.700,186612.000,244145.100,225418.200,169634.900,160301.300,151100.800,156186.600,-0.163,0.960,-0.218,-1.495,3.693,-0.336,73.333,24.000,1.000,0.020,0.000
205925.000,192985.300,255633.000,235151.900,175442.100,165779.400,156260.600,161517.300,-0.162,0.958,-0.219,-1.526,3.754,-0.183,73.333,25.000,1.000,26.213,0.000
205634.500,192713.300,254661.500,234435.300,175200.500,165553.300,156047.500,161297.500,-0.161,0.959,-0.220,-1.404,3.876,0.000,73.333,26.000,1.000,0.022,0.000
195737.100,183445.400,237742.200,220195.900,166764.400,157598.800,148549.000,153554.700,-0.162,0.958,-0.219,-1.221,4.120,0.000,73.333,27.000,1.000,1.821,0.000
188934.100,177076.300,226716.800,210820.800,160964.000,152132.400,143392.400,148227.100,-0.163,0.961,-0.218,-1.099,4.089,0.092,73.333,28.000,1.000,5.023,0.000
190650.400,178682.700,230202.300,213680.700,162426.200,153514.600,144689.400,149563.400,-0.164,0.961,-0.219,-1.038,4.089,0.244,73.333,29.000,1.000,2.507,0.000
194964.000,182717.300,237646.200,219953.400,166103.100,156980.000,147952.100,152931.000,-0.164,0.961,-0.221,-0.916,4.059,0.122,73.333,30.000,1.000,2.469,0.000
194598.000,182368.300,236852.000,219318.500,165792.000,156680.600,147669.400,152638.200,-0.165,0.962,-0.219,-0.977,4.120,0.214,73.333,31.000,1.000,2.517,0.000
187880.800,176074.500,225496.700,209729.700,160067.200,151275.800,142576.300,147379.900,-0.167,0.964,-0.214,-0.916,4.181,0.275,73.333,32.000,1.000,2.433,0.000
183032.200,171533.700,217731.600,203100.800,155935.600,147375.300,138900.800,143585.700,-0.168,0.967,-0.214,-1.129,4.120,0.214,73.333,33.000,1.000,2.548,0.000
183571.000,172036.600,219156.700,204219.100,156396.400,147805.600,139308.600,144006.700,-0.171,0.969,-0.218,-1.099,3.906,0.122,73.333,34.000,1.000,5.015,0.000
185822.100,174139.900,223208.000,207598.200,158315.700,149609.300,141013.100,145765.100,-0.173,0.968,-0.218,-1.129,3.662,0.031,73.333,35.000,1.000,3.144,0.000
185343.600,173687.100,222434.200,206937.000,157906.400,149215.300,140647.900,145386.300,-0.173,0.968,-0.218,-1.312,3.571,-0.061,73.333,36.000,1.000,0.012,0.000
181136.600,169747.500,215445.800,201012.800,154318.400,145824.300,137458.700,142094.900,-0.176,0.964,-0.221,-1.373,3.326,-0.122,73.333,37.000,1.000,1.889,0.000
177853.700,166675.500,210261.600,196569.900,151519.100,143179.000,134972.000,139529.800,-0.174,0.963,-0.218,-1.556,3.052,-0.122,73.333,38.000,1.000,2.412,0.000
177481.100,166323.200,210054.900,196315.100,151197.500,142871.200,134686.800,139237.000,-0.176,0.963,-0.216,-1.587,2.716,-0.275,73.333,39.000,1.000,11.927,0.000
178098.700,166895.800,211387.900,197381.400,151716.300,143356.200,135146.900,139714.100,-0.175,0.963,-0.219,-1.770,2.319,-0.336,73.333,40.000,1.000,0.021,0.000
177504.700,166340.900,210558.300,196642.500,151207.600,142874.200,134695.600,139248.000,-0.176,0.963,-0.217,-1.892,1.984,-0.336,73.333,41.000,1.000,2.349,0.000
175219.400,164209.200,206901.000,193510.500,149265.800,141044.800,132974.300,137466.900,-0.174,0.962,-0.216,-2.045,1.678,-0.427,73.333,42.000,1.000,0.004,0.000
173136.700,162269.300,203696.100,190743.400,147497.500,139381.800,131408.300,135845.900,-0.172,0.963,-0.221,-2.014,1.373,-0.427,73.333,43.000,1.000,1.894,0.000
172087.100,161292.300,202272.100,189477.400,146603.900,138543.000,130615.600,135026.700,-0.170,0.960,-0.219,-2.289,1.099,-0.336,73.333,44.000,1.000,6.329,0.000
171480.800,160723.100,201555.100,188816.400,146085.600,138056.400,130151.100,134548.400,-0.169,0.961,-0.222,-2.289,0.824,-0.366,73.333,45.000,1.000,6.181,0.000
170784.300,160066.700,200645.000,187996.000,145493.200,137499.900,129620.100,133999.900,-0.168,0.958,-0.227,-2.502,0.549,-0.275,73.333,46.000,1.000,6.264,0.000
169911.700,159249.600,199427.400,186912.300,144754.200,136807.100,128962.300,133317.100,-0.167,0.958,-0.227,-2.594,0.336,-0.244,73.333,47.000,1.000,4.385,0.000
168737.800,158153.700,197705.800,185400.000,143757.600,135873.000,128077.200,132396.900,-0.163,0.960,-0.223,-2.655,0.153,-0.214,73.333,48.000,1.000,0.010,0.000
167232.900,156744.700,195441.500,183428.600,142475.600,134667.700,126935.600,131213.600,-0.159,0.960,-0.225,-2.777,0.153,-0.031,73.333,49.000,1.000,8.185,0.000
165757.100,155358.400,193255.800,181518.100,141218.200,133483.300,125812.900,130052.900,-0.157,0.959,-0.226,-2.869,0.031,0.031,73.333,50.000,1.000,3.083,0.000
164986.500,154634.000,192276.700,180620.600,140565.100,132869.000,125227.900,129446.300,-0.155,0.960,-0.229,-3.021,0.000,0.000,73.333,51.000,1.000,0.008,0.000
165120.800,154762.000,192785.900,180985.900,140683.500,132982.400,125331.400,129548.500,-0.156,0.963,-0.229,-3.113,-0.092,0.000,73.333,52.000,1.000,1.871,0.000
164611.400,154288.000,192144.100,180392.300,140249.600,132572.500,124944.700,129146.300,-0.153,0.966,-0.227,-3.235,0.061,-0.061,73.333,53.000,1.000,8.760,0.000
162817.000,152606.500,189347.700,177980.300,138719.200,131125.900,123583.800,127738.800,-0.152,0.967,-0.227,-3.387,0.031,-0.092,73.333,54.000,1.000,5.548,0.000
160748.200,150666.100,186170.700,175232.200,136958.000,129459.600,122018.200,126117.400,-0.153,0.968,-0.222,-3.693,0.092,-0.244,73.333,55.000,1.000,0.009,0.000
159908.200,149878.300,185118.700,174267.000,136247.000,128780.800,121381.500,125458.800,-0.150,0.969,-0.221,-3.784,0.244,-0.336,73.333,56.000,1.000,1.923,0.000
160682.900,150602.100,186735.300,175564.800,136908.600,129391.200,121958.000,126061.300,-0.150,0.965,-0.218,-4.059,0.519,-0.610,73.333,57.000,1.000,12.564,0.000
160616.100,150535.300,186817.100,175585.800,136845.000,129316.300,121891.700,126000.200,-0.150,0.961,-0.213,-4.181,0.671,-0.885,73.333,58.000,1.000,3.002,0.000
158685.000,148719.500,183750.000,172947.300,135189.500,127744.700,120419.700,124482.000,-0.146,0.955,-0.214,-4.333,0.916,-0.977,73.333,59.000,1.000,0.006,0.000
156274.600,146450.600,179989.200,169704.200,133128.300,125791.900,118589.300,122594.800,-0.146,0.952,-0.215,-4.242,1.068,-1.160,73.333,60.000,1.000,1.905,0.000
155378.400,145602.700,178870.400,168679.500,132361.600,125057.200,117904.200,121894.400,-0.144,0.948,-0.215,-4.059,1.282,-1.190,73.333,61.000,1.000,6.298,0.000
156514.700,146668.300,181121.500,170511.800,133331.800,125962.500,118762.600,122785.900,-0.144,0.945,-0.217,-3.693,1.709,-1.129,73.333,62.000,1.000,11.180,0.000
156723.400,146872.500,181668.400,170926.800,133512.800,126129.600,118924.700,122955.800,-0.146,0.943,-0.215,-3.448,2.106,-1.129,73.333,63.000,1.000,3.077,0.000
154753.500,145039.100,178532.300,168233.000,131835.200,124548.300,117435.900,121422.300,-0.147,0.944,-0.217,-3.082,2.472,-0.946,73.333,64.000,1.000,0.005,0.000
152183.800,142643.600,174509.700,164772.200,129646.200,122486.600,115490.400,119417.700,-0.147,0.947,-0.217,-2.869,2.716,-0.854,73.333,65.000,1.000,1.924,0.000
151263.800,141790.700,173361.300,163723.500,128866.800,121757.100,114799.500,118703.700,-0.151,0.949,-0.217,-2.625,2.960,-0.793,73.333,66.000,1.000,2.588,0.000
152567.700,143018.900,175897.800,165795.700,129986.000,122824.000,115801.300,119730.700,-0.154,0.949,-0.214,-2.533,3.174,-0.732,73.333,67.000,1.000,3.637,0.000
152936.100,143368.300,176698.800,166427.300,130303.600,123139.800,116091.200,120022.900,-0.156,0.951,-0.216,-2.411,3.296,-0.732,73.333,68.000,1.000,11.834,0.000
151031.600,141587.000,173646.100,163808.600,128677.100,121620.500,114648.700,118531.300,-0.165,0.953,-0.214,-2.106,3.510,-0.641,73.333,69.000,1.000,0.010,0.000
148468.700,139189.200,169612.800,160339.300,126487.400,119565.600,112702.200,116522.200,-0.167,0.958,-0.217,-1.892,3.571,-0.610,73.333,70.000,1.000,1.980,0.000
147551.900,138332.900,168459.400,159283.300,125705.000,118836.400,112007.400,115803.600,-0.173,0.966,-0.217,-1.831,3.601,-0.580,73.333,71.000,1.000,2.379,0.000
148873.600,139571.700,171020.200,161376.300,126834.800,119910.500,113013.900,116836.700,-0.177,0.971,-0.217,-1.862,3.418,-0.641,73.333,72.000,1.000,9.480,0.000
149302.100,139973.000,171918.200,162091.400,127203.500,120263.300,113343.100,117169.200,-0.178,0.974,-0.216,-1.923,3.174,-0.610,73.333,73.000,1.000,0.013,0.000
147507.700,138292.200,169046.800,159624.600,125675.000,118821.800,111981.900,115761.100,-0.175,0.976,-0.217,-2.014,2.930,-0.732,73.333,74.000,1.000,8.603,0.000
145040.200,135979.800,165168.900,156285.100,123569.300,116832.800,110102.200,113821.700,-0.173,0.973,-0.217,-2.228,2.747,-0.763,73.333,75.000,1.000,0.009,0.000
144127.700,135123.400,164016.300,155230.900,122789.300,116093.700,109400.200,113095.900,-0.172,0.974,-0.219,-2.380,2.594,-0.732,73.333,76.000,1.000,4.413,0.000
145353.400,136271.300,166410.800,157184.700,123837.800,117079.600,110328.000,114048.800,-0.170,0.974,-0.214,-2.472,2.625,-0.549,73.333,77.000,1.000,3.164,0.000
145769.200,136661.100,167291.100,157885.100,124198.800,117413.900,110647.100,114373.900,-0.166,0.974,-0.214,-2.655,2.441,-0.458,73.333,78.000,1.000,0.009,0.000
144112.400,135106.600,164658.200,155620.100,122788.300,116070.900,109389.600,113075.100,-0.163,0.974,-0.216,-2.838,2.319,-0.336,73.333,79.000,1.000,3.058,0.000
141807.300,132940.900,161051.000,152510.600,120820.000,114198.300,107635.800,111266.600,-0.161,0.976,-0.216,-2.960,2.319,-0.092,73.333,80.000,1.000,11.258,0.000
140914.000,132096.400,159921.500,151479.700,120056.400,113462.000,106954.200,110565.300,-0.163,0.975,-0.214,-3.326,2.380,0.183,73.333,81.000,1.000,6.914,0.000
141968.500,133077.200,162026.200,153192.400,120956.700,114295.600,107750.500,111387.700,-0.163,0.971,-0.216,-3.510,2.289,0.336,73.333,82.000,1.000,0.010,0.000
142314.800,133394.400,162796.900,153798.700,121249.800,114558.100,108006.400,111651.900,-0.165,0.968,-0.216,-3.754,2.350,0.580,73.333,83.000,1.000,6.120,0.000
140816.900,131983.400,160432.900,151760.000,119964.800,113332.900,106861.700,110473.100,-0.166,0.967,-0.215,-3.815,2.289,0.763,73.333,84.000,1.000,0.011,0.000
138726.400,130017.400,157172.300,148949.800,118175.000,111631.100,105270.000,108834.000,-0.164,0.968,-0.218,-3.998,2.228,0.763,73.333,85.000,1.000,8.837,0.000
137868.500,129209.500,156082.400,147957.300,117442.600,110928.700,104618.100,108164.200,-0.164,0.970,-0.217,-3.967,2.167,0.732,73.333,86.000,1.000,0.012,0.000
138715.400,130006.100,157835.900,149368.800,118170.000,111608.300,105265.700,108835.200,-0.165,0.971,-0.217,-4.028,2.136,0.641,73.333,87.000,1.000,2.509,0.000
138951.800,130235.100,158448.000,149832.500,118377.800,111805.600,105454.100,109029.800,-0.167,0.968,-0.215,-4.089,1.923,0.549,73.333,88.000,1.000,0.004,0.000
137591.400,128966.500,156347.700,148008.400,117221.300,110724.600,104429.600,107968.600,-0.169,0.970,-0.212,-4.181,1.801,0.366,73.333,89.000,1.000,19.375,0.000
135703.100,127203.600,153444.400,145494.200,115613.300,109224.000,103003.600,106490.600,-0.166,0.970,-0.213,-4.303,1.587,0.092,73.333,90.000,1.000,3.109,0.000
134869.200,126431.000,152390.200,144534.400,114906.300,108575.800,102380.200,105840.000,-0.165,0.968,-0.214,-4.395,1.404,-0.153,73.333,91.000,1.000,0.012,0.000
135509.200,127037.400,153777.200,145647.500,115458.800,109115.800,102878.900,106346.000,-0.164,0.965,-0.210,-4.364,1.160,-0.336,73.333,92.000,1.000,2.483,0.000
135658.000,127178.900,154231.000,145987.700,115592.100,109258.500,103003.400,106467.000,-0.164,0.965,-0.212,-4.456,0.977,-0.610,73.333,93.000,1.000,0.008,0.000
134463.000,126059.000,152407.000,144401.400,114576.100,108310.000,102096.500,105529.800,-0.162,0.961,-0.208,-4.395,0.885,-0.824,73.333,94.000,1.000,1.796,0.000
132806.000,124507.000,149881.500,142206.800,113164.600,106979.000,100829.600,104225.800,-0.162,0.957,-0.210,-4.333,0.916,-0.946,73.333,95.000,1.000,15.698,0.000
132013.700,123764.800,148875.000,141284.000,112490.900,106341.100,100221.900,103598.400,-0.162,0.954,-0.210,-4.211,0.885,-1.129,73.333,96.000,1.000,0.012,0.000
132430.300,124151.800,149879.100,142065.400,112848.100,106677.600,100538.100,103918.500,-0.164,0.952,-0.209,-3.937,0.824,-1.190,73.333,97.000,1.000,2.509,0.000
132453.700,124169.500,150141.900,142234.500,112869.000,106693.800,100555.200,103930.400,-0.164,0.952,-0.209,-3.693,0.793,-1.373,73.333,98.000,1.000,0.011,0.000
131397.000,123176.600,148571.500,140856.200,111966.400,105833.700,99745.450,103094.400,-0.162,0.951,-0.209,-3.448,0.732,-1.343,73.333,99.000,1.000,8.724,0.000
129954.800,121822.300,146410.400,138967.600,110733.700,104663.500,98641.130,101956.100,-0.163,0.951,-0.208,-3.326,0.610,-1.282,73.333,100.000,1.000,0.013,0.000
129194.500,121106.300,145449.000,138086.200,110082.800,104046.500,98059.570,101354.300,-0.164,0.950,-0.210,-3.082,0.702,-1.129,73.333,101.000,1.000,6.190,0.000
129402.800,121298.900,146097.700,138572.000,110257.900,104208.900,98216.010,101513.500,-0.164,0.950,-0.210,-2.869,0.824,-1.038,73.333,102.000,1.000,0.011,0.000
129314.800,121214.400,146180.800,138589.600,110179.600,104129.800,98145.540,101441.600,-0.164,0.951,-0.206,-2.716,0.702,-0.763,73.333,103.000,1.000,5.662,0.000
128385.400,120338.800,144830.000,137396.800,109383.900,103373.000,97436.080,100712.600,-0.163,0.951,-0.208,-2.502,0.702,-0.610,73.333,104.000,1.000,4.335,0.000
127147.400,119171.000,142999.800,135793.400,108325.300,102367.800,96494.590,99743.400,-0.161,0.952,-0.212,-2.258,0.854,-0.519,73.333,105.000,1.000,0.010,0.000
126432.400,118492.600,142092.300,134963.400,107712.600,101780.900,95948.560,99181.850,-0.160,0.952,-0.212,-2.136,0.824,-0.336,73.333,106.000,1.000,3.064,0.000
126462.900,118514.200,142429.100,135187.200,107735.100,101790.400,95964.640,99202.480,-0.157,0.953,-0.214,-1.923,0.977,-0.183,73.333,107.000,1.000,8.818,0.000
126280.800,118337.700,142357.400,135074.100,107575.800,101628.600,95820.350,99058.510,-0.156,0.957,-0.213,-1.801,1.129,0.061,73.333,108.000,1.000,4.332,0.000
125470.900,117572.600,141214.900,134057.100,106882.800,100966.100,95205.660,98426.250,-0.153,0.958,-0.216,-1.709,1.373,0.366,73.333,109.000,1.000,0.009,0.000
124414.200,116577.000,139689.400,132711.300,105981.300,100109.700,94406.550,97602.110,-0.151,0.961,-0.214,-1.648,1.526,0.458,73.333,110.000,1.000,10.669,0.000
123733.600,115937.500,138831.000,131925.900,105401.000,99557.390,93890.480,97071.680,-0.152,0.966,-0.215,-1.617,1.831,0.580,73.333,111.000,1.000,3.332,0.000
123598.600,115812.500,138886.100,131913.900,105286.800,99446.480,93786.380,96968.120,-0.153,0.966,-0.217,-1.740,2.045,0.763,73.333,112.000,1.000,0.008,0.000
123313.800,115549.200,138655.800,131665.400,105046.600,99222.130,93570.160,96746.890,-0.155,0.968,-0.215,-1.953,2.258,0.854,73.333,113.000,1.000,1.662,0.000
122579.400,114867.700,137660.900,130771.100,104425.200,98645.390,93017.930,96172.420,-0.156,0.969,-0.214,-2.136,2.411,0.854,73.333,114.000,1.000,8.738,0.000
121656.900,114012.400,136377.400,129626.200,103646.700,97924.950,92327.930,95451.950,-0.157,0.969,-0.216,-2.228,2.533,0.916,73.333,115.000,1.000,3.090,0.000
120997.100,113402.300,135560.800,128871.100,103093.200,97418.840,91837.080,94939.540,-0.156,0.969,-0.217,-2.319,2.594,0.854,73.333,116.000,1.000,0.010,0.000
120727.300,113154.500,135390.200,128664.800,102868.200,97221.730,91636.780,94731.770,-0.155,0.971,-0.217,-2.533,2.716,0.793,73.333,117.000,1.000,1.875,0.000
120364.400,112817.100,135037.700,128308.900,102559.500,96941.890,91361.130,94448.930,-0.156,0.970,-0.216,-2.625,2.899,0.702,73.333,118.000,1.000,16.291,0.000
119697.600,112195.300,134172.100,127519.600,101992.600,96415.950,90858.160,93927.980,-0.155,0.968,-0.216,-2.747,3.113,0.580,73.333,119.000,1.000,3.098,0.000
118899.600,111451.100,133100.500,126554.000,101316.400,95784.860,90259.980,93304.810,-0.156,0.969,-0.212,-2.930,3.235,0.397,73.333,120.000,1.000,0.011,0.000
118271.600,110862.500,132325.200,125838.000,100782.100,95283.800,89783.490,92811.450,-0.157,0.968,-0.212,-3.113,3.265,0.305,73.333,121.000,1.000,1.766,0.000
117892.600,110503.700,131962.600,125473.400,100455.000,94974.790,89486.070,92508.820,-0.156,0.967,-0.211,-3.082,3.357,0.153,73.333,122.000,1.000,7.637,0.000
117469.600,110104.600,131506.700,125031.700,100089.000,94628.460,89156.200,92171.140,-0.156,0.969,-0.212,-3.204,3.540,0.000,73.333,123.000,1.000,2.380,0.000
116875.700,109547.000,130753.800,124337.800,99578.490,94145.880,88703.490,91700.660,-0.156,0.969,-0.212,-3.418,3.632,-0.214,73.333,124.000,1.000,2.556,0.000
116193.800,108906.700,129861.600,123526.300,98994.500,93592.360,88187.900,91164.590,-0.156,0.968,-0.213,-3.510,3.693,-0.244,73.333,125.000,1.000,4.331,0.000
115595.000,108343.100,129126.400,122848.800,98483.700,93104.150,87735.420,90698.140,-0.156,0.966,-0.216,-3.479,3.693,-0.305,73.333,126.000,1.000,0.007,0.000
115129.700,107904.200,128622.000,122365.700,98088.590,92721.320,87382.070,90335.260,-0.157,0.965,-0.218,-3.479,3.662,-0.214,73.333,127.000,1.000,3.109,0.000
114653.500,107455.400,128089.500,121857.100,97683.800,92329.100,87019.160,89959.750,-0.156,0.963,-0.217,-3.571,3.723,-0.397,73.333,128.000,1.000,13.751,0.000
114100.100,106936.800,127419.400,121230.300,97211.540,91876.050,86599.880,89523.950,-0.157,0.965,-0.219,-3.571,3.784,-0.458,73.333,129.000,1.000,3.098,0.000
113494.100,106371.700,126661.900,120530.600,96693.220,91380.830,86142.730,89049.820,-0.159,0.964,-0.219,-3.571,3.632,-0.397,73.333,130.000,1.000,0.008,0.000
112922.700,105838.700,125962.900,119882.600,96203.060,90910.740,85709.740,88602.700,-0.162,0.962,-0.218,-3.540,3.540,-0.275,73.333,131.000,1.000,1.985,0.000
112411.000,105361.400,125362.400,119316.600,95762.440,90486.630,85318.680,88200.080,-0.163,0.961,-0.217,-3.693,3.357,-0.275,73.333,132.000,1.000,2.472,0.000
111906.100,104890.400,124775.700,118762.600,95328.610,90070.730,84932.900,87803.450,-0.163,0.958,-0.218,-3.632,3.235,-0.305,73.333,133.000,1.000,8.726,0.000
111383.700,104401.500,124163.300,118190.300,94882.800,89647.460,84535.580,87395.660,-0.162,0.958,-0.219,-3.540,3.082,-0.275,73.333,134.000,1.000,3.122,0.000
110834.700,103889.400,123505.000,117578.400,94415.480,89208.310,84117.290,86966.460,-0.166,0.958,-0.218,-3.387,2.777,-0.275,73.333,135.000,1.000,0.007,0.000
110276.200,103372.000,122827.400,116946.500,93939.160,88763.660,83690.280,86527.260,-0.169,0.958,-0.221,-3.418,2.411,-0.153,73.333,136.000,1.000,1.836,0.000
109716.500,102854.100,122146.400,116312.200,93463.220,88321.950,83263.830,86087.460,-0.172,0.958,-0.224,-3.387,2.075,-0.305,73.333,137.000,1.000,8.802,0.000
109191.300,102367.000,121522.000,115729.500,93020.230,87914.150,82867.300,85677.380,-0.176,0.958,-0.221,-3.265,1.587,-0.519,73.333,138.000,1.000,3.769,0.000
108706.100,101914.600,120962.400,115202.100,92611.140,87539.520,82501.820,85297.690,-0.177,0.958,-0.221,-3.235,1.129,-0.580,73.333,139.000,1.000,6.256,0.000
108214.600,101454.000,120387.800,114659.900,92193.960,87156.780,82130.630,84910.590,-0.176,0.959,-0.221,-3.204,0.580,-0.702,73.333,140.000,1.000,3.020,0.000
107685.800,100958.300,119746.800,114060.900,91745.450,86742.400,81733.180,84496.480,-0.174,0.959,-0.218,-3.204,0.000,-0.824,73.333,141.000,1.000,0.011,0.000
107109.700,100416.700,119029.500,113397.200,91257.900,86287.650,81300.870,84048.490,-0.170,0.961,-0.218,-3.235,-0.519,-0.916,73.333,142.000,1.000,1.958,0.000
106565.300,99902.910,118374.800,112786.300,90797.750,85855.520,80891.650,83626.410,-0.168,0.963,-0.219,-3.204,-0.854,-1.038,73.333,143.000,1.000,13.752,0.000
106087.000,99453.550,117835.500,112273.700,90394.190,85475.050,80530.910,83254.600,-0.165,0.965,-0.219,-3.418,-1.190,-1.007,73.333,144.000,1.000,3.047,0.000
105619.900,99016.160,117308.300,111772.200,89997.580,85100.000,80175.070,82886.220,-0.168,0.968,-0.220,-3.601,-1.526,-0.916,73.333,145.000,1.000,0.010,0.000
105097.100,98525.050,116681.200,111186.100,89551.110,84676.670,79777.260,82472.600,-0.166,0.969,-0.218,-3.662,-1.831,-0.885,73.333,146.000,1.000,16.972,0.000
104498.100,97961.670,115930.400,110495.800,89041.750,84192.720,79328.800,82004.510,-0.164,0.970,-0.216,-3.815,-2.106,-0.793,73.333,147.000,1.000,2.393,0.000
103937.700,97435.890,115254.200,109869.400,88568.050,83741.120,78914.090,81569.690,-0.158,0.973,-0.219,-4.059,-2.289,-0.885,73.333,148.000,1.000,5.741,0.000
103465.400,96994.720,114728.300,109370.300,88168.840,83358.300,78562.070,81201.090,-0.157,0.971,-0.220,-4.242,-2.411,-0.854,73.333,149.000,1.000,0.040,0.000
103014.500,96571.300,114231.600,108896.100,87783.580,82985.930,78216.730,80844.350,-0.156,0.968,-0.218,-4.425,-2.380,-0.885,73.333,150.000,1.000,1.807,0.000
102500.800,96082.950,113619.300,108323.700,87339.740,82555.550,77814.700,80433.900,-0.153,0.964,-0.217,-4.547,-2.167,-0.854,73.333,151.000,1.000,2.417,0.000
101905.500,95513.880,112864.000,107628.700,86824.040,82057.590,77350.370,79958.240,-0.151,0.962,-0.215,-4.639,-2.014,-0.854,73.333,152.000,1.000,2.554,0.000
101360.300,94992.640,112195.400,107007.700,86351.420,81601.200,76929.410,79525.700,-0.148,0.960,-0.212,-4.639,-1.709,-0.763,73.333,153.000,1.000,2.471,0.000
100913.500,94568.080,111695.800,106532.900,85963.340,81221.530,76580.980,79173.540,-0.146,0.959,-0.215,-4.547,-1.465,-0.763,73.333,154.000,1.000,3.749,0.000
100483.500,94161.650,111228.000,106083.500,85590.080,80854.010,76239.250,78832.530,-0.144,0.954,-0.216,-4.578,-1.160,-0.732,73.333,155.000,1.000,6.859,0.000
99972.520,93679.170,110626.600,105516.800,85149.580,80428.990,75839.550,78423.790,-0.143,0.950,-0.215,-4.303,-0.854,-0.671,73.333,156.000,1.000,0.008,0.000
99367.830,93113.180,109867.800,104818.400,84632.330,79939.910,75377.680,77940.290,-0.141,0.948,-0.215,-4.028,-0.458,-0.702,73.333,157.000,1.000,8.188,0.000
98811.760,92600.410,109193.500,104194.000,84160.450,79499.910,74960.150,77500.360,-0.140,0.948,-0.213,-3.723,0.000,-0.702,73.333,158.000,1.000,3.051,0.000
98358.110,92185.410,108691.700,103716.400,83779.460,79150.940,74627.540,77149.350,-0.142,0.950,-0.208,-3.418,0.336,-0.610,73.333,159.000,1.000,0.011,0.000
97935.720,91797.250,108238.300,103280.300,83427.120,78831.540,74323.080,76827.080,-0.141,0.952,-0.210,-3.204,0.610,-0.549,73.333,160.000,1.000,1.908,0.000
97441.570,91341.860,107661.700,102737.300,83013.480,78452.640,73962.200,76448.040,-0.144,0.956,-0.208,-2.991,1.038,-0.519,73.333,161.000,1.000,6.215,0.000
96847.400,90792.470,106921.100,102052.400,82513.250,77988.550,73518.190,75988.530,-0.145,0.959,-0.210,-2.777,1.373,-0.549,73.333,162.000,1.000,9.352,0.000
96291.980,90275.920,106250.500,101427.700,82044.630,77551.770,73096.930,75556.630,-0.147,0.958,-0.205,-2.533,1.801,-0.610,73.333,163.000,1.000,0.011,0.000
95836.500,89850.300,105744.200,100944.000,81661.400,77194.520,72751.650,75203.680,-0.149,0.960,-0.208,-2.411,2.014,-0.610,73.333,164.000,1.000,1.869,0.000
95416.600,89457.150,105289.700,100506.800,81310.190,76867.240,72437.880,74882.090,-0.155,0.959,-0.210,-2.319,2.289,-0.793,73.333,165.000,1.000,3.721,0.000
94932.860,89003.700,104723.100,99979.530,80904.650,76487.970,72077.340,74511.400,-0.156,0.963,-0.211,-2.258,2.472,-0.885,73.333,166.000,1.000,11.975,0.000
94354.240,88461.540,104002.300,99320.990,80416.410,76028.190,71641.820,74063.830,-0.161,0.967,-0.212,-2.197,2.625,-1.038,73.333,167.000,1.000,0.016,0.000
93804.520,87947.060,103339.400,98705.880,79950.840,75586.300,71224.200,73635.150,-0.164,0.970,-0.211,-2.228,2.625,-1.007,73.333,168.000,1.000,2.476,0.000
93345.760,87517.800,102827.400,98216.870,79561.670,75214.750,70875.580,73277.310,-0.167,0.970,-0.210,-2.167,2.625,-1.038,73.333,169.000,1.000,0.014,0.000
92927.480,87125.530,102373.000,97779.450,79206.660,74874.680,70559.900,72952.630,-0.171,0.973,-0.213,-2.197,2.533,-1.068,73.333,170.000,1.000,1.753,0.000
92454.910,86681.910,101821.300,97261.580,78803.790,74487.980,70200.590,72582.320,-0.174,0.975,-0.213,-2.441,2.502,-1.190,73.333,171.000,1.000,8.768,0.000
91900.620,86160.910,101132.800,96626.900,78327.950,74031.410,69773.490,72142.100,-0.174,0.973,-0.212,-2.533,2.411,-1.160,73.333,172.000,1.000,3.798,0.000
91376.450,85665.630,100498.800,96036.090,77875.260,73596.480,69367.370,71723.440,-0.175,0.973,-0.213,-2.747,2.258,-1.099,73.333,173.000,1.000,3.742,0.000
90923.830,85235.160,99989.270,95548.280,77483.140,73220.370,69019.170,71363.270,-0.172,0.971,-0.214,-3.021,2.167,-1.068,73.333,174.000,1.000,11.814,0.000
90494.730,84826.500,99518.930,95093.770,77111.620,72867.020,68693.510,71024.150,-0.172,0.971,-0.216,-3.052,1.984,-0.824,73.333,175.000,1.000,0.011,0.000
90017.200,84373.340,98962.510,94570.620,76699.850,72477.450,68334.060,70648.730,-0.175,0.970,-0.214,-3.265,1.862,-0.732,73.333,176.000,1.000,1.877,0.000
89472.550,83859.010,98291.680,93952.420,76232.510,72037.400,67926.450,70221.480,-0.174,0.967,-0.212,-3.265,1.617,-0.549,73.333,177.000,1.000,2.583,0.000
88955.170,83373.380,97668.540,93372.020,75788.290,71620.020,67535.710,69812.430,-0.173,0.964,-0.209,-3.418,1.556,-0.397,73.333,178.000,1.000,3.717,0.000
88502.050,82948.520,97154.460,92882.840,75397.020,71248.310,67182.430,69449.060,-0.172,0.964,-0.211,-3.296,1.404,-0.122,73.333,179.000,1.000,9.281,0.000
88075.760,82548.300,96683.600,92432.200,75031.020,70898.150,66848.610,69107.630,-0.172,0.961,-0.211,-3.387,1.343,-0.122,73.333,180.000,1.000,0.009,0.000
87609.840,82116.120,96145.250,91925.260,74638.480,70526.800,66496.100,68740.860,-0.170,0.959,-0.211,-3.387,1.190,0.031,73.333,181.000,1.000,1.900,0.000
87080.560,81629.730,95505.860,91331.170,74196.330,70111.090,66101.060,68328.290,-0.170,0.958,-0.213,-3.387,1.068,0.031,73.333,182.000,1.000,2.576,0.000
86569.980,81160.380,94902.570,90766.200,73769.980,69710.450,65718.430,67930.590,-0.166,0.958,-0.213,-3.387,1.007,0.214,73.333,183.000,1.000,33.804,0.000
86117.510,80743.500,94394.140,90281.310,73392.800,69358.480,65380.760,67578.530,-0.163,0.957,-0.213,-3.448,1.160,0.244,73.333,184.000,1.000,3.069,0.000
85688.120,80346.320,93920.450,89826.520,73032.960,69024.910,65061.290,67244.720,-0.162,0.958,-0.213,-3.326,1.129,0.244,73.333,185.000,1.000,0.007,0.000
85223.660,79913.610,93384.870,89320.340,72639.110,68658.300,64711.110,66881.800,-0.160,0.959,-0.213,-3.326,1.160,0.153,73.333,186.000,1.000,1.962,0.000
84712.160,79435.840,92768.570,88747.310,72204.460,68250.560,64320.950,66480.920,-0.159,0.959,-0.214,-3.204,1.251,0.183,73.333,187.000,1.000,2.363,0.000
84215.860,78973.080,92180.910,88201.020,71784.450,67855.300,63942.660,66093.900,-0.161,0.962,-0.214,-3.235,1.251,0.092,73.333,188.000,1.000,2.514,0.000
83760.920,78549.370,91664.260,87713.610,71399.150,67493.770,63599.340,65741.200,-0.160,0.964,-0.213,-3.174,1.190,0.000,73.333,189.000,1.000,2.451,0.000
83327.380,78145.340,91178.700,87247.680,71028.960,67147.270,63272.700,65403.770,-0.159,0.964,-0.212,-3.235,1.282,0.031,73.333,190.000,1.000,2.544,0.000
82868.020,77715.070,90646.840,86743.130,70634.100,66776.620,62922.400,65044.000,-0.157,0.966,-0.211,-3.113,1.343,-0.031,73.333,191.000,1.000,2.467,0.000
82364.790,77240.880,90045.740,86182.650,70201.480,66369.070,62536.320,64650.300,-0.158,0.964,-0.209,-3.143,1.343,-0.244,73.333,192.000,1.000,2.521,0.000
81871.340,76775.160,89465.020,85638.950,69777.870,65969.700,62160.430,64266.320,-0.158,0.962,-0.208,-3.113,1.526,-0.244,73.333,193.000,1.000,2.469,0.000
81417.380,76347.080,88946.470,85150.030,69388.810,65602.690,61819.540,63914.710,-0.159,0.960,-0.209,-3.113,1.556,-0.336,73.333,194.000,1.000,2.496,0.000
80987.520,75942.120,88460.250,84691.900,69022.030,65254.630,61499.720,63581.380,-0.157,0.963,-0.211,-3.082,1.587,-0.519,73.333,195.000,1.000,5.636,0.000
80543.160,75524.490,87943.840,84207.430,68643.930,64894.880,61170.500,63235.950,-0.158,0.962,-0.215,-3.204,1.648,-0.549,73.333,196.000,1.000,0.012,0.000
80066.450,75076.670,87374.400,83675.130,68236.810,64509.400,60817.770,62865.230,-0.156,0.964,-0.211,-3.265,1.770,-0.671,73.333,197.000,1.000,2.422,0.000
79587.360,74623.340,86808.800,83142.840,67824.420,64116.140,60456.090,62489.500,-0.156,0.964,-0.212,-3.265,1.953,-0.824,73.333,198.000,1.000,0.007,0.000
79126.860,74184.500,86279.110,82639.910,67426.280,63728.630,60096.300,62122.690,-0.157,0.964,-0.213,-3.418,1.984,-0.885,73.333,199.000,1.000,1.922,0.000
78685.300,73764.490,85777.140,82165.160,67046.000,63356.840,59748.220,61769.000,-0.156,0.960,-0.212,-3.540,2.136,-0.916,73.333,200.000,1.000,8.770,0.000
78239.990,73343.340,85261.520,81683.250,66663.660,62988.900,59401.180,61414.960,-0.156,0.956,-0.212,-3.571,2.350,-0.885,73.333,201.000,1.000,6.826,0.000
77778.380,72909.590,84715.480,81171.960,66267.090,62612.140,59043.960,61049.860,-0.156,0.954,-0.213,-3.510,2.563,-0.824,73.333,202.000,1.000,0.010,0.000
77319.710,72481.180,84178.210,80661.940,65874.290,62242.610,58692.420,60685.780,-0.156,0.954,-0.211,-3.418,2.625,-0.824,73.333,203.000,1.000,13.736,0.000
76871.630,72065.510,83665.880,80173.020,65494.340,61888.410,58353.520,60330.200,-0.154,0.956,-0.210,-3.418,2.747,-0.671,73.333,204.000,1.000,0.013,0.000
76430.240,71659.500,83167.880,79699.280,65124.060,61545.010,58022.270,59983.230,-0.156,0.956,-0.208,-3.265,2.777,-0.763,73.333,205.000,1.000,2.451,0.000
75979.370,71246.350,82653.420,79211.100,64746.470,61195.800,57682.590,59629.960,-0.158,0.957,-0.204,-3.082,2.991,-0.702,73.333,206.000,1.000,0.011,0.000
75518.090,70822.970,82118.380,78704.980,64358.610,60836.820,57331.630,59267.460,-0.161,0.960,-0.207,-2.899,3.052,-0.610,73.333,207.000,1.000,1.910,0.000
75069.220,70409.280,81597.950,78213.070,63980.390,60486.380,56991.440,58916.700,-0.162,0.963,-0.208,-2.869,3.204,-0.488,73.333,208.000,1.000,3.719,0.000
74635.570,70006.920,81099.880,77741.630,63614.700,60147.770,56668.470,58581.750,-0.164,0.962,-0.206,-2.716,3.204,-0.397,73.333,209.000,1.000,4.375,0.000
74204.630,69603.890,80607.930,77276.900,63250.110,59808.160,56347.800,58248.910,-0.164,0.962,-0.209,-2.472,3.235,-0.305,73.333,210.000,1.000,0.008,0.000
73761.270,69187.720,80098.890,76798.910,62874.050,59453.810,56014.010,57904.020,-0.166,0.964,-0.208,-2.411,3.174,-0.275,73.333,211.000,1.000,13.138,0.000
73306.150,68759.880,79573.200,76307.160,62487.750,59087.000,55669.570,57549.590,-0.167,0.965,-0.208,-2.411,3.113,-0.275,73.333,212.000,1.000,5.021,0.000
72856.050,68335.580,79054.210,75820.550,62104.260,58722.120,55327.640,57199.860,-0.168,0.968,-0.211,-2.350,2.960,-0.305,73.333,213.000,1.000,0.009,0.000
72417.790,67922.310,78549.520,75345.780,61728.480,58365.290,54994.290,56859.730,-0.167,0.967,-0.208,-2.472,2.838,-0.336,73.333,214.000,1.000,0.006,0.000
71982.980,67514.230,78050.690,74876.040,61354.520,58010.300,54664.510,56522.020,-0.168,0.966,-0.207,-2.472,2.747,-0.397,73.333,215.000,1.000,2.437,0.000
71538.170,67097.420,77541.590,74395.660,60972.910,57646.800,54328.020,56175.140,-0.167,0.966,-0.210,-2.411,2.563,-0.366,73.333,216.000,1.000,3.729,0.000
71085.230,66669.550,77021.470,73903.660,60584.460,57275.070,53983.950,55819.630,-0.167,0.965,-0.211,-2.411,2.350,-0.214,73.333,217.000,1.000,8.825,0.000
70638.160,66243.940,76505.000,73415.710,60198.700,56905.180,53642.100,55466.140,-0.168,0.962,-0.212,-2.533,2.197,-0.275,73.333,218.000,1.000,9.271,0.000
70203.130,65831.020,76001.010,72940.380,59821.730,56544.690,53309.610,55119.980,-0.167,0.961,-0.211,-2.441,2.014,-0.214,73.333,219.000,1.000,0.019,0.000
69776.090,65429.090,75508.490,72475.110,59453.690,56193.100,52983.420,54780.700,-0.166,0.962,-0.212,-2.533,1.831,-0.214,73.333,220.000,1.000,16.292,0.000
69353.190,65032.160,75020.410,72014.690,59092.760,55847.610,52660.280,54448.370,-0.169,0.966,-0.212,-2.441,1.678,-0.122,73.333,221.000,1.000,0.013,0.000
68930.970,64634.910,74531.350,71555.060,58733.860,55503.560,52338.420,54118.480,-0.167,0.969,-0.211,-2.563,1.282,-0.244,73.333,222.000,1.000,4.666,0.000
68502.410,64232.280,74037.110,71091.000,58370.730,55155.220,52013.920,53783.930,-0.169,0.970,-0.211,-2.533,1.099,-0.122,73.333,223.000,1.000,0.006,0.000
68069.940,63828.050,73541.130,70625.880,58006.700,54806.390,51689.320,53447.610,-0.167,0.968,-0.211,-2.594,0.854,-0.092,73.333,224.000,1.000,0.004,0.000
67633.270,63420.170,73042.020,70155.270,57639.770,54455.780,51360.540,53108.030,-0.169,0.969,-0.214,-2.808,0.610,-0.214,73.333,225.000,1.000,4.622,0.000
67191.210,63006.930,72538.260,69676.040,57267.340,54101.840,51025.000,52763.720,-0.167,0.968,-0.216,-2.930,0.336,-0.214,73.333,226.000,1.000,2.516,0.000
66759.980,62606.000,72047.480,69210.820,56904.610,53759.660,50699.450,52429.380,-0.166,0.970,-0.214,-3.021,0.092,-0.183,73.333,227.000,1.000,4.377,0.000
66341.830,62219.410,71569.510,68761.990,56555.050,53431.930,50388.740,52107.590,-0.166,0.973,-0.216,-3.296,-0.153,-0.122,73.333,228.000,1.000,0.006,0.000
65922.950,61831.690,71087.840,68309.800,56204.660,53104.830,50077.950,51782.640,-0.163,0.973,-0.215,-3.418,-0.275,-0.214,73.333,229.000,1.000,13.757,0.000
65500.060,61438.610,70601.390,67849.600,55847.200,52771.960,49758.080,51447.180,-0.163,0.970,-0.213,-3.601,-0.397,-0.275,73.333,230.000,1.000,0.010,0.000
65078.320,61045.370,70118.610,67390.780,55488.380,52437.630,49435.590,51110.490,-0.160,0.970,-0.216,-3.723,-0.580,-0.183,73.333,231.000,1.000,11.279,0.000
64661.970,60656.880,69643.190,66940.400,55134.610,52107.420,49119.290,50781.590,-0.161,0.970,-0.217,-3.876,-0.732,-0.214,73.333,232.000,1.000,0.013,0.000
64246.700,60269.800,69166.330,66490.480,54782.210,51778.860,48806.420,50456.250,-0.159,0.969,-0.215,-4.089,-0.946,-0.275,73.333,233.000,1.000,1.869,0.000
63823.840,59874.890,68680.360,66031.480,54423.860,51445.090,48489.570,50127.110,-0.159,0.968,-0.207,-4.150,-1.038,-0.305,73.333,234.000,1.000,2.466,0.000
63391.710,59469.980,68187.060,65564.320,54058.640,51103.120,48165.570,49791.160,-0.157,0.968,-0.209,-4.242,-1.129,-0.458,73.333,235.000,1.000,2.552,0.000
62961.950,59068.350,67699.080,65101.580,53695.830,50762.230,47841.930,49454.760,-0.156,0.968,-0.213,-4.303,-1.190,-0.549,73.333,236.000,1.000,3.048,0.000
62543.480,58678.690,67225.230,64652.100,53341.430,50430.730,47526.700,49126.460,-0.156,0.964,-0.211,-4.425,-1.282,-0.763,73.333,237.000,1.000,0.010,0.000
62126.600,58288.140,66750.750,64202.680,52984.760,50095.570,47209.030,48799.390,-0.156,0.962,-0.210,-4.456,-1.160,-0.824,73.333,238.000,1.000,1.903,0.000
61706.750,57890.990,66268.790,63746.790,52621.070,49748.290,46883.220,48468.640,-0.155,0.958,-0.208,-4.364,-1.190,-1.068,73.333,239.000,1.000,6.177,0.000
61293.050,57497.980,65791.410,63296.890,52260.310,49400.810,46561.590,48143.390,-0.153,0.953,-0.207,-4.272,-1.007,-1.373,73.333,240.000,1.000,9.418,0.000
60890.180,57114.490,65325.250,62859.520,51907.610,49061.010,46248.540,47827.610,-0.152,0.952,-0.208,-4.059,-0.793,-1.556,73.333,241.000,1.000,0.012,0.000
60491.630,56735.770,64864.040,62427.350,51557.680,48725.090,45938.550,47514.240,-0.151,0.954,-0.209,-3.876,-0.519,-1.556,73.333,242.000,1.000,1.844,0.000
60084.530,56350.990,64393.210,61986.970,51201.440,48385.310,45624.190,47193.080,-0.151,0.955,-0.212,-3.723,-0.366,-1.587,73.333,243.000,1.000,8.697,0.000
59666.590,55955.600,63911.020,61534.020,50838.790,48040.070,45302.040,46862.790,-0.152,0.956,-0.210,-3.540,-0.153,-1.617,73.333,244.000,1.000,3.142,0.000
59250.710,55560.370,63432.260,61080.690,50482.380,47700.430,44983.920,46535.880,-0.153,0.957,-0.206,-3.571,0.092,-1.434,73.333,245.000,1.000,0.005,0.000
58846.830,55177.580,62969.480,60643.150,50140.420,47374.460,44681.040,46221.440,-0.151,0.956,-0.204,-3.448,0.275,-1.312,73.333,246.000,1.000,6.913,0.000
58447.410,54803.340,62516.410,60216.120,49804.590,47053.980,44383.810,45911.110,-0.151,0.957,-0.208,-3.143,0.519,-1.282,73.333,247.000,1.000,4.939,0.000
58044.860,54430.290,62060.860,59784.550,49468.790,46734.140,44084.510,45597.920,-0.152,0.956,-0.208,-3.021,0.824,-1.099,73.333,248.000,1.000,2.489,0.000
57644.160,54061.190,61604.660,59350.340,49135.950,46419.570,43785.880,45285.040,-0.153,0.955,-0.210,-2.777,1.129,-0.946,73.333,249.000,1.000,2.542,0.000
57245.340,53694.090,61148.950,58917.140,48801.840,46105.830,43483.520,44970.470,-0.150,0.952,-0.209,-2.747,1.404,-0.763,73.333,250.000,1.000,12.526,0.000
56848.050,53326.860,60696.560,58487.210,48465.770,45790.380,43179.040,44655.560,-0.147,0.949,-0.209,-2.563,1.617,-0.641,73.333,251.000,1.000,3.046,0.000
56454.340,52960.690,60249.850,58062.150,48131.700,45476.580,42878.210,44344.570,-0.147,0.948,-0.209,-2.319,1.953,-0.519,73.333,252.000,1.000,0.006,0.000
56058.780,52590.790,59798.730,57633.310,47795.170,45161.860,42576.360,44031.070,-0.147,0.949,-0.208,-1.862,2.472,-0.214,73.333,253.000,1.000,1.879,0.000
55662.640,52219.160,59343.220,57201.710,47456.870,44848.730,42274.650,43714.370,-0.150,0.952,-0.212,-1.770,2.747,-0.031,73.333,254.000,1.000,3.792,0.000
55269.380,51849.310,58889.560,56774.120,47120.340,44540.030,41977.980,43401.340,-0.152,0.953,-0.208,-1.709,2.869,0.153,73.333,255.000,1.000,8.766,0.000
54877.040,51479.570,58438.920,56349.460,46784.700,44231.110,41684.520,43093.370,-0.156,0.956,-0.208,-1.648,2.930,0.244,73.333,256.000,1.000,3.045,0.000
54486.690,51111.140,57992.510,55927.870,46450.880,43919.640,41391.440,42788.070,-0.162,0.961,-0.210,-1.587,3.052,0.366,73.333,257.000,1.000,0.008,0.000
54095.270,50741.290,57544.330,55504.960,46115.770,43604.460,41093.820,42480.130,-0.167,0.965,-0.213,-1.556,2.991,0.305,73.333,258.000,1.000,1.955,0.000
53696.410,50364.630,57087.210,55072.750,45772.710,43282.770,40787.610,42165.130,-0.171,0.966,-0.214,-1.648,2.991,0.214,73.333,259.000,1.000,11.232,0.000
53294.250,49984.880,56625.940,54636.350,45423.300,42955.530,40477.140,41847.420,-0.177,0.969,-0.214,-1.831,2.808,0.092,73.333,260.000,1.000,3.069,0.000
52899.750,49611.560,56173.560,54209.590,45077.770,42629.880,40171.930,41536.270,-0.182,0.973,-0.211,-2.106,2.472,0.061,73.333,261.000,1.000,0.008,0.000
52511.800,49243.430,55729.740,53789.920,44738.680,42308.880,39872.100,41229.980,-0.184,0.979,-0.212,-2.197,2.258,-0.183,73.333,262.000,1.000,1.928,0.000
52122.300,48873.100,55283.730,53367.580,44400.700,41989.110,39570.950,40921.580,-0.185,0.985,-0.210,-2.533,2.045,-0.275,73.333,263.000,1.000,8.719,0.000
51733.310,48504.070,54838.120,52949.210,44066.930,41671.910,39273.200,40617.450,-0.182,0.989,-0.211,-2.930,1.678,-0.366,73.333,264.000,1.000,4.344,0.000
51348.860,48142.290,54398.560,52538.540,43741.490,41358.650,38984.340,40322.830,-0.181,0.991,-0.214,-3.296,1.312,-0.488,73.333,265.000,1.000,0.011,0.000
50964.950,47782.940,53961.050,52126.320,43416.950,41043.500,38693.860,40026.000,-0.176,0.991,-0.212,-3.784,0.885,-0.610,73.333,266.000,1.000,19.359,0.000
50576.000,47418.770,53520.710,51707.550,43086.180,40722.860,38393.280,39718.840,-0.170,0.990,-0.212,-4.242,0.671,-0.397,73.333,267.000,1.000,0.011,0.000
50185.110,47053.560,53080.300,51287.570,42754.690,40403.310,38092.260,39410.550,-0.163,0.986,-0.212,-4.639,0.549,-0.244,73.333,268.000,1.000,0.003,0.000
49801.670,46697.120,52647.180,50875.490,42431.710,40094.180,37802.570,39112.280,-0.158,0.979,-0.208,-4.974,0.549,-0.092,73.333,269.000,1.000,2.473,0.000
49424.480,46347.570,52218.440,50469.540,42114.180,39792.780,37520.500,38820.570,-0.157,0.974,-0.210,-5.035,0.610,0.153,73.333,270.000,1.000,2.531,0.000
49047.640,45997.990,51789.030,50064.180,41795.680,39492.430,37239.200,38527.980,-0.153,0.968,-0.208,-5.219,0.793,0.336,73.333,271.000,1.000,2.544,0.000
48674.340,45651.210,51364.660,49663.020,41480.300,39196.240,36962.680,38238.570,-0.153,0.965,-0.208,-5.280,1.007,0.458,73.333,272.000,1.000,2.460,0.000
48302.610,45306.390,50943.710,49264.580,41167.810,38901.740,36687.800,37951.180,-0.154,0.961,-0.208,-5.219,1.099,0.610,73.333,273.000,1.000,2.731,0.000
47924.490,44955.180,50516.040,48860.170,40849.610,38598.930,36401.640,37652.860,-0.154,0.956,-0.211,-5.157,1.129,0.732,73.333,274.000,1.000,8.556,0.000
47545.900,44602.240,50086.610,48453.480,40529.520,38294.220,36109.500,37346.620,-0.155,0.952,-0.207,-4.974,1.160,0.732,73.333,275.000,1.000,3.156,0.000
47171.800,44253.910,49663.220,48049.450,40213.050,37996.700,35822.320,37043.520,-0.157,0.948,-0.203,-4.700,1.312,0.641,73.333,276.000,1.000,0.020,0.000
46795.180,43904.380,49239.700,47642.630,39894.540,37700.750,35536.070,36740.950,-0.159,0.946,-0.206,-4.425,1.343,0.519,73.333,277.000,1.000,8.092,0.000
46419.860,43556.590,48816.230,47238.440,39577.130,37407.720,35252.970,36441.400,-0.161,0.945,-0.206,-4.211,1.282,0.397,73.333,278.000,1.000,4.944,0.000
46049.240,43212.580,48394.960,46840.860,39264.530,37120.320,34977.050,36149.690,-0.162,0.948,-0.206,-3.845,1.251,0.092,73.333,279.000,1.000,4.969,0.000
45677.840,42865.910,47972.180,46443.260,38951.840,36832.530,34703.140,35861.350,-0.163,0.951,-0.206,-3.662,1.068,-0.092,73.333,280.000,1.000,4.984,0.000
45307.910,42518.970,47551.520,46047.510,38638.800,36542.880,34429.220,35573.380,-0.161,0.953,-0.204,-3.510,1.007,-0.336,73.333,281.000,1.000,2.507,0.000
44939.810,42171.840,47132.440,45653.380,38323.890,36249.910,34153.710,35283.180,-0.161,0.955,-0.204,-3.235,0.916,-0.519,73.333,282.000,1.000,2.475,0.000
44570.660,41821.640,46710.610,45256.630,38005.220,35951.450,33873.190,34991.150,-0.163,0.957,-0.206,-3.082,0.824,-0.946,73.333,283.000,1.000,5.001,0.000
44203.450,41472.720,46289.830,44860.700,37686.680,35647.910,33585.960,34702.030,-0.163,0.958,-0.208,-3.143,0.763,-1.190,73.333,284.000,1.000,5.063,0.000
43837.300,41126.640,45871.450,44466.490,37368.680,35339.000,33293.660,34414.790,-0.161,0.960,-0.205,-2.960,0.763,-1.343,73.333,285.000,1.000,4.957,0.000
43469.930,40780.400,45455.840,44073.100,37051.720,35031.650,33005.450,34129.070,-0.160,0.960,-0.207,-2.869,0.763,-1.526,73.333,286.000,1.000,2.464,0.000
43104.700,40434.300,45045.200,43683.030,36739.520,34733.760,32726.990,33847.990,-0.161,0.961,-0.202,-2.808,0.671,-1.556,73.333,287.000,1.000,14.408,0.000
42739.880,40089.180,44633.420,43291.880,36427.770,34439.120,32451.020,33566.410,-0.163,0.966,-0.206,-2.747,0.641,-1.556,73.333,288.000,1.000,0.009,0.000
42374.350,39746.120,44217.730,42897.860,36114.800,34144.640,32177.230,33283.150,-0.165,0.966,-0.209,-2.777,0.458,-1.526,73.333,289.000,1.000,1.826,0.000
42012.820,39407.410,43803.750,42507.710,35806.960,33856.690,31912.570,33005.650,-0.165,0.966,-0.212,-2.869,0.488,-1.312,73.333,290.000,1.000,2.544,0.000
41652.590,39069.390,43390.720,42120.580,35501.410,33569.450,31647.430,32729.480,-0.167,0.966,-0.211,-2.930,0.458,-1.282,73.333,291.000,1.000,2.406,0.000
41290.950,38730.630,42978.090,41734.140,35194.320,33275.580,31371.670,32448.250,-0.168,0.967,-0.204,-2.960,0.366,-1.312,73.333,292.000,1.000,2.523,0.000
40931.390,38394.580,42570.350,41351.240,34890.100,32980.660,31093.000,32167.490,-0.168,0.967,-0.204,-3.113,0.336,-1.221,73.333,293.000,1.000,2.601,0.000
40572.220,38058.790,42164.670,40967.320,34587.110,32687.600,30817.880,31887.030,-0.169,0.967,-0.206,-3.326,0.275,-1.099,73.333,294.000,1.000,2.494,0.000
40212.520,37721.960,41757.750,40579.320,34281.670,32396.210,30545.240,31602.570,-0.170,0.967,-0.207,-3.326,0.244,-0.946,73.333,295.000,1.000,12.419,0.000
39861.930,37394.630,41359.750,40199.670,33982.880,32114.970,30280.790,31323.220,-0.167,0.966,-0.210,-3.296,0.092,-0.916,73.333,296.000,1.000,3.203,0.000
39525.180,37082.230,40977.180,39834.470,33698.170,31848.270,30028.720,31055.950,-0.166,0.964,-0.204,-3.418,0.153,-0.702,73.333,297.000,1.000,0.008,0.000
39191.570,36771.250,40598.450,39471.010,33417.450,31584.380,29777.190,30790.530,-0.164,0.963,-0.205,-3.418,0.092,-0.458,73.333,298.000,1.000,8.005,0.000
38847.230,36447.900,40208.460,39096.910,33125.990,31309.750,29511.490,30513.460,-0.162,0.962,-0.203,-3.448,0.122,-0.275,73.333,299.000,1.000,2.536,0.000
38488.400,36111.110,39802.840,38711.280,32820.550,31023.660,29232.890,30223.960,-0.159,0.959,-0.203,-3.387,0.275,-0.122,73.333,300.000,1.000,3.070,0.000
38126.860,35772.430,39393.960,38325.900,32513.320,30739.220,28958.250,29936.770,-0.156,0.956,-0.199,-3.387,0.427,0.031,73.333,301.000,1.000,0.011,0.000
37774.200,35443.030,38994.320,37949.750,32214.580,30465.070,28696.250,29660.970,-0.155,0.956,-0.202,-3.387,0.610,0.275,73.333,302.000,1.000,1.869,0.000
37428.340,35120.500,38601.040,37578.420,31920.310,30194.770,28439.520,29389.720,-0.155,0.958,-0.205,-3.296,0.824,0.427,73.333,303.000,1.000,18.140,0.000
37085.640,34800.460,38210.580,37208.990,31626.770,29923.850,28183.620,29118.740,-0.155,0.960,-0.201,-3.235,1.007,0.641,73.333,304.000,1.000,0.012,0.000
36740.510,34477.770,37820.530,36839.410,31331.020,29649.050,27923.810,28845.700,-0.154,0.961,-0.202,-3.082,1.160,0.580,73.333,305.000,1.000,3.126,0.000
36387.800,34147.780,37427.100,36466.180,31029.810,29365.800,27654.720,28567.910,-0.156,0.961,-0.202,-2.960,1.343,0.641,73.333,306.000,1.000,0.008,0.000
36035.620,33817.210,37033.800,36093.380,30728.580,29079.980,27383.590,28291.610,-0.157,0.963,-0.201,-2.899,1.526,0.549,73.333,307.000,1.000,0.006,0.000
35691.540,33492.070,36644.300,35725.940,30431.350,28797.460,27117.300,28020.690,-0.157,0.965,-0.204,-2.808,1.709,0.519,73.333,308.000,1.000,2.566,0.000
35353.230,33170.580,36258.190,35362.110,30137.510,28517.380,26855.170,27754.070,-0.160,0.966,-0.204,-2.838,1.801,0.366,73.333,309.000,1.000,2.441,0.000
35016.950,32850.430,35874.670,34997.250,29846.860,28238.620,26595.940,27491.080,-0.160,0.969,-0.202,-2.747,1.953,0.244,73.333,310.000,1.000,11.301,0.000
34681.790,32531.740,35493.120,34632.710,29557.530,27961.070,26338.570,27230.020,-0.158,0.968,-0.200,-2.655,2.014,-0.061,73.333,311.000,1.000,4.303,0.000
34344.210,32212.210,35109.550,34269.690,29264.540,27681.390,26079.300,26967.600,-0.157,0.968,-0.206,-2.747,1.953,-0.244,73.333,312.000,1.000,0.017,0.000
33998.970,31886.850,34719.820,33903.240,28964.970,27395.500,25814.570,26700.120,-0.157,0.965,-0.203,-2.686,2.106,-0.305,73.333,313.000,1.000,5.040,0.000
33652.770,31561.420,34331.130,33536.620,28667.100,27111.060,25551.810,26433.270,-0.156,0.966,-0.206,-2.655,2.228,-0.458,73.333,314.000,1.000,0.014,0.000
33318.700,31249.110,33955.780,33180.380,28382.920,26840.230,25301.130,26177.480,-0.158,0.967,-0.206,-2.747,2.441,-0.488,73.333,315.000,1.000,1.804,0.000
32991.740,30944.770,33588.370,32830.210,28106.800,26576.240,25055.100,25926.090,-0.158,0.969,-0.208,-2.777,2.472,-0.580,73.333,316.000,1.000,13.765,0.000
32658.420,30634.280,33214.820,32475.090,27825.420,26305.370,24802.520,25666.770,-0.160,0.969,-0.210,-2.869,2.563,-0.732,73.333,317.000,1.000,3.058,0.000
32324.290,30323.250,32839.180,32120.160,27543.440,26033.520,24550.150,25406.010,-0.161,0.970,-0.210,-2.930,2.563,-0.916,73.333,318.000,1.000,0.011,0.000
31995.480,30017.440,32466.800,31768.860,27265.800,25767.020,24301.210,25148.320,-0.161,0.970,-0.206,-3.082,2.625,-0.977,73.333,319.000,1.000,1.917,0.000
31667.480,29711.210,32094.030,31414.910,26988.140,25502.860,24050.360,24888.260,-0.162,0.970,-0.204,-3.143,2.563,-0.916,73.333,320.000,1.000,16.933,0.000
31343.470,29407.480,31725.540,31062.740,26714.540,25246.430,23803.520,24630.370,-0.165,0.969,-0.205,-3.296,2.289,-0.885,73.333,321.000,1.000,0.015,0.000
31024.750,29109.760,31363.580,30716.810,26446.090,24998.710,23562.920,24375.480,-0.171,0.967,-0.206,-3.357,2.197,-0.946,73.333,322.000,1.000,2.466,0.000
30704.740,28813.280,31002.110,30370.990,26177.060,24754.080,23325.520,24119.400,-0.176,0.965,-0.206,-3.448,1.953,-0.885,73.333,323.000,1.000,0.010,0.000
30381.390,28514.460,30639.030,30023.310,25906.730,24510.810,23091.580,23864.800,-0.178,0.965,-0.207,-3.448,1.862,-0.854,73.333,324.000,1.000,4.307,0.000
30054.250,28209.430,30272.150,29673.800,25631.240,24257.790,22847.130,23606.290,-0.180,0.962,-0.205,-3.418,1.495,-0.946,73.333,325.000,1.000,2.543,0.000
29727.910,27902.180,29904.900,29325.730,25352.430,23994.030,22589.540,23344.150,-0.179,0.959,-0.202,-3.387,1.160,-1.038,73.333,326.000,1.000,4.261,0.000
29405.460,27598.060,29540.670,28981.190,25075.830,23733.470,22336.790,23087.390,-0.178,0.956,-0.207,-3.296,0.916,-1.099,73.333,327.000,1.000,0.007,0.000
29079.900,27291.140,29172.960,28632.820,24795.770,23474.150,22088.470,22830.490,-0.177,0.956,-0.205,-3.082,0.580,-1.038,73.333,328.000,1.000,5.706,0.000
28752.890,26983.000,28804.440,28283.820,24514.080,23212.720,21838.690,22571.680,-0.175,0.955,-0.204,-2.960,0.366,-0.916,73.333,329.000,1.000,15.648,0.000
28432.220,26681.740,28442.470,27943.510,24239.040,22954.420,21592.810,22318.410,-0.172,0.953,-0.205,-2.808,0.153,-0.824,73.333,330.000,1.000,0.014,0.000
28114.300,26384.180,28081.800,27604.930,23966.340,22695.170,21349.700,22068.210,-0.173,0.951,-0.204,-2.563,0.000,-0.610,73.333,331.000,1.000,7.473,0.000
27792.500,26082.100,27716.830,27259.020,23689.630,22429.740,21104.760,21817.090,-0.171,0.953,-0.201,-2.258,-0.214,-0.488,73.333,332.000,1.000,0.010,0.000
27470.110,25777.500,27353.390,26913.430,23413.150,22163.120,20860.980,21568.850,-0.170,0.958,-0.204,-2.075,-0.092,-0.366,73.333,333.000,1.000,1.883,0.000
27149.420,25474.940,26993.420,26573.410,23138.620,21896.570,20618.710,21323.040,-0.167,0.961,-0.202,-1.862,-0.244,-0.183,73.333,334.000,1.000,3.062,0.000
26827.900,25174.410,26632.930,26233.070,22863.140,21629.460,20375.910,21076.550,-0.164,0.961,-0.202,-1.801,-0.305,0.061,73.333,335.000,1.000,0.005,0.000
26507.870,24876.940,26273.440,25891.680,22589.290,21366.850,20134.550,20830.560,-0.162,0.963,-0.203,-1.678,-0.275,0.214,73.333,336.000,1.000,9.397,0.000
26190.730,24580.840,25915.490,25552.090,22318.570,21107.340,19893.670,20585.460,-0.159,0.963,-0.202,-1.617,-0.183,0.458,73.333,337.000,1.000,3.154,0.000
25874.190,24282.490,25557.000,25214.460,22049.310,20847.200,19651.960,20340.460,-0.159,0.963,-0.203,-1.526,-0.092,0.580,73.333,338.000,1.000,0.004,0.000
25562.120,23986.740,25202.810,24881.930,21784.510,20591.940,19414.130,20098.060,-0.158,0.965,-0.207,-1.434,0.000,0.732,73.333,339.000,1.000,10.597,0.000
25259.440,23701.270,24859.110,24557.740,21527.950,20347.460,19184.560,19860.860,-0.159,0.964,-0.211,-1.404,0.092,0.854,73.333,340.000,1.000,3.017,0.000
24958.180,23419.130,24518.360,24234.610,21272.480,20105.200,18955.440,19621.300,-0.156,0.968,-0.210,-1.373,0.305,0.793,73.333,341.000,1.000,0.009,0.000
24652.650,23134.120,24173.650,23907.770,21012.430,19856.700,18719.810,19374.880,-0.157,0.968,-0.211,-1.434,0.427,0.824,73.333,342.000,1.000,2.017,0.000
24350.740,22852.140,23832.510,23583.200,20755.120,19609.950,18485.770,19131.370,-0.155,0.968,-0.210,-1.587,0.580,0.732,73.333,343.000,1.000,5.154,0.000
24053.710,22570.900,23496.730,23260.450,20503.030,19370.160,18258.400,18894.960,-0.155,0.969,-0.208,-1.678,0.793,0.610,73.333,344.000,1.000,24.836,0.000
23752.870,22284.090,23156.920,22933.110,20248.220,19130.400,18031.800,18657.610,-0.155,0.970,-0.209,-1.862,0.946,0.519,73.333,345.000,1.000,2.447,0.000
23444.600,21993.340,22809.150,22601.000,19986.870,18886.120,17801.140,18413.610,-0.156,0.970,-0.208,-2.014,1.190,0.458,73.333,346.000,1.000,7.521,0.000
23135.050,21704.930,22461.570,22271.290,19725.270,18642.240,17569.710,18168.930,-0.156,0.972,-0.208,-2.228,1.373,0.366,73.333,347.000,1.000,2.486,0.000
22829.090,21420.970,22119.610,21947.360,19466.580,18401.550,17339.580,17928.510,-0.154,0.971,-0.211,-2.411,1.495,0.183,73.333,348.000,1.000,2.490,0.000
22524.210,21137.640,21778.930,21624.780,19206.090,18160.050,17107.830,17687.770,-0.154,0.972,-0.214,-2.716,1.740,0.183,73.333,349.000,1.000,2.540,0.000
22223.990,20858.220,21441.890,21306.460,18948.130,17921.810,16880.880,17450.470,-0.153,0.971,-0.213,-3.052,1.740,0.031,73.333,350.000,1.000,2.486,0.000
21928.010,20581.990,21108.500,20992.160,18694.980,17687.580,16659.320,17218.400,-0.154,0.972,-0.214,-3.296,1.892,-0.122,73.333,351.000,1.000,2.471,0.000
21625.710,20297.600,20769.780,20671.810,18437.990,17447.910,16431.490,16981.900,-0.155,0.971,-0.214,-3.418,2.045,-0.153,73.333,352.000,1.000,7.528,0.000
21318.530,20007.760,20427.780,20347.290,18178.000,17204.690,16199.740,16742.760,-0.154,0.973,-0.212,-3.723,2.197,-0.275,73.333,353.000,1.000,2.543,0.000
21015.080,19724.640,20089.990,20026.070,17921.830,16966.280,15973.880,16508.570,-0.158,0.971,-0.214,-4.028,2.319,-0.427,73.333,354.000,1.000,2.457,0.000
20714.970,19447.370,19755.210,19706.690,17668.440,16731.880,15753.680,16277.750,-0.157,0.969,-0.211,-4.120,2.441,-0.427,73.333,355.000,1.000,3.058,0.000
20414.230,19168.180,19418.160,19385.880,17412.790,16494.030,15533.060,16046.730,-0.157,0.965,-0.209,-4.272,2.594,-0.549,73.333,356.000,1.000,0.006,0.000
20113.950,18885.780,19078.640,19064.740,17154.700,16249.220,15308.390,15815.560,-0.160,0.963,-0.207,-4.395,2.655,-0.702,73.333,357.000,1.000,1.881,0.000
19813.660,18600.910,18737.730,18743.010,16894.200,15996.630,15074.920,15582.120,-0.159,0.958,-0.207,-4.608,2.686,-0.793,73.333,358.000,1.000,2.604,0.000
19512.440,18315.580,18397.400,18421.210,16632.140,15738.940,14832.840,15346.560,-0.160,0.957,-0.203,-4.639,2.777,-0.885,73.333,359.000,1.000,2.382,0.000
19216.400,18036.860,18065.480,18107.250,16376.940,15487.240,14594.510,15115.870,-0.161,0.954,-0.203,-4.608,2.930,-0.916,73.333,360.000,1.000,3.117,0.000
18929.280,17767.770,17745.240,17803.600,16132.930,15247.910,14369.000,14893.560,-0.161,0.953,-0.203,-4.456,3.021,-0.916,73.333,361.000,1.000,0.007,0.000
18646.510,17504.020,17430.820,17502.680,15895.050,15017.660,14155.750,14675.450,-0.164,0.951,-0.207,-4.211,3.021,-1.099,73.333,362.000,1.000,1.898,0.000
18364.030,17242.320,17116.680,17200.800,15658.700,14792.780,13948.730,14455.270,-0.165,0.953,-0.207,-3.967,3.082,-1.007,73.333,363.000,1.000,11.807,0.000
18082.380,16981.870,16801.360,16900.340,15422.970,14570.580,13739.920,14231.970,-0.168,0.954,-0.202,-3.662,2.869,-1.068,73.333,364.000,1.000,0.009,0.000
17798.950,16716.470,16481.390,16598.020,15183.950,14345.890,13524.820,14005.620,-0.169,0.957,-0.200,-3.387,2.777,-0.763,73.333,365.000,1.000,5.017,0.000
17510.680,16442.790,16155.070,16288.780,14938.430,14116.270,13304.550,13775.060,-0.169,0.960,-0.202,-3.113,2.686,-0.732,73.333,366.000,1.000,0.007,0.000
17220.690,16168.190,15827.650,15976.190,14690.020,13884.800,13082.630,13542.640,-0.173,0.960,-0.199,-2.869,2.350,-0.610,73.333,367.000,1.000,1.891,0.000
16932.860,15898.140,15504.020,15666.290,14443.570,13653.960,12862.880,13312.300,-0.174,0.962,-0.201,-2.686,2.289,-0.549,73.333,368.000,1.000,8.824,0.000
16650.040,15632.190,15186.580,15362.920,14201.680,13425.390,12649.230,13086.880,-0.175,0.959,-0.202,-2.563,2.045,-0.549,73.333,369.000,1.000,2.435,0.000
16372.500,15368.740,14874.100,15065.820,13963.880,13200.440,12441.230,12866.570,-0.175,0.958,-0.198,-2.502,1.770,-0.397,73.333,370.000,1.000,4.386,0.000
16097.700,15108.390,14563.890,14771.010,13728.880,12979.540,12234.830,12648.600,-0.176,0.958,-0.197,-2.350,1.587,-0.366,73.333,371.000,1.000,0.008,0.000
15823.700,14852.090,14256.370,14477.530,13496.320,12762.050,12027.390,12430.390,-0.174,0.959,-0.199,-2.075,1.343,-0.336,73.333,372.000,1.000,8.143,0.000
15546.250,14594.690,13947.380,14183.080,13261.540,12541.710,11815.640,12209.130,-0.175,0.959,-0.203,-1.892,1.038,-0.183,73.333,373.000,1.000,2.451,0.000
15261.160,14330.080,13630.280,13882.270,13018.650,12312.280,11596.930,11981.940,-0.173,0.962,-0.205,-1.831,0.885,-0.061,73.333,374.000,1.000,4.341,0.000
14971.090,14059.980,13307.390,13575.910,12769.150,12077.510,11374.670,11750.830,-0.171,0.963,-0.205,-1.801,0.641,0.092,73.333,375.000,1.000,0.006,0.000
14684.280,13791.700,12987.940,13272.730,12521.790,11847.380,11157.170,11524.380,-0.171,0.962,-0.204,-1.892,0.427,0.061,73.333,376.000,1.000,3.108,0.000
14407.840,13532.450,12679.690,12982.320,12285.450,11628.990,10951.250,11310.600,-0.168,0.963,-0.205,-1.801,0.275,0.275,73.333,377.000,1.000,11.354,0.000
14138.750,13280.000,12378.930,12700.470,12055.990,11416.250,10750.510,11103.360,-0.166,0.963,-0.205,-1.801,0.153,0.275,73.333,378.000,1.000,3.062,0.000
13868.220,13025.370,12075.050,12412.440,11821.750,11197.630,10543.030,10890.160,-0.163,0.963,-0.208,-1.862,0.183,0.336,73.333,379.000,1.000,0.013,0.000
13591.800,12764.510,11763.790,12113.960,11580.410,10971.510,10328.930,10670.600,-0.161,0.962,-0.209,-1.831,0.153,0.488,73.333,380.000,1.000,10.600,0.000
13311.790,12500.370,11449.070,11814.290,11338.120,10743.360,10115.700,10453.670,-0.160,0.966,-0.208,-1.709,0.031,0.458,73.333,381.000,1.000,2.940,0.000
13035.690,12240.000,11138.070,11521.750,11101.840,10519.070,9907.824,10245.450,-0.159,0.971,-0.207,-1.862,0.122,0.580,73.333,382.000,1.000,0.006,0.000
12765.240,11985.310,10831.680,11233.930,10872.160,10299.340,9704.948,10041.920,-0.155,0.972,-0.211,-2.075,0.275,0.671,73.333,383.000,1.000,7.030,0.000
12492.660,11729.100,10523.770,10943.350,10642.500,10079.560,9502.498,9834.205,-0.151,0.974,-0.208,-2.441,0.397,0.763,73.333,384.000,1.000,2.511,0.000
12215.130,11468.410,10213.650,10649.630,10409.990,9856.726,9295.498,9621.411,-0.150,0.973,-0.209,-2.594,0.519,0.763,73.333,385.000,1.000,2.572,0.000
11941.970,11211.890,9910.260,10361.500,10181.320,9634.467,9087.863,9410.571,-0.149,0.971,-0.208,-2.899,0.763,0.702,73.333,386.000,1.000,24.267,0.000
11678.040,10963.110,9616.376,10081.160,9959.247,9417.479,8887.370,9203.697,-0.150,0.969,-0.203,-3.113,0.946,0.549,73.333,387.000,1.000,0.021,0.000
11416.060,10716.270,9324.542,9801.400,9737.699,9206.222,8693.096,8997.076,-0.149,0.968,-0.205,-3.174,1.160,0.427,73.333,388.000,1.000,0.011,0.000
11149.710,10468.150,9029.561,9518.871,9512.716,8995.321,8494.580,8787.167,-0.148,0.970,-0.202,-3.357,1.373,0.305,73.333,389.000,1.000,0.007,0.000
10881.940,10220.030,8733.439,9236.353,9285.878,8779.137,8285.728,8574.601,-0.148,0.968,-0.203,-3.448,1.770,0.122,73.333,390.000,1.000,1.905,0.000
10617.240,9971.807,8438.277,8955.259,9058.233,8558.274,8071.399,8361.825,-0.149,0.966,-0.201,-3.418,2.136,-0.122,73.333,391.000,1.000,2.516,0.000
10350.410,9718.054,8138.667,8670.555,8825.530,8333.440,7855.165,8145.605,-0.148,0.963,-0.204,-3.479,2.472,-0.488,73.333,392.000,1.000,2.466,0.000
10081.630,9462.895,7836.632,8384.438,8592.240,8112.258,7645.031,7929.348,-0.148,0.960,-0.206,-3.448,2.747,-0.610,73.333,393.000,1.000,2.548,0.000
9820.876,9218.880,7543.000,8105.946,8368.735,7904.750,7450.212,7721.230,-0.148,0.963,-0.204,-3.357,2.838,-0.702,73.333,394.000,1.000,2.457,0.000
9566.553,8983.567,7256.311,7832.979,8151.774,7705.529,7264.832,7516.814,-0.152,0.964,-0.201,-3.235,3.052,-0.763,73.333,395.000,1.000,2.454,0.000
9308.053,8743.180,6966.826,7557.200,7933.009,7504.964,7078.248,7309.129,-0.152,0.963,-0.202,-3.082,3.113,-0.763,73.333,396.000,1.000,3.786,0.000
9044.881,8496.739,6674.061,7277.921,7711.321,7300.975,6885.320,7099.949,-0.157,0.964,-0.203,-3.082,3.296,-0.824,73.333,397.000,1.000,8.757,0.000
8784.558,8254.875,6385.404,7000.768,7490.758,7095.862,6687.899,6894.991,-0.160,0.965,-0.203,-2.930,3.510,-0.977,73.333,398.000,1.000,4.319,0.000
8529.590,8020.410,6103.711,6730.310,7275.295,6893.759,6493.898,6698.502,-0.164,0.966,-0.202,-2.899,3.510,-1.038,73.333,399.000,1.000,0.009,0.000
8277.698,7789.077,5824.957,6466.169,7063.249,6695.160,6305.928,6508.433,-0.166,0.966,-0.206,-2.899,3.357,-1.160,73.333,400.000,1.000,11.337,0.000
8023.523,7552.987,5541.737,6201.116,6846.854,6492.706,6116.025,6316.186,-0.168,0.965,-0.208,-2.838,3.326,-1.099,73.333,401.000,1.000,0.009,0.000
7764.150,7307.559,5251.323,5930.150,6623.565,6281.041,5917.918,6117.537,-0.170,0.965,-0.205,-2.747,3.021,-1.221,73.333,402.000,1.000,1.784,0.000
7501.740,7057.561,4957.374,5654.615,6397.532,6062.688,5713.307,5915.380,-0.171,0.965,-0.205,-2.777,2.808,-1.129,73.333,403.000,1.000,2.539,0.000
7241.683,6810.918,4666.756,5381.159,6174.713,5846.174,5510.590,5715.496,-0.174,0.963,-0.203,-2.777,2.533,-1.007,73.333,404.000,1.000,8.699,0.000
6988.640,6571.461,4383.739,5113.640,5958.653,5637.914,5315.395,5519.395,-0.174,0.962,-0.205,-2.625,2.258,-0.854,73.333,405.000,1.000,3.129,0.000
6739.604,6335.862,4103.749,4846.196,5744.637,5433.988,5122.695,5321.623,-0.174,0.960,-0.206,-2.655,2.014,-0.793,73.333,406.000,1.000,0.007,0.000
6490.192,6100.995,3823.380,4576.257,5529.838,5230.588,4930.229,5122.500,-0.172,0.958,-0.208,-2.502,1.617,-0.671,73.333,407.000,1.000,7.104,0.000
6241.771,5868.621,3546.654,4309.128,5319.121,5030.521,4742.817,4928.963,-0.171,0.958,-0.208,-2.502,1.312,-0.580,73.333,408.000,1.000,4.777,0.000
5994.662,5637.591,3272.999,4046.257,5112.003,4832.479,4559.403,4740.460,-0.172,0.959,-0.207,-2.472,1.129,-0.427,73.333,409.000,1.000,2.511,0.000
5743.271,5401.313,2994.546,3781.030,4901.341,4629.723,4372.959,4548.461,-0.171,0.960,-0.208,-2.472,0.854,-0.244,73.333,410.000,1.000,5.015,0.000
5487.896,5162.510,2711.978,3512.307,4688.131,4423.910,4184.346,4352.671,-0.169,0.962,-0.208,-2.472,0.549,-0.153,73.333,411.000,1.000,2.488,0.000
5238.317,4931.562,2434.364,3248.369,4480.593,4224.047,4000.838,4159.933,-0.171,0.965,-0.208,-2.625,0.214,-0.092,73.333,412.000,1.000,2.488,0.000
4997.883,4707.771,2163.170,2991.303,4279.617,4031.618,3821.780,3970.206,-0.169,0.967,-0.207,-2.655,-0.153,-0.092,73.333,413.000,1.000,8.764,0.000
4759.494,4482.507,1892.386,2734.538,4078.322,3839.687,3640.725,3779.218,-0.166,0.967,-0.209,-2.808,-0.366,0.092,73.333,414.000,1.000,3.131,0.000
4517.738,4252.629,1619.774,2474.741,3872.698,3644.353,3455.744,3584.364,-0.164,0.965,-0.211,-3.052,-0.610,0.061,73.333,415.000,1.000,0.007,0.000
4276.124,4025.635,1350.838,2216.109,3666.802,3450.669,3271.145,3388.510,-0.164,0.965,-0.207,-3.204,-0.885,0.031,73.333,416.000,1.000,10.564,0.000
4038.752,3806.404,1088.334,1962.654,3464.598,3262.792,3090.591,3196.615,-0.163,0.963,-0.209,-3.326,-1.190,0.031,73.333,417.000,1.000,3.129,0.000
3800.143,3583.967,823.217,1709.171,3260.145,3073.333,2908.565,3003.888,-0.161,0.961,-0.210,-3.540,-1.404,-0.092,73.333,418.000,1.000,0.011,0.000
3556.549,3352.681,550.044,1449.791,3049.203,2876.813,2720.626,2805.367,-0.157,0.961,-0.212,-3.693,-1.404,-0.092,73.333,419.000,1.000,8.819,0.000
3312.112,3121.143,275.457,1188.266,2837.313,2679.847,2533.275,2607.518,-0.155,0.963,-0.212,-3.754,-1.587,0.000,73.333,420.000,1.000,0.017,0.000
3070.185,2895.887,6.076,931.554,2630.936,2490.815,2354.474,2417.148,-0.153,0.963,-0.210,-3.906,-1.617,-0.061,73.333,421.000,1.000,4.944,0.000
2831.065,2675.218,-258.524,679.955,2429.377,2308.527,2182.167,2231.554,-0.151,0.963,-0.209,-4.150,-1.526,-0.092,73.333,422.000,1.000,0.008,0.000
2592.612,2453.295,-523.247,428.329,2224.692,2120.985,2002.860,2041.981,-0.152,0.962,-0.209,-4.211,-1.404,-0.244,73.333,423.000,1.000,5.627,0.000
2353.294,2227.909,-790.464,174.584,2012.613,1919.291,1806.084,1845.770,-0.154,0.960,-0.210,-4.211,-1.434,-0.458,73.333,424.000,1.000,2.479,0.000
2115.179,2000.300,-1057.105,-76.877,1799.008,1711.301,1602.413,1652.141,-0.153,0.963,-0.212,-4.303,-1.099,-0.732,73.333,425.000,1.000,8.710,0.000
1878.332,1771.826,-1321.977,-325.335,1588.985,1508.141,1408.599,1467.490,-0.153,0.965,-0.210,-4.242,-0.854,-0.916,73.333,426.000,1.000,4.382,0.000
1640.184,1544.676,-1587.115,-575.671,1381.615,1309.422,1224.155,1288.324,-0.153,0.965,-0.209,-4.150,-0.732,-0.946,73.333,427.000,1.000,0.008,0.000
1403.286,1321.128,-1849.978,-824.448,1178.761,1115.741,1044.178,1111.943,-0.154,0.964,-0.208,-4.242,-0.671,-0.977,73.333,428.000,1.000,16.271,0.000
1170.661,1101.934,-2107.620,-1067.774,982.518,929.107,870.601,937.375,-0.158,0.962,-0.211,-4.181,-0.488,-1.129,73.333,429.000,1.000,0.013,0.000
943.606,889.338,-2358.758,-1306.775,793.416,748.843,706.091,765.936,-0.161,0.962,-0.208,-4.089,-0.397,-1.038,73.333,430.000,1.000,10.920,0.000
720.929,682.111,-2605.922,-1542.910,609.065,572.426,544.044,595.840,-0.163,0.963,-0.205,-4.028,-0.275,-1.099,73.333,431.000,1.000,0.012,0.000
494.283,471.244,-2858.189,-1783.665,420.517,391.294,373.176,418.365,-0.165,0.966,-0.205,-3.998,-0.275,-1.099,73.333,432.000,1.000,0.004,0.000
265.109,258.992,-3112.927,-2028.330,229.450,208.446,201.711,239.140,-0.166,0.971,-0.206,-3.876,-0.183,-0.916,73.333,433.000,1.000,2.157,0.000
40.605,51.590,-3362.352,-2268.140,43.896,34.049,41.984,68.120,-0.166,0.974,-0.205,-3.906,-0.153,-0.824,73.333,434.000,1.000,5.021,0.000
-186.294,-159.002,-3613.213,-2507.435,-142.604,-139.766,-116.637,-104.747,-0.165,0.974,-0.204,-3.906,-0.214,-0.641,73.333,435.000,1.000,2.498,0.000
-419.916,-377.558,-3869.984,-2751.878,-336.871,-322.802,-285.761,-287.745,-0.167,0.972,-0.204,-4.028,-0.183,-0.458,73.333,436.000,1.000,2.459,0.000
-651.524,-597.126,-4125.989,-2995.557,-534.148,-511.103,-462.401,-473.536,-0.164,0.969,-0.200,-4.120,-0.214,-0.305,73.333,437.000,1.000,3.095,0.000
-877.259,-811.715,-4377.840,-3234.483,-729.339,-698.766,-638.343,-654.660,-0.160,0.967,-0.196,-3.967,-0.153,-0.275,73.333,438.000,1.000,0.007,0.000
-1103.541,-1023.954,-4629.400,-3472.854,-922.729,-882.644,-806.875,-831.984,-0.156,0.965,-0.194,-3.937,0.000,-0.061,73.333,439.000,1.000,18.212,0.000
-1330.659,-1234.703,-4880.631,-3710.504,-1113.461,-1060.265,-967.316,-1007.370,-0.155,0.964,-0.194,-3.815,0.153,0.000,73.333,440.000,1.000,3.107,0.000
-1553.200,-1441.535,-5128.188,-3943.577,-1301.694,-1236.270,-1128.233,-1182.357,-0.156,0.964,-0.195,-3.784,0.366,0.183,73.333,441.000,1.000,0.008,0.000
-1774.906,-1649.099,-5375.273,-4177.719,-1493.260,-1419.430,-1301.764,-1363.636,-0.156,0.965,-0.194,-3.815,0.519,0.305,73.333,442.000,1.000,2.390,0.000
-2001.271,-1861.948,-5626.243,-4419.445,-1690.626,-1609.083,-1487.381,-1553.008,-0.156,0.964,-0.194,-3.845,0.732,0.305,73.333,443.000,1.000,0.010,0.000
-2225.393,-2072.190,-5874.827,-4659.899,-1885.958,-1793.205,-1669.160,-1739.341,-0.154,0.962,-0.192,-3.754,1.038,0.397,73.333,444.000,1.000,1.908,0.000
-2438.515,-2271.615,-6111.736,-4887.553,-2070.130,-1963.119,-1836.253,-1912.816,-0.155,0.960,-0.194,-3.662,1.190,0.305,73.333,445.000,1.000,9.360,0.000
-2647.675,-2466.815,-6342.788,-5108.462,-2247.756,-2127.053,-1995.977,-2079.105,-0.157,0.958,-0.194,-3.510,1.526,0.305,73.333,446.000,1.000,0.007,0.000
-2861.494,-2663.460,-6576.502,-5331.259,-2427.206,-2294.177,-2156.490,-2244.943,-0.159,0.959,-0.196,-3.204,1.678,0.275,73.333,447.000,1.000,4.462,0.000
-3076.979,-2861.735,-6812.133,-5554.648,-2609.236,-2464.350,-2318.293,-2409.980,-0.160,0.961,-0.195,-2.930,1.740,0.031,73.333,448.000,1.000,2.442,0.000
-3295.359,-3068.206,-7053.863,-5782.776,-2797.805,-2641.282,-2485.847,-2579.011,-0.162,0.961,-0.196,-2.808,1.801,-0.061,73.333,449.000,1.000,8.722,0.000
-3520.551,-3283.969,-7304.733,-6020.394,-2995.143,-2828.157,-2662.954,-2754.818,-0.161,0.962,-0.193,-2.563,1.862,-0.214,73.333,450.000,1.000,3.192,0.000
-3744.161,-3495.618,-7554.068,-6258.469,-3190.320,-3014.967,-2840.388,-2928.690,-0.163,0.962,-0.194,-2.411,2.014,-0.305,73.333,451.000,1.000,0.010,0.000
-3956.951,-3694.585,-7792.049,-6485.165,-3373.373,-3188.481,-3004.658,-3092.782,-0.165,0.966,-0.194,-2.411,1.953,-0.488,73.333,452.000,1.000,1.791,0.000
-4165.959,-3890.723,-8024.056,-6704.202,-3549.757,-3352.770,-3159.595,-3251.408,-0.163,0.968,-0.197,-2.380,2.014,-0.580,73.333,453.000,1.000,10.014,0.000
-4379.514,-4092.248,-8257.849,-6925.461,-3727.484,-3520.603,-3316.753,-3411.913,-0.166,0.969,-0.197,-2.411,2.014,-0.549,73.333,454.000,1.000,3.057,0.000
-4589.547,-4289.268,-8489.216,-7145.936,-3902.644,-3690.026,-3473.504,-3571.526,-0.167,0.969,-0.201,-2.350,2.014,-0.641,73.333,455.000,1.000,0.011,0.000
-4791.700,-4477.569,-8715.616,-7363.059,-4073.136,-3855.754,-3626.955,-3728.270,-0.168,0.969,-0.201,-2.350,1.953,-0.702,73.333,456.000,1.000,8.226,0.000
-4994.896,-4667.902,-8942.984,-7581.062,-4245.273,-4021.564,-3781.735,-3887.976,-0.170,0.970,-0.201,-2.350,1.801,-0.641,73.333,457.000,1.000,9.359,0.000
-5201.186,-4861.983,-9171.880,-7798.965,-4418.591,-4187.153,-3936.231,-4050.286,-0.172,0.969,-0.201,-2.533,1.709,-0.580,73.333,458.000,1.000,0.011,0.000
-5407.345,-5055.365,-9399.857,-8016.631,-4590.280,-4350.384,-4088.170,-4212.232,-0.174,0.966,-0.199,-2.625,1.587,-0.458,73.333,459.000,1.000,5.616,0.000
-5616.963,-5251.426,-9630.718,-8239.210,-4765.386,-4515.607,-4243.299,-4378.003,-0.173,0.965,-0.198,-2.625,1.282,-0.366,73.333,460.000,1.000,2.513,0.000
-5829.167,-5449.756,-9863.619,-8463.848,-4943.973,-4682.333,-4401.598,-4546.449,-0.175,0.963,-0.202,-2.686,1.007,-0.336,73.333,461.000,1.000,2.456,0.000
-6036.076,-5643.116,-10092.040,-8683.035,-5119.551,-4845.468,-4556.348,-4710.238,-0.174,0.965,-0.200,-2.686,0.854,-0.305,73.333,462.000,1.000,3.172,0.000
-6236.583,-5828.283,-10314.820,-8897.312,-5290.029,-5005.319,-4706.079,-4868.869,-0.173,0.968,-0.203,-2.716,0.610,-0.305,73.333,463.000,1.000,0.015,0.000
-6433.778,-6008.393,-10532.170,-9107.441,-5454.543,-5161.964,-4850.735,-5023.293,-0.173,0.969,-0.204,-2.960,0.336,-0.244,73.333,464.000,1.000,1.838,0.000
-6631.803,-6191.367,-10748.580,-9315.471,-5618.002,-5319.349,-4997.520,-5178.013,-0.173,0.970,-0.208,-3.021,0.000,-0.214,73.333,465.000,1.000,13.108,0.000
-6834.577,-6381.322,-10971.330,-9527.259,-5788.540,-5484.198,-5154.708,-5340.672,-0.174,0.968,-0.207,-3.204,-0.305,-0.092,73.333,466.000,1.000,0.017,0.000
-7041.047,-6576.024,-11200.790,-9744.688,-5965.962,-5654.119,-5316.570,-5510.321,-0.172,0.965,-0.207,-3.387,-0.610,-0.153,73.333,467.000,1.000,1.870,0.000
-7249.395,-6774.561,-11434.200,-9966.055,-6147.782,-5824.233,-5475.817,-5680.835,-0.168,0.964,-0.204,-3.571,-0.824,-0.031,73.333,468.000,1.000,3.779,0.000
-7458.179,-6975.337,-11668.450,-10187.740,-6331.430,-5992.209,-5632.402,-5848.556,-0.170,0.964,-0.206,-3.662,-0.946,-0.061,73.333,469.000,1.000,3.638,0.000
-7663.426,-7170.816,-11898.250,-10405.690,-6511.673,-6156.270,-5790.282,-6013.204,-0.170,0.965,-0.204,-3.754,-1.282,-0.092,73.333,470.000,1.000,9.429,0.000
-7863.893,-7359.373,-12122.410,-10618.950,-6688.099,-6319.886,-5954.131,-6173.755,-0.168,0.965,-0.202,-3.937,-1.312,-0.183,73.333,471.000,1.000,0.008,0.000
-8063.572,-7550.231,-12346.510,-10829.700,-6865.012,-6487.015,-6121.026,-6328.984,-0.166,0.963,-0.199,-4.059,-1.373,-0.366,73.333,472.000,1.000,1.868,0.000
-8265.391,-7746.178,-12573.250,-11040.950,-7043.476,-6655.865,-6284.383,-6482.234,-0.162,0.961,-0.197,-4.059,-1.282,-0.519,73.333,473.000,1.000,11.257,0.000
-8468.824,-7940.335,-12800.070,-11254.510,-7221.752,-6824.131,-6445.925,-6638.384,-0.159,0.962,-0.196,-4.059,-1.190,-0.580,73.333,474.000,1.000,3.050,0.000
-8671.507,-8130.322,-13024.890,-11468.200,-7397.504,-6989.039,-6605.645,-6795.764,-0.155,0.961,-0.198,-3.998,-1.038,-0.580,73.333,475.000,1.000,0.015,0.000
-8869.730,-8317.060,-13244.900,-11676.950,-7566.735,-7145.069,-6755.126,-6947.780,-0.152,0.962,-0.198,-3.967,-0.946,-0.519,73.333,476.000,1.000,1.878,0.000
-9061.373,-8497.412,-13456.110,-11878.180,-7726.061,-7291.292,-6891.485,-7091.289,-0.151,0.962,-0.200,-4.028,-0.641,-0.488,73.333,477.000,1.000,11.317,0.000
-9250.527,-8673.979,-13662.150,-12076.170,-7880.691,-7437.656,-7025.057,-7232.467,-0.150,0.961,-0.199,-3.906,-0.336,-0.397,73.333,478.000,1.000,3.069,0.000
-9440.173,-8851.719,-13869.720,-12274.910,-8038.645,-7591.309,-7165.218,-7377.907,-0.148,0.960,-0.198,-3.723,0.061,-0.427,73.333,479.000,1.000,0.011,0.000
-9629.421,-9028.975,-14078.910,-12473.110,-8199.021,-7748.433,-7308.502,-7525.392,-0.150,0.961,-0.197,-3.571,0.336,-0.397,73.333,480.000,1.000,1.941,0.000
-9821.086,-9206.333,-14288.770,-12671.530,-8358.219,-7904.678,-7449.081,-7673.243,-0.148,0.958,-0.196,-3.418,0.641,-0.397,73.333,481.000,1.000,2.435,0.000
-10016.690,-9386.023,-14500.470,-12873.140,-8517.354,-8060.467,-7589.090,-7824.518,-0.145,0.958,-0.200,-3.113,1.007,-0.275,73.333,482.000,1.000,8.748,0.000
-10209.330,-9564.051,-14710.760,-13074.210,-8676.414,-8215.420,-7730.771,-7978.158,-0.144,0.957,-0.198,-3.052,1.434,-0.244,73.333,483.000,1.000,2.561,0.000
-10392.730,-9734.624,-14913.640,-13268.630,-8832.048,-8365.414,-7870.448,-8127.688,-0.144,0.958,-0.201,-2.777,1.801,-0.275,73.333,484.000,1.000,3.721,0.000
-10572.090,-9900.298,-15111.640,-13460.690,-8985.657,-8510.517,-8008.071,-8272.597,-0.144,0.959,-0.199,-2.472,2.258,-0.214,73.333,485.000,1.000,9.344,0.000
-10754.950,-10070.530,-15312.480,-13656.690,-9141.131,-8655.381,-8146.297,-8417.872,-0.147,0.960,-0.197,-2.319,2.563,-0.153,73.333,486.000,1.000,0.014,0.000
-10941.640,-10247.740,-15517.750,-13855.130,-9299.294,-8803.471,-8285.231,-8565.480,-0.150,0.962,-0.197,-2.106,3.021,-0.183,73.333,487.000,1.000,5.651,0.000
-11128.800,-10424.070,-15723.210,-14052.150,-9458.814,-8953.949,-8425.136,-8715.402,-0.154,0.963,-0.196,-2.014,3.326,-0.244,73.333,488.000,1.000,2.563,0.000
-11314.560,-10596.190,-15926.260,-14245.750,-9617.352,-9103.734,-8565.778,-8865.341,-0.157,0.966,-0.198,-1.923,3.387,-0.183,73.333,489.000,1.000,3.660,0.000
-11498.770,-10767.720,-16128.600,-14437.240,-9775.182,-9252.796,-8705.544,-9011.775,-0.160,0.965,-0.198,-1.923,3.601,-0.275,73.333,490.000,1.000,7.542,0.000
-11682.560,-10940.560,-16333.010,-14631.340,-9936.449,-9403.271,-8846.171,-9157.877,-0.163,0.965,-0.200,-1.953,3.662,-0.305,73.333,491.000,1.000,4.293,0.000
-11868.130,-11115.860,-16540.260,-14830.550,-10103.180,-9556.193,-8993.153,-9309.630,-0.169,0.964,-0.197,-1.923,3.632,-0.183,73.333,492.000,1.000,0.007,0.000
-12054.240,-11292.160,-16747.770,-15030.150,-10271.300,-9710.491,-9146.021,-9464.499,-0.173,0.964,-0.202,-1.892,3.601,-0.397,73.333,493.000,1.000,1.842,0.000
-12237.990,-11466.700,-16952.940,-15224.620,-10436.380,-9865.171,-9297.869,-9614.491,-0.175,0.965,-0.201,-1.862,3.418,-0.488,73.333,494.000,1.000,14.369,0.000
-12417.800,-11640.070,-17153.740,-15412.990,-10595.740,-10016.610,-9442.293,-9754.462,-0.176,0.966,-0.202,-1.770,3.296,-0.580,73.333,495.000,1.000,0.010,0.000
-12595.960,-11812.160,-17351.210,-15599.850,-10749.780,-10161.810,-9580.498,-9889.992,-0.176,0.965,-0.203,-1.770,3.052,-0.610,73.333,496.000,1.000,2.535,0.000
-12777.900,-11982.780,-17550.580,-15790.880,-10902.670,-10303.860,-9718.283,-10029.960,-0.177,0.964,-0.200,-1.709,2.930,-0.671,73.333,497.000,1.000,0.011,0.000
-12960.830,-12152.680,-17750.400,-15981.260,-11052.440,-10442.490,-9853.142,-10168.690,-0.174,0.965,-0.198,-1.770,2.747,-0.671,73.333,498.000,1.000,1.900,0.000
-13140.700,-12321.450,-17946.720,-16166.440,-11197.070,-10576.850,-9982.904,-10300.910,-0.173,0.967,-0.198,-1.801,2.625,-0.641,73.333,499.000,1.000,6.260,0.000
-13323.050,-12491.620,-18144.180,-16353.400,-11344.820,-10715.500,-10114.550,-10436.250,-0.171,0.968,-0.199,-1.831,2.380,-0.488,73.333,500.000,1.000,6.239,0.000
-13507.140,-12661.740,-18342.830,-16542.200,-11496.490,-10859.440,-10245.310,-10575.270,-0.168,0.969,-0.200,-1.862,2.167,-0.458,73.333,501.000,1.000,6.857,0.000
-13685.710,-12825.450,-18536.150,-16726.390,-11643.810,-10999.510,-10368.430,-10708.060,-0.168,0.971,-0.198,-1.984,2.075,-0.366,73.333,502.000,1.000,0.011,0.000
-13864.770,-12989.350,-18730.320,-16912.880,-11793.370,-11144.140,-10501.580,-10842.700,-0.167,0.971,-0.200,-2.167,2.045,-0.244,73.333,503.000,1.000,28.761,0.000
-14046.850,-13157.430,-18928.180,-17104.750,-11948.940,-11297.890,-10651.580,-10987.710,-0.167,0.970,-0.199,-2.258,1.801,-0.214,73.333,504.000,1.000,0.021,0.000
-14218.640,-13316.330,-19116.120,-17287.750,-12095.160,-11440.730,-10789.810,-11128.820,-0.166,0.968,-0.196,-2.411,1.801,0.000,73.333,505.000,1.000,14.897,0.000
-14379.940,-13465.470,-19293.860,-17459.370,-12230.630,-11569.810,-10907.910,-11259.170,-0.166,0.966,-0.197,-2.380,1.617,0.183,73.333,506.000,1.000,0.022,0.000
-14543.270,-13618.160,-19473.720,-17632.320,-12367.350,-11699.500,-11024.020,-11388.410,-0.166,0.968,-0.200,-2.380,1.556,0.366,73.333,507.000,1.000,0.011,0.000
-14711.270,-13776.960,-19658.500,-17810.690,-12507.580,-11831.370,-11144.170,-11521.120,-0.165,0.968,-0.201,-2.441,1.495,0.366,73.333,508.000,1.000,0.009,0.000
-14881.580,-13938.550,-19847.540,-17992.150,-12652.230,-11965.980,-11268.800,-11656.960,-0.166,0.968,-0.204,-2.441,1.495,0.458,73.333,509.000,1.000,2.412,0.000
-15052.780,-14100.510,-20039.160,-18174.010,-12802.070,-12106.510,-11399.950,-11794.910,-0.165,0.969,-0.204,-2.380,1.282,0.610,73.333,510.000,1.000,0.007,0.000
-15222.880,-14261.120,-20229.240,-18353.890,-12953.290,-12250.150,-11535.440,-11932.690,-0.164,0.968,-0.204,-2.472,1.221,0.427,73.333,511.000,1.000,2.535,0.000
-15390.380,-14420.240,-20416.100,-18532.400,-13102.950,-12393.060,-11671.200,-12069.130,-0.161,0.965,-0.202,-2.502,1.129,0.549,73.333,512.000,1.000,0.008,0.000
-15554.000,-14575.130,-20598.070,-18707.070,-13247.360,-12530.060,-11799.630,-12201.360,-0.162,0.963,-0.201,-2.472,1.160,0.458,73.333,513.000,1.000,4.439,0.000
-15717.890,-14727.900,-20777.560,-18878.610,-13387.280,-12661.240,-11920.650,-12330.430,-0.163,0.960,-0.201,-2.441,1.099,0.397,73.333,514.000,1.000,2.427,0.000
-15885.970,-14883.840,-20959.120,-19052.290,-13528.680,-12793.290,-12044.500,-12462.760,-0.162,0.959,-0.202,-2.441,1.038,0.397,73.333,515.000,1.000,2.573,0.000
-16054.460,-15040.830,-21142.120,-19227.260,-13672.860,-12928.670,-12174.360,-12597.600,-0.160,0.960,-0.203,-2.411,0.824,0.244,73.333,516.000,1.000,2.541,0.000
-16219.510,-15195.020,-21324.110,-19398.880,-13816.380,-13064.460,-12305.580,-12728.230,-0.159,0.961,-0.202,-2.228,0.916,0.031,73.333,517.000,1.000,2.461,0.000
-16380.240,-15346.830,-21501.700,-19564.870,-13954.730,-13194.660,-12431.230,-12852.040,-0.158,0.962,-0.204,-2.289,0.793,-0.153,73.333,518.000,1.000,2.500,0.000
-16541.590,-15500.480,-21677.250,-19730.770,-14090.230,-13321.010,-12552.690,-12975.220,-0.156,0.961,-0.204,-2.319,0.793,-0.183,73.333,519.000,1.000,5.549,0.000
-16712.400,-15660.700,-21860.890,-19906.740,-14232.430,-13455.640,-12683.160,-13107.210,-0.156,0.961,-0.205,-2.319,0.824,-0.244,73.333,520.000,1.000,0.007,0.000
-16891.180,-15827.430,-22054.240,-20092.400,-14383.100,-13600.770,-12823.900,-13246.400,-0.157,0.964,-0.206,-2.319,0.885,-0.244,73.333,521.000,1.000,1.922,0.000
-17067.540,-15993.430,-22247.510,-20276.740,-14533.280,-13744.060,-12960.520,-13381.870,-0.157,0.965,-0.206,-2.350,0.854,-0.427,73.333,522.000,1.000,13.715,0.000
-17236.870,-16151.700,-22434.140,-20453.940,-14676.660,-13877.270,-13085.690,-13509.170,-0.157,0.965,-0.207,-2.350,1.007,-0.549,73.333,523.000,1.000,3.041,0.000
-17399.920,-16302.120,-22613.580,-20623.940,-14813.360,-14002.590,-13202.330,-13630.170,-0.158,0.968,-0.204,-2.472,0.885,-0.671,73.333,524.000,1.000,0.007,0.000
-17556.780,-16447.730,-22785.990,-20785.810,-14943.710,-14123.700,-13313.820,-13746.090,-0.157,0.969,-0.204,-2.563,0.854,-0.671,73.333,525.000,1.000,1.917,0.000
-17710.780,-16592.050,-22955.310,-20944.400,-15071.860,-14244.900,-13426.040,-13863.380,-0.157,0.968,-0.205,-2.686,0.977,-0.763,73.333,526.000,1.000,2.564,0.000
-17866.190,-16738.280,-23126.350,-21106.280,-15204.260,-14369.830,-13541.980,-13987.800,-0.156,0.969,-0.206,-2.808,1.068,-0.793,73.333,527.000,1.000,13.196,0.000
-18021.450,-16883.030,-23296.330,-21269.670,-15337.040,-14491.460,-13652.790,-14111.340,-0.159,0.972,-0.206,-3.082,1.007,-0.824,73.333,528.000,1.000,0.017,0.000
-18176.780,-17025.260,-23465.090,-21435.610,-15466.940,-14609.330,-13761.180,-14231.690,-0.160,0.975,-0.204,-3.204,1.129,-0.977,73.333,529.000,1.000,1.816,0.000
-18339.980,-17177.130,-23642.900,-21611.090,-15604.890,-14740.420,-13884.930,-14362.100,-0.160,0.973,-0.199,-3.510,1.160,-1.038,73.333,530.000,1.000,2.580,0.000
-18507.170,-17336.420,-23826.040,-21787.920,-15749.270,-14882.020,-14018.960,-14499.590,-0.159,0.969,-0.196,-3.754,1.190,-1.038,73.333,531.000,1.000,2.384,0.000
-18663.930,-17484.900,-23997.590,-21950.380,-15884.170,-15016.180,-14146.160,-14625.970,-0.162,0.965,-0.199,-3.876,1.343,-1.007,73.333,532.000,1.000,10.572,0.000
-18812.410,-17623.050,-24159.530,-22103.980,-16012.510,-15144.300,-14268.670,-14743.180,-0.159,0.961,-0.203,-3.876,1.404,-1.129,73.333,533.000,1.000,0.010,0.000
-18962.270,-17763.350,-24324.370,-22261.900,-16145.400,-15272.160,-14390.740,-14865.570,-0.161,0.959,-0.203,-3.845,1.434,-1.099,73.333,534.000,1.000,1.897,0.000
-19114.420,-17908.350,-24493.220,-22424.140,-16281.420,-15397.700,-14510.370,-14993.620,-0.162,0.956,-0.199,-3.784,1.526,-0.946,73.333,535.000,1.000,2.465,0.000
-19264.780,-18051.430,-24658.260,-22582.730,-16412.310,-15518.000,-14624.980,-15115.370,-0.162,0.954,-0.199,-3.510,1.526,-0.763,73.333,536.000,1.000,13.820,0.000
-19411.770,-18188.520,-24817.210,-22736.370,-16537.440,-15635.530,-14735.160,-15229.320,-0.163,0.952,-0.197,-3.296,1.617,-0.671,73.333,537.000,1.000,9.363,0.000
-19558.300,-18321.690,-24976.480,-22891.150,-16663.730,-15756.610,-14847.880,-15345.900,-0.162,0.952,-0.198,-3.052,1.678,-0.580,73.333,538.000,1.000,0.012,0.000
-19705.660,-18458.990,-25138.570,-23046.300,-16791.150,-15879.220,-14963.440,-15464.690,-0.162,0.953,-0.198,-2.686,1.709,-0.549,73.333,539.000,1.000,4.379,0.000
-19853.840,-18604.240,-25301.160,-23200.540,-16916.410,-15997.350,-15075.820,-15579.740,-0.162,0.954,-0.197,-2.411,1.617,-0.427,73.333,540.000,1.000,2.474,0.000
-20001.670,-18746.740,-25462.110,-23355.010,-17040.010,-16111.640,-15185.400,-15692.900,-0.163,0.957,-0.197,-2.319,1.770,-0.305,73.333,541.000,1.000,2.649,0.000
-20151.500,-18886.440,-25625.290,-23510.510,-17166.700,-16230.780,-15299.550,-15810.870,-0.167,0.960,-0.197,-2.106,1.831,-0.244,73.333,542.000,1.000,2.320,0.000
-20309.350,-19035.540,-25797.080,-23672.130,-17301.610,-16360.870,-15423.300,-15936.980,-0.169,0.961,-0.197,-1.862,1.892,-0.092,73.333,543.000,1.000,2.543,0.000
-20466.910,-19184.690,-25968.250,-23834.580,-17435.980,-16490.040,-15546.490,-16059.300,-0.167,0.962,-0.192,-1.678,1.709,-0.153,73.333,544.000,1.000,4.989,0.000
-20615.330,-19321.260,-26130.260,-23990.430,-17561.850,-16608.130,-15659.650,-16169.600,-0.167,0.964,-0.196,-1.709,1.770,-0.061,73.333,545.000,1.000,4.948,0.000
-20763.200,-19456.100,-26292.280,-24146.380,-17687.170,-16724.150,-15770.980,-16279.290,-0.167,0.962,-0.195,-1.556,1.709,-0.031,73.333,546.000,1.000,3.104,0.000
-20914.630,-19595.790,-26457.000,-24303.670,-17813.800,-16840.610,-15883.120,-16392.810,-0.166,0.965,-0.198,-1.556,1.556,-0.122,73.333,547.000,1.000,0.012,0.000
-21062.860,-19733.140,-26617.350,-24454.870,-17934.730,-16950.410,-15988.690,-16502.130,-0.164,0.962,-0.198,-1.556,1.465,0.031,73.333,548.000,1.000,1.948,0.000
-21203.910,-19863.500,-26772.270,-24599.450,-18049.820,-17055.260,-16088.510,-16605.200,-0.162,0.964,-0.199,-1.495,1.587,0.000,73.333,549.000,1.000,8.658,0.000
-21341.710,-19990.810,-26926.440,-24743.860,-18164.740,-17161.570,-16189.250,-16709.520,-0.165,0.965,-0.202,-1.526,1.678,-0.092,73.333,550.000,1.000,3.157,0.000
-21482.780,-20123.390,-27083.030,-24892.430,-18283.380,-17272.150,-16294.050,-16821.380,-0.161,0.965,-0.200,-1.587,1.648,-0.061,73.333,551.000,1.000,0.016,0.000
-21625.500,-20258.900,-27238.980,-25043.230,-18403.870,-17384.200,-16399.840,-16936.030,-0.159,0.966,-0.198,-1.678,1.678,-0.122,73.333,552.000,1.000,1.806,0.000
-21766.510,-20392.390,-27392.050,-25193.750,-18524.510,-17497.130,-16505.560,-17048.910,-0.160,0.967,-0.201,-1.678,1.648,0.031,73.333,553.000,1.000,26.319,0.000
-21910.690,-20528.810,-27547.810,-25346.730,-18649.920,-17616.870,-16616.420,-17166.880,-0.158,0.969,-0.201,-1.892,1.770,0.031,73.333,554.000,1.000,3.068,0.000
-22057.800,-20667.430,-27706.810,-25501.400,-18778.920,-17740.650,-16728.490,-17289.210,-0.157,0.969,-0.203,-1.984,1.892,0.000,73.333,555.000,1.000,0.013,0.000
-22198.480,-20800.270,-27860.610,-25650.000,-18901.790,-17858.290,-16832.880,-17403.630,-0.156,0.969,-0.202,-2.106,2.106,0.122,73.333,556.000,1.000,1.859,0.000
-22330.600,-20926.830,-28007.710,-25790.430,-19016.120,-17968.240,-16931.950,-17510.390,-0.156,0.969,-0.203,-2.197,2.136,0.092,73.333,557.000,1.000,8.876,0.000
-22461.460,-21052.710,-28155.450,-25929.830,-19129.330,-18077.520,-17034.410,-17619.940,-0.157,0.972,-0.199,-2.350,2.289,-0.061,73.333,558.000,1.000,2.384,0.000
-22597.300,-21181.710,-28308.350,-26073.470,-19248.520,-18193.330,-17145.250,-17735.850,-0.158,0.975,-0.198,-2.533,2.350,-0.153,73.333,559.000,1.000,2.583,0.000
-22733.930,-21309.510,-28459.470,-26215.240,-19368.430,-18311.350,-17256.890,-17849.180,-0.159,0.973,-0.198,-2.686,2.502,-0.244,73.333,560.000,1.000,2.473,0.000
-22868.020,-21435.340,-28603.600,-26352.120,-19481.700,-18424.830,-17363.330,-17953.420,-0.159,0.973,-0.196,-2.808,2.747,-0.305,73.333,561.000,1.000,2.490,0.000
-23007.220,-21567.720,-28749.510,-26493.310,-19595.370,-18538.950,-17472.510,-18057.750,-0.160,0.970,-0.195,-2.991,2.899,-0.397,73.333,562.000,1.000,2.513,0.000
-23152.770,-21705.080,-28902.200,-26641.400,-19716.290,-18657.690,-17586.860,-18168.960,-0.160,0.968,-0.198,-2.991,2.960,-0.458,73.333,563.000,1.000,6.279,0.000
-23297.770,-21839.260,-29056.380,-26789.190,-19840.570,-18775.780,-17699.260,-18281.870,-0.161,0.967,-0.196,-3.052,3.082,-0.549,73.333,564.000,1.000,2.385,0.000
-23434.770,-21964.430,-29203.840,-26928.590,-19958.300,-18883.970,-17802.840,-18387.750,-0.162,0.968,-0.199,-2.960,3.113,-0.580,73.333,565.000,1.000,2.554,0.000
-23559.130,-22078.160,-29340.240,-27056.840,-20063.540,-18977.890,-17894.460,-18482.500,-0.163,0.969,-0.200,-2.930,3.021,-0.580,73.333,566.000,1.000,2.494,0.000
-23680.120,-22190.230,-29475.490,-27184.560,-20165.930,-19067.950,-17983.120,-18575.540,-0.164,0.967,-0.200,-2.838,3.113,-0.549,73.333,567.000,1.000,2.575,0.000
-23810.560,-22313.050,-29621.250,-27322.710,-20277.930,-19168.450,-18081.460,-18678.080,-0.166,0.967,-0.199,-2.899,3.113,-0.549,73.333,568.000,1.000,4.955,0.000
-23946.950,-22441.420,-29770.740,-27465.030,-20394.940,-19275.860,-18185.210,-18783.690,-0.166,0.966,-0.197,-2.899,3.021,-0.580,73.333,569.000,1.000,3.149,0.000
-24080.380,-22564.130,-29912.840,-27601.600,-20506.760,-19379.350,-18284.140,-18881.990,-0.169,0.966,-0.199,-2.899,2.869,-0.549,73.333,570.000,1.000,0.007,0.000
-24213.700,-22684.860,-30052.500,-27736.920,-20615.850,-19481.030,-18380.420,-18977.690,-0.170,0.967,-0.199,-2.869,2.838,-0.519,73.333,571.000,1.000,1.843,0.000
-24348.590,-22809.170,-30195.020,-27874.440,-20726.120,-19584.070,-18476.760,-19075.460,-0.169,0.966,-0.200,-2.747,2.594,-0.488,73.333,572.000,1.000,8.666,0.000
-24479.780,-22934.720,-30336.380,-28008.750,-20835.890,-19687.050,-18571.220,-19172.300,-0.169,0.964,-0.199,-2.625,2.441,-0.366,73.333,573.000,1.000,3.083,0.000
-24609.610,-23060.440,-30476.690,-28142.310,-20946.250,-19792.340,-18666.220,-19270.110,-0.167,0.963,-0.196,-2.533,2.197,-0.275,73.333,574.000,1.000,0.010,0.000
-24743.480,-23187.030,-30619.090,-28280.860,-21058.690,-19900.750,-18765.470,-19373.050,-0.168,0.962,-0.198,-2.502,2.045,-0.244,73.333,575.000,1.000,8.149,0.000
-24879.460,-23312.530,-30762.780,-28421.770,-21172.120,-20008.990,-18867.110,-19479.400,-0.168,0.958,-0.200,-2.472,1.740,-0.122,73.333,576.000,1.000,3.221,0.000
-25011.100,-23432.280,-30902.860,-28557.920,-21282.110,-20113.710,-18965.500,-19583.950,-0.167,0.956,-0.206,-2.228,1.740,-0.031,73.333,577.000,1.000,0.008,0.000
-25134.820,-23545.260,-31036.080,-28686.830,-21385.110,-20213.550,-19058.840,-19684.250,-0.167,0.955,-0.204,-2.136,1.556,0.000,73.333,578.000,1.000,1.881,0.000
-25252.720,-23654.880,-31164.770,-28811.940,-21483.980,-20310.130,-19149.120,-19781.100,-0.167,0.957,-0.203,-2.014,1.587,0.061,73.333,579.000,1.000,14.290,0.000
-25370.140,-23765.570,-31294.200,-28937.650,-21585.010,-20408.000,-19239.450,-19876.750,-0.166,0.961,-0.205,-1.892,1.373,0.000,73.333,580.000,1.000,0.017,0.000
-25492.790,-23882.370,-31429.910,-29068.960,-21693.820,-20512.920,-19335.070,-19977.800,-0.166,0.964,-0.207,-1.831,1.282,0.092,73.333,581.000,1.000,1.895,0.000
-25619.190,-24003.360,-31569.250,-29204.930,-21807.440,-20622.720,-19436.210,-20085.550,-0.166,0.966,-0.205,-1.831,1.099,0.092,73.333,582.000,1.000,2.515,0.000
-25739.770,-24118.870,-31701.090,-29334.380,-21913.580,-20725.980,-19532.470,-20187.920,-0.162,0.967,-0.201,-1.892,0.977,0.000,73.333,583.000,1.000,6.234,0.000
-25852.040,-24227.120,-31824.060,-29453.150,-22009.110,-20820.890,-19619.290,-20280.640,-0.161,0.970,-0.200,-2.045,0.854,0.061,73.333,584.000,1.000,4.303,0.000
-25964.250,-24336.780,-31948.190,-29571.350,-22104.580,-20918.360,-19705.870,-20373.950,-0.161,0.974,-0.202,-2.350,0.916,-0.031,73.333,585.000,1.000,0.010,0.000
-26080.170,-24449.280,-32075.880,-29693.100,-22205.030,-21020.630,-19796.740,-20470.610,-0.159,0.973,-0.204,-2.594,0.824,0.061,73.333,586.000,1.000,3.194,0.000
-26196.350,-24558.470,-32202.480,-29812.790,-22305.460,-21120.130,-19887.330,-20564.260,-0.160,0.972,-0.207,-2.808,0.793,-0.122,73.333,587.000,1.000,11.194,0.000
-26313.640,-24665.920,-32330.070,-29932.570,-22405.330,-21215.380,-19977.460,-20655.860,-0.159,0.970,-0.206,-2.899,0.549,-0.153,73.333,588.000,1.000,9.973,0.000
-26431.820,-24773.210,-32459.340,-30055.730,-22505.920,-21305.880,-20066.850,-20747.880,-0.156,0.968,-0.205,-3.021,0.549,-0.244,73.333,589.000,1.000,0.013,0.000
-26545.490,-24877.740,-32586.000,-30176.490,-22604.730,-21390.770,-20154.160,-20838.190,-0.156,0.968,-0.205,-3.204,0.458,-0.275,73.333,590.000,1.000,0.005,0.000
-26663.520,-24988.330,-32718.110,-30301.370,-22710.040,-21482.940,-20250.160,-20933.410,-0.156,0.965,-0.202,-3.204,0.488,-0.366,73.333,591.000,1.000,6.341,0.000
-26798.090,-25113.110,-32864.000,-30442.010,-22829.750,-21590.990,-20359.590,-21037.800,-0.155,0.962,-0.203,-3.510,0.519,-0.458,73.333,592.000,1.000,2.437,0.000
-26935.780,-25241.880,-33009.300,-30583.830,-22948.530,-21698.670,-20463.910,-21138.250,-0.154,0.958,-0.199,-3.479,0.732,-0.549,73.333,593.000,1.000,4.374,0.000
-27057.650,-25360.140,-33138.150,-30707.640,-23049.930,-21791.700,-20550.640,-21225.210,-0.155,0.952,-0.203,-3.387,0.793,-0.732,73.333,594.000,1.000,0.011,0.000
-27169.150,-25469.110,-33258.430,-30820.720,-23141.940,-21879.750,-20632.740,-21306.690,-0.156,0.953,-0.207,-3.174,0.916,-0.854,73.333,595.000,1.000,13.219,0.000
-27284.940,-25580.070,-33384.520,-30939.070,-23239.440,-21975.240,-20723.390,-21394.020,-0.154,0.950,-0.208,-2.930,0.977,-0.946,73.333,596.000,1.000,10.470,0.000
-27406.860,-25695.390,-33515.930,-31063.760,-23343.200,-22076.550,-20819.540,-21488.880,-0.156,0.948,-0.209,-2.655,1.160,-1.007,73.333,597.000,1.000,0.019,0.000
-27527.680,-25808.010,-33644.080,-31185.370,-23445.640,-22176.680,-20912.810,-21583.230,-0.160,0.947,-0.207,-2.411,1.221,-1.068,73.333,598.000,1.000,0.007,0.000
-27643.310,-25913.960,-33765.840,-31300.030,-23542.360,-22270.720,-20999.030,-21671.200,-0.163,0.948,-0.204,-2.258,1.251,-0.977,73.333,599.000,1.000,0.007,0.000
-27755.160,-26015.670,-33883.830,-31413.630,-23634.790,-22357.680,-21079.220,-21756.300,-0.168,0.954,-0.204,-2.075,1.343,-0.824,73.333,600.000,1.000,2.584,0.000
-27863.390,-26115.180,-33999.810,-31528.090,-23725.380,-22439.720,-21155.940,-21842.000,-0.172,0.959,-0.207,-2.045,1.282,-0.763,73.333,601.000,1.000,0.024,0.000
-27970.010,-26214.620,-34116.400,-31640.600,-23817.080,-22522.100,-21233.300,-21929.440,-0.173,0.967,-0.208,-1.892,1.129,-0.763,73.333,602.000,1.000,15.546,0.000
-28081.810,-26317.390,-34237.410,-31755.650,-23912.830,-22609.810,-21315.780,-22021.180,-0.171,0.973,-0.207,-1.984,1.221,-0.610,73.333,603.000,1.000,3.015,0.000
-28199.550,-26424.250,-34361.530,-31876.040,-24010.390,-22702.640,-21402.090,-22116.000,-0.169,0.978,-0.206,-2.106,1.129,-0.519,73.333,604.000,1.000,0.007,0.000
-28315.980,-26531.370,-34483.230,-31995.930,-24105.130,-22795.790,-21486.780,-22208.960,-0.167,0.977,-0.204,-2.228,1.038,-0.458,73.333,605.000,1.000,2.517,0.000
-28424.140,-26631.820,-34598.060,-32109.180,-24194.130,-22882.700,-21564.990,-22295.860,-0.162,0.981,-0.207,-2.441,0.946,-0.214,73.333,606.000,1.000,0.012,0.000
-28523.150,-26725.150,-34706.190,-32214.310,-24277.730,-22962.900,-21637.210,-22376.370,-0.161,0.980,-0.207,-2.716,1.038,0.061,73.333,607.000,1.000,5.705,0.000
-28620.390,-26818.830,-34814.110,-32317.680,-24362.180,-23044.720,-21711.450,-22457.090,-0.159,0.980,-0.206,-2.930,1.190,0.336,73.333,608.000,1.000,3.756,0.000
-28724.910,-26917.260,-34928.170,-32427.170,-24453.150,-23134.160,-21792.810,-22542.040,-0.155,0.978,-0.204,-3.235,1.282,0.641,73.333,609.000,1.000,3.646,0.000
-28838.080,-27020.060,-35048.200,-32542.400,-24549.270,-23228.890,-21878.960,-22629.520,-0.156,0.976,-0.206,-3.510,1.312,0.793,73.333,610.000,1.000,14.437,0.000
-28951.430,-27123.110,-35167.170,-32655.000,-24643.310,-23321.710,-21964.870,-22716.840,-0.155,0.977,-0.204,-3.693,1.495,1.007,73.333,611.000,1.000,0.016,0.000
-29058.880,-27222.420,-35279.920,-32761.060,-24730.800,-23407.940,-22046.490,-22799.910,-0.159,0.974,-0.202,-3.906,1.587,1.099,73.333,612.000,1.000,2.458,0.000
-29162.380,-27317.800,-35388.740,-32865.530,-24814.750,-23488.560,-22123.950,-22877.060,-0.158,0.975,-0.202,-4.120,1.617,0.946,73.333,613.000,1.000,0.013,0.000
-29263.660,-27411.000,-35497.400,-32971.060,-24899.950,-23567.580,-22201.880,-22951.820,-0.161,0.973,-0.205,-4.242,1.648,0.946,73.333,614.000,1.000,1.883,0.000
-29366.510,-27508.630,-35610.470,-33078.050,-24990.600,-23650.270,-22284.510,-23030.400,-0.163,0.971,-0.205,-4.486,1.495,0.793,73.333,615.000,1.000,16.268,0.000
-29473.780,-27612.110,-35728.100,-33186.780,-25085.580,-23734.740,-22365.940,-23112.120,-0.160,0.969,-0.203,-4.639,1.343,0.641,73.333,616.000,1.000,3.046,0.000
-29582.810,-27714.890,-35845.750,-33296.690,-25181.180,-23816.380,-22442.080,-23193.860,-0.161,0.965,-0.198,-4.669,1.251,0.458,73.333,617.000,1.000,0.017,0.000
-29691.220,-27816.370,-35962.810,-33408.240,-25277.490,-23899.620,-22522.930,-23278.640,-0.164,0.964,-0.196,-4.852,1.190,0.183,73.333,618.000,1.000,1.854,0.000
-29800.430,-27922.100,-36081.910,-33522.960,-25376.300,-23991.250,-22616.250,-23368.180,-0.162,0.960,-0.195,-4.883,1.190,-0.244,73.333,619.000,1.000,2.590,0.000
-29908.920,-28027.160,-36199.140,-33636.280,-25473.140,-24084.750,-22711.800,-23455.510,-0.160,0.957,-0.190,-4.852,1.190,-0.641,73.333,620.000,1.000,2.492,0.000
-30010.970,-28121.750,-36307.490,-33740.090,-25560.120,-24167.700,-22794.660,-23532.690,-0.158,0.955,-0.193,-4.547,1.190,-1.007,73.333,621.000,1.000,2.513,0.000
-30111.040,-28213.440,-36413.910,-33841.450,-25643.140,-24245.840,-22869.650,-23606.690,-0.157,0.953,-0.193,-4.364,1.312,-1.251,73.333,622.000,1.000,8.754,0.000
-30216.900,-28312.350,-36527.810,-33950.950,-25732.270,-24331.710,-22949.200,-23689.470,-0.156,0.952,-0.198,-4.120,1.312,-1.434,73.333,623.000,1.000,6.889,0.000
-30323.690,-28412.230,-36643.270,-34062.530,-25823.380,-24420.530,-23029.790,-23777.660,-0.155,0.950,-0.198,-3.632,1.343,-1.465,73.333,624.000,1.000,0.023,0.000
-30424.350,-28505.730,-36752.400,-34167.480,-25909.390,-24502.050,-23102.460,-23862.030,-0.154,0.950,-0.195,-3.265,1.434,-1.587,73.333,625.000,1.000,1.726,0.000
-30520.790,-28596.880,-36857.120,-34268.170,-25992.600,-24577.950,-23169.900,-23942.830,-0.156,0.954,-0.196,-2.838,1.587,-1.587,73.333,626.000,1.000,2.457,0.000
-30614.150,-28688.110,-36958.630,-34367.070,-26074.550,-24652.510,-23236.650,-24021.140,-0.157,0.954,-0.198,-2.533,1.648,-1.434,73.333,627.000,1.000,9.436,0.000
-30703.120,-28774.740,-37055.490,-34461.650,-26152.610,-24725.010,-23301.510,-24095.500,-0.159,0.957,-0.196,-2.197,1.709,-1.495,73.333,628.000,1.000,0.012,0.000
-30791.540,-28857.440,-37151.260,-34554.740,-26228.010,-24795.520,-23365.120,-24168.370,-0.162,0.960,-0.197,-1.892,1.801,-1.434,73.333,629.000,1.000,1.829,0.000
-30882.800,-28941.030,-37248.710,-34651.080,-26302.930,-24866.830,-23429.850,-24241.950,-0.162,0.958,-0.198,-1.740,1.862,-1.373,73.333,630.000,1.000,3.815,0.000
-30975.740,-29026.860,-37347.070,-34749.130,-26378.130,-24941.910,-23497.870,-24316.950,-0.164,0.959,-0.197,-1.465,1.953,-1.312,73.333,631.000,1.000,19.885,0.000
-31068.510,-29115.250,-37446.280,-34844.980,-26454.480,-25020.950,-23570.170,-24393.830,-0.163,0.960,-0.200,-1.251,1.862,-1.282,73.333,632.000,1.000,0.017,0.000
-31161.100,-29205.230,-37547.190,-34939.060,-26532.830,-25102.390,-23644.820,-24471.260,-0.164,0.962,-0.198,-1.160,1.892,-1.190,73.333,633.000,1.000,0.003,0.000
-31255.260,-29296.590,-37650.090,-35035.300,-26614.280,-25186.670,-23721.150,-24548.820,-0.162,0.963,-0.197,-1.038,1.923,-1.038,73.333,634.000,1.000,2.589,0.000
-31350.590,-29389.820,-37752.790,-35133.370,-26697.340,-25272.670,-23798.950,-24625.830,-0.164,0.965,-0.200,-0.885,1.953,-0.732,73.333,635.000,1.000,2.529,0.000
-31442.740,-29479.820,-37851.160,-35228.430,-26777.380,-25355.970,-23875.570,-24699.250,-0.164,0.965,-0.201,-0.885,1.984,-0.580,73.333,636.000,1.000,2.407,0.000
-31530.900,-29564.080,-37945.070,-35319.750,-26853.920,-25434.960,-23950.720,-24769.210,-0.162,0.969,-0.197,-1.068,1.953,-0.305,73.333,637.000,1.000,2.510,0.000
-31621.600,-29649.010,-38040.230,-35412.670,-26932.260,-25510.840,-24026.970,-24839.770,-0.164,0.969,-0.198,-1.129,1.984,-0.183,73.333,638.000,1.000,3.763,0.000
-31717.770,-29737.130,-38139.110,-35508.070,-27013.530,-25582.520,-24102.810,-24911.200,-0.165,0.970,-0.201,-1.221,2.014,-0.092,73.333,639.000,1.000,6.850,0.000
-31816.100,-29825.460,-38240.550,-35603.750,-27095.250,-25650.610,-24176.380,-24981.450,-0.165,0.971,-0.203,-1.373,1.923,-0.061,73.333,640.000,1.000,0.011,0.000
-31913.380,-29912.580,-38343.600,-35699.920,-27176.380,-25718.350,-24249.410,-25050.520,-0.166,0.975,-0.204,-1.526,1.892,0.092,73.333,641.000,1.000,5.626,0.000
-32006.040,-29997.780,-38443.880,-35792.930,-27253.240,-25784.180,-24318.180,-25115.280,-0.167,0.978,-0.203,-1.892,1.862,0.244,73.333,642.000,1.000,14.318,0.000
-32094.340,-30080.350,-38539.370,-35882.120,-27325.190,-25845.490,-24379.120,-25175.010,-0.166,0.977,-0.203,-2.197,1.801,0.244,73.333,643.000,1.000,0.011,0.000
-32182.660,-30161.020,-38633.800,-35972.280,-27397.610,-25904.580,-24437.930,-25236.600,-0.165,0.980,-0.205,-2.563,1.678,0.366,73.333,644.000,1.000,1.935,0.000
-32273.550,-30244.910,-38730.620,-36065.550,-27474.250,-25968.120,-24501.720,-25304.880,-0.164,0.979,-0.205,-2.899,1.648,0.336,73.333,645.000,1.000,4.324,0.000
-32365.070,-30331.940,-38828.120,-36161.130,-27552.850,-26038.460,-24569.780,-25375.830,-0.163,0.975,-0.203,-3.326,1.556,0.366,73.333,646.000,1.000,0.008,0.000
-32454.130,-30414.900,-38921.970,-36256.110,-27628.890,-26109.780,-24636.780,-25444.500,-0.162,0.976,-0.207,-3.601,1.404,0.275,73.333,647.000,1.000,3.675,0.000
-32543.330,-30496.300,-39015.600,-36350.880,-27704.890,-26181.700,-24704.170,-25515.740,-0.161,0.976,-0.208,-3.876,1.312,0.061,73.333,648.000,1.000,0.008,0.000
-32635.070,-30581.460,-39113.360,-36447.570,-27783.450,-26256.080,-24773.880,-25593.540,-0.163,0.976,-0.203,-4.150,1.282,-0.061,73.333,649.000,1.000,15.744,0.000
-32723.370,-30663.190,-39207.880,-36539.680,-27857.120,-26323.690,-24835.990,-25668.240,-0.163,0.979,-0.202,-4.425,1.190,-0.183,73.333,650.000,1.000,5.541,0.000
-32806.140,-30738.400,-39296.140,-36623.590,-27924.660,-26383.090,-24888.310,-25735.390,-0.165,0.978,-0.201,-4.669,1.251,-0.305,73.333,651.000,1.000,0.012,0.000
-32889.690,-30814.040,-39385.230,-36706.720,-27995.030,-26448.260,-24947.670,-25804.450,-0.164,0.974,-0.196,-5.035,1.282,-0.549,73.333,652.000,1.000,4.983,0.000
-32972.940,-30890.360,-39473.540,-36790.760,-28067.260,-26521.860,-25018.790,-25875.730,-0.162,0.967,-0.197,-5.127,1.190,-0.641,73.333,653.000,1.000,0.005,0.000
-33052.360,-30966.200,-39557.370,-36873.700,-28136.960,-26596.940,-25090.280,-25943.110,-0.158,0.957,-0.196,-5.280,1.251,-0.824,73.333,654.000,1.000,1.888,0.000
-33130.710,-31043.750,-39640.040,-36957.040,-28206.860,-26672.600,-25159.730,-26009.440,-0.154,0.954,-0.196,-5.096,1.526,-1.007,73.333,655.000,1.000,8.772,0.000
-33209.860,-31122.450,-39723.210,-37039.880,-28277.560,-26747.420,-25229.100,-26077.780,-0.153,0.952,-0.199,-4.761,1.648,-0.977,73.333,656.000,1.000,3.107,0.000
-33290.070,-31200.420,-39807.860,-37123.080,-28348.040,-26817.680,-25294.200,-26145.890,-0.153,0.952,-0.201,-4.517,1.831,-0.916,73.333,657.000,1.000,0.005,0.000
-33371.710,-31277.700,-39896.070,-37209.860,-28419.550,-26884.960,-25355.060,-26212.960,-0.155,0.953,-0.195,-4.364,1.923,-0.916,73.333,658.000,1.000,3.207,0.000
-33451.670,-31353.660,-39985.010,-37295.670,-28490.240,-26951.160,-25415.780,-26278.760,-0.156,0.953,-0.196,-4.089,2.106,-0.763,73.333,659.000,1.000,9.285,0.000
-33528.860,-31425.570,-40070.890,-37375.110,-28557.740,-27014.840,-25476.770,-26342.010,-0.160,0.954,-0.193,-3.815,2.258,-0.671,73.333,660.000,1.000,0.010,0.000
-33609.270,-31495.300,-40156.080,-37454.220,-28624.750,-27077.410,-25539.020,-26404.130,-0.156,0.952,-0.193,-3.571,2.319,-0.488,73.333,661.000,1.000,1.829,0.000
-33693.410,-31568.110,-40240.750,-37535.750,-28690.400,-27136.910,-25599.720,-26463.080,-0.156,0.952,-0.195,-3.296,2.563,-0.397,73.333,662.000,1.000,8.995,0.000
-33774.110,-31643.210,-40320.430,-37611.940,-28750.710,-27189.430,-25652.720,-26514.240,-0.158,0.954,-0.193,-2.960,2.563,-0.336,73.333,663.000,1.000,25.527,0.000
-33851.610,-31717.680,-40398.810,-37685.380,-28811.730,-27243.540,-25704.710,-26564.940,-0.162,0.954,-0.189,-2.716,2.686,-0.275,73.333,664.000,1.000,0.014,0.000
-33932.330,-31795.620,-40485.180,-37767.570,-28882.880,-27310.420,-25767.890,-26625.710,-0.165,0.958,-0.196,-2.350,2.625,-0.397,73.333,665.000,1.000,4.302,0.000
-34013.750,-31876.300,-40575.340,-37854.550,-28958.180,-27383.710,-25837.810,-26689.900,-0.170,0.959,-0.197,-2.136,2.655,-0.305,73.333,666.000,1.000,2.503,0.000
-34090.270,-31951.680,-40659.690,-37936.150,-29026.900,-27451.680,-25902.570,-26748.080,-0.171,0.964,-0.197,-1.892,2.563,-0.275,73.333,667.000,1.000,2.417,0.000
-34165.970,-32023.130,-40740.960,-38014.750,-29092.050,-27514.860,-25960.870,-26803.600,-0.170,0.963,-0.197,-1.709,2.441,-0.305,73.333,668.000,1.000,5.004,0.000
-34243.500,-32095.430,-40822.720,-38091.980,-29157.090,-27575.480,-26013.920,-26857.790,-0.170,0.964,-0.199,-1.678,2.350,-0.366,73.333,669.000,1.000,2.526,0.000
-34321.120,-32169.110,-40904.860,-38167.020,-29221.150,-27634.730,-26064.990,-26911.160,-0.169,0.966,-0.200,-1.587,2.289,-0.305,73.333,670.000,1.000,2.490,0.000
-34401.730,-32246.890,-40990.660,-38245.770,-29289.010,-27698.890,-26123.890,-26972.410,-0.168,0.965,-0.198,-1.556,2.167,-0.183,73.333,671.000,1.000,2.501,0.000
-34483.540,-32324.970,-41077.790,-38328.430,-29360.750,-27767.160,-26189.400,-27042.140,-0.167,0.967,-0.198,-1.465,2.075,-0.305,73.333,672.000,1.000,2.493,0.000
-34559.680,-32395.260,-41158.410,-38407.150,-29427.990,-27830.880,-26249.250,-27109.340,-0.167,0.967,-0.200,-1.556,1.923,-0.244,73.333,673.000,1.000,2.551,0.000
-34632.510,-32461.950,-41234.070,-38482.140,-29490.210,-27889.940,-26302.270,-27170.290,-0.165,0.966,-0.200,-1.526,1.923,-0.183,73.333,674.000,1.000,2.476,0.000
-34706.130,-32531.110,-41310.170,-38558.230,-29552.400,-27948.520,-26354.330,-27229.270,-0.166,0.970,-0.200,-1.556,1.862,-0.153,73.333,675.000,1.000,3.057,0.000
-34778.450,-32600.340,-41386.480,-38634.910,-29614.670,-28005.780,-26405.660,-27287.900,-0.165,0.971,-0.200,-1.648,1.801,-0.153,73.333,676.000,1.000,0.007,0.000
-34849.700,-32666.910,-41463.290,-38711.250,-29677.410,-28061.420,-26456.500,-27346.940,-0.167,0.974,-0.202,-1.740,1.678,-0.092,73.333,677.000,1.000,1.887,0.000
-34919.700,-32729.360,-41539.680,-38784.690,-29739.150,-28115.410,-26506.270,-27404.950,-0.167,0.976,-0.199,-1.923,1.648,-0.092,73.333,678.000,1.000,2.556,0.000
-34988.660,-32789.770,-41614.670,-38853.760,-29798.020,-28169.060,-26554.990,-27460.790,-0.169,0.976,-0.199,-1.953,1.465,0.000,73.333,679.000,1.000,3.057,0.000
-35059.970,-32854.360,-41689.800,-38923.070,-29856.130,-28225.160,-26605.990,-27516.230,-0.167,0.976,-0.200,-2.167,1.343,0.122,73.333,680.000,1.000,0.006,0.000
-35131.820,-32922.720,-41762.830,-38993.360,-29912.950,-28282.220,-26657.830,-27570.470,-0.167,0.976,-0.202,-2.380,1.099,0.183,73.333,681.000,1.000,8.168,0.000
-35201.730,-32989.860,-41833.360,-39062.910,-29969.450,-28340.100,-26709.790,-27624.870,-0.168,0.975,-0.199,-2.563,0.977,0.153,73.333,682.000,1.000,3.044,0.000
-35270.340,-33054.450,-41903.850,-39131.890,-30027.810,-28398.260,-26763.700,-27680.170,-0.168,0.975,-0.197,-2.869,0.977,0.092,73.333,683.000,1.000,0.087,0.000
-35336.860,-33115.930,-41972.140,-39198.090,-30084.200,-28450.880,-26816.280,-27732.540,-0.165,0.974,-0.199,-3.143,0.732,0.092,73.333,684.000,1.000,13.088,0.000
-35402.960,-33175.660,-42038.110,-39262.160,-30137.590,-28497.780,-26866.200,-27783.130,-0.165,0.972,-0.201,-3.387,0.549,0.122,73.333,685.000,1.000,3.058,0.000
-35471.250,-33237.460,-42106.330,-39327.820,-30191.970,-28545.860,-26917.190,-27835.270,-0.162,0.969,-0.203,-3.510,0.366,0.092,73.333,686.000,1.000,0.008,0.000
-35542.040,-33303.060,-42179.110,-39397.310,-30249.610,-28600.680,-26971.690,-27888.790,-0.160,0.969,-0.200,-3.693,0.244,0.122,73.333,687.000,1.000,1.951,0.000
-35614.360,-33370.930,-42254.140,-39470.120,-30309.550,-28660.630,-27028.130,-27941.930,-0.161,0.964,-0.199,-3.784,0.153,0.244,73.333,688.000,1.000,4.996,0.000
-35683.240,-33436.040,-42325.570,-39540.610,-30366.730,-28717.490,-27081.940,-27990.200,-0.160,0.962,-0.202,-3.815,0.092,0.031,73.333,689.000,1.000,2.436,0.000
-35743.470,-33492.060,-42389.460,-39603.130,-30417.410,-28766.090,-27130.290,-28032.000,-0.158,0.960,-0.201,-3.845,0.000,0.061,73.333,690.000,1.000,11.934,0.000
-35804.250,-33548.920,-42454.770,-39664.880,-30470.480,-28815.520,-27180.130,-28077.800,-0.156,0.958,-0.200,-3.845,0.000,-0.122,73.333,691.000,1.000,0.009,0.000
-35877.310,-33621.330,-42531.720,-39737.230,-30535.750,-28877.650,-27240.640,-28137.160,-0.155,0.959,-0.199,-3.723,0.061,-0.183,73.333,692.000,1.000,1.840,0.000
-35952.300,-33696.290,-42609.160,-39812.600,-30603.060,-28943.870,-27302.540,-28199.240,-0.154,0.957,-0.203,-3.693,0.061,-0.336,73.333,693.000,1.000,5.044,0.000
-36020.020,-33762.360,-42677.920,-39881.310,-30663.360,-29003.560,-27355.480,-28253.580,-0.154,0.951,-0.201,-3.571,0.122,-0.458,73.333,694.000,1.000,7.427,0.000
-36084.610,-33824.520,-42743.580,-39945.820,-30720.410,-29059.620,-27403.480,-28303.330,-0.154,0.950,-0.201,-3.235,0.244,-0.671,73.333,695.000,1.000,2.565,0.000
-36145.120,-33882.050,-42806.720,-40006.300,-30773.740,-29112.120,-27447.110,-28348.340,-0.156,0.949,-0.200,-3.021,0.336,-0.854,73.333,696.000,1.000,2.442,0.000
-36202.390,-33937.460,-42868.180,-40064.010,-30823.870,-29161.240,-27486.830,-28391.310,-0.156,0.951,-0.200,-2.838,0.336,-0.824,73.333,697.000,1.000,12.490,0.000
-36262.720,-33997.010,-42933.430,-40124.600,-30876.290,-29212.410,-27529.790,-28441.240,-0.153,0.954,-0.202,-2.686,0.519,-0.916,73.333,698.000,1.000,3.148,0.000
-36325.640,-34057.570,-43001.010,-40189.720,-30930.880,-29264.030,-27575.990,-28496.780,-0.154,0.957,-0.201,-2.380,0.519,-0.946,73.333,699.000,1.000,0.010,0.000
-36387.630,-34115.290,-43067.190,-40257.620,-30984.370,-29311.000,-27618.760,-28550.690,-0.159,0.960,-0.198,-2.319,0.580,-1.007,73.333,700.000,1.000,1.886,0.000
-36447.700,-34170.020,-43131.550,-40324.570,-31035.870,-29355.550,-27658.790,-28602.100,-0.162,0.964,-0.199,-2.228,0.793,-1.099,73.333,701.000,1.000,2.448,0.000
-36504.310,-34219.600,-43192.250,-40386.430,-31083.680,-29397.800,-27696.890,-28650.230,-0.161,0.964,-0.199,-2.167,0.793,-1.190,73.333,702.000,1.000,2.537,0.000
-36559.270,-34267.000,-43250.610,-40445.080,-31127.940,-29434.690,-27731.830,-28696.540,-0.163,0.966,-0.197,-2.136,0.854,-1.190,73.333,703.000,1.000,3.742,0.000
-36616.230,-34317.980,-43310.320,-40504.990,-31173.960,-29474.540,-27775.700,-28747.500,-0.165,0.969,-0.197,-2.136,0.885,-1.190,73.333,704.000,1.000,14.391,0.000
-36677.930,-34375.210,-43373.710,-40568.580,-31227.470,-29528.510,-27837.160,-28804.570,-0.166,0.969,-0.197,-2.197,1.068,-1.221,73.333,705.000,1.000,0.013,0.000
-36745.180,-34438.000,-43441.840,-40635.450,-31287.350,-29589.810,-27902.140,-28862.540,-0.166,0.968,-0.199,-2.106,1.129,-1.312,73.333,706.000,1.000,1.923,0.000
-36810.300,-34498.040,-43509.230,-40699.810,-31344.990,-29643.520,-27956.160,-28914.240,-0.167,0.966,-0.201,-2.258,1.221,-1.312,73.333,707.000,1.000,2.470,0.000
-36869.630,-34553.960,-43572.910,-40759.060,-31397.460,-29689.150,-28002.070,-28958.760,-0.166,0.967,-0.198,-2.197,1.251,-1.190,73.333,708.000,1.000,2.485,0.000
-36929.790,-34613.070,-43636.790,-40816.990,-31449.230,-29733.380,-28046.050,-29001.270,-0.166,0.966,-0.196,-2.136,1.282,-0.885,73.333,709.000,1.000,3.711,0.000
-36990.610,-34671.420,-43699.030,-40873.770,-31499.350,-29775.620,-28087.560,-29041.840,-0.165,0.968,-0.198,-2.197,1.343,-0.732,73.333,710.000,1.000,9.398,0.000
-37049.580,-34724.810,-43757.900,-40929.560,-31547.010,-29817.530,-28128.310,-29079.510,-0.167,0.968,-0.200,-2.258,1.343,-0.610,73.333,711.000,1.000,0.011,0.000
-37108.060,-34776.650,-43815.000,-40985.380,-31593.890,-29861.690,-28169.780,-29115.440,-0.167,0.967,-0.199,-2.350,1.434,-0.366,73.333,712.000,1.000,1.836,0.000
-37165.130,-34827.790,-43870.110,-41040.050,-31639.420,-29906.130,-28210.560,-29150.970,-0.168,0.969,-0.196,-2.319,1.404,-0.214,73.333,713.000,1.000,2.492,0.000
-37220.000,-34877.590,-43923.790,-41093.160,-31683.100,-29950.370,-28248.920,-29187.660,-0.168,0.970,-0.198,-2.258,1.465,-0.031,73.333,714.000,1.000,8.704,0.000
-37272.180,-34925.930,-43975.790,-41144.160,-31723.640,-29993.320,-28282.520,-29223.920,-0.167,0.971,-0.196,-2.289,1.495,0.061,73.333,715.000,1.000,3.106,0.000
-37324.320,-34975.680,-44029.210,-41196.880,-31764.760,-30036.540,-28317.290,-29262.750,-0.166,0.971,-0.200,-2.441,1.495,0.061,73.333,716.000,1.000,0.015,0.000
-37379.590,-35027.310,-44087.440,-41253.420,-31810.660,-30082.760,-28359.540,-29306.160,-0.166,0.970,-0.201,-2.472,1.404,0.214,73.333,717.000,1.000,1.915,0.000
-37435.270,-35076.870,-44145.480,-41308.360,-31857.180,-30129.100,-28404.290,-29346.890,-0.165,0.970,-0.201,-2.686,1.373,0.061,73.333,718.000,1.000,16.302,0.000
-37488.080,-35124.220,-44198.820,-41359.120,-31900.270,-30172.730,-28443.840,-29383.130,-0.166,0.969,-0.201,-2.686,1.312,0.092,73.333,719.000,1.000,3.061,0.000
-37540.800,-35173.350,-44251.800,-41410.930,-31944.660,-30217.960,-28482.110,-29424.740,-0.165,0.970,-0.203,-2.747,1.251,0.183,73.333,720.000,1.000,0.009,0.000
-37594.670,-35223.110,-44306.270,-41465.820,-31993.260,-30266.730,-28525.680,-29474.770,-0.165,0.966,-0.202,-2.808,1.251,0.183,73.333,721.000,1.000,1.879,0.000
-37644.050,-35268.430,-44356.660,-41517.440,-32038.970,-30312.110,-28567.220,-29522.600,-0.165,0.965,-0.198,-2.930,1.190,0.214,73.333,722.000,1.000,2.510,0.000
-37691.410,-35313.640,-44406.860,-41567.910,-32082.080,-30355.550,-28605.590,-29566.080,-0.164,0.962,-0.199,-2.899,1.160,0.153,73.333,723.000,1.000,5.010,0.000
-37745.210,-35365.700,-44465.410,-41625.540,-32130.770,-30404.090,-28649.260,-29612.640,-0.161,0.964,-0.199,-2.991,1.221,0.153,73.333,724.000,1.000,4.962,0.000
-37803.570,-35420.850,-44528.000,-41686.980,-32183.520,-30452.930,-28695.510,-29662.670,-0.163,0.967,-0.204,-3.082,1.190,0.122,73.333,725.000,1.000,2.445,0.000
-37856.890,-35469.520,-44582.550,-41741.110,-32230.220,-30491.020,-28733.590,-29708.340,-0.160,0.966,-0.204,-3.143,1.190,0.122,73.333,726.000,1.000,3.786,0.000
-37901.970,-35510.970,-44626.400,-41784.870,-32267.030,-30518.310,-28761.710,-29744.830,-0.159,0.969,-0.200,-3.357,1.099,0.122,73.333,727.000,1.000,4.298,0.000
-37946.460,-35553.950,-44670.190,-41828.330,-32303.460,-30548.220,-28791.940,-29780.870,-0.158,0.970,-0.200,-3.326,1.007,0.061,73.333,728.000,1.000,0.010,0.000
-37996.400,-35602.540,-44721.450,-41879.190,-32347.830,-30587.750,-28831.210,-29824.360,-0.156,0.969,-0.198,-3.571,1.007,-0.061,73.333,729.000,1.000,10.733,0.000
-38048.920,-35652.310,-44775.820,-41932.300,-32395.340,-30627.930,-28869.980,-29867.910,-0.155,0.968,-0.199,-3.662,1.038,-0.092,73.333,730.000,1.000,6.932,0.000
-38099.200,-35697.070,-44826.660,-41980.820,-32437.590,-30658.340,-28897.010,-29904.330,-0.154,0.968,-0.200,-3.815,1.160,-0.183,73.333,731.000,1.000,0.027,0.000
-38145.470,-35737.060,-44872.910,-42023.840,-32474.750,-30683.730,-28920.800,-29938.990,-0.154,0.968,-0.202,-3.845,1.129,-0.183,73.333,732.000,1.000,11.118,0.000
-38189.140,-35778.800,-44917.880,-42066.170,-32513.230,-30717.340,-28959.720,-29977.290,-0.155,0.967,-0.199,-3.845,1.190,-0.397,73.333,733.000,1.000,0.010,0.000
-38232.920,-35823.880,-44963.900,-42113.350,-32554.850,-30759.040,-29010.710,-30016.230,-0.156,0.964,-0.198,-3.967,1.282,-0.519,73.333,734.000,1.000,2.495,0.000
-38279.290,-35870.180,-45012.410,-42164.540,-32597.670,-30802.610,-29062.050,-30055.640,-0.156,0.958,-0.201,-4.089,1.373,-0.702,73.333,735.000,1.000,0.010,0.000
-38329.580,-35919.280,-45064.560,-42216.310,-32641.740,-30849.240,-29114.250,-30097.760,-0.156,0.955,-0.199,-3.937,1.434,-0.763,73.333,736.000,1.000,16.397,0.000
-38382.170,-35971.740,-45117.020,-42266.430,-32685.260,-30896.670,-29163.770,-30136.610,-0.155,0.953,-0.198,-3.815,1.495,-0.946,73.333,737.000,1.000,0.021,0.000
-38434.180,-36022.890,-45166.230,-42313.350,-32725.130,-30937.790,-29200.740,-30167.190,-0.156,0.948,-0.194,-3.479,1.495,-0.977,73.333,738.000,1.000,2.304,0.000
-38483.610,-36067.060,-45213.610,-42357.620,-32762.630,-30971.850,-29226.080,-30193.530,-0.156,0.947,-0.195,-3.113,1.709,-0.977,73.333,739.000,1.000,0.010,0.000
-38528.460,-36104.710,-45259.590,-42398.840,-32798.930,-31003.690,-29248.340,-30217.940,-0.159,0.948,-0.198,-2.747,1.678,-1.068,73.333,740.000,1.000,2.587,0.000
-38569.960,-36140.760,-45303.720,-42437.320,-32833.600,-31038.690,-29274.060,-30241.120,-0.161,0.954,-0.193,-2.411,1.648,-1.068,73.333,741.000,1.000,0.009,0.000
-38615.220,-36182.160,-45350.330,-42480.000,-32870.860,-31080.530,-29307.040,-30269.500,-0.161,0.957,-0.193,-2.136,1.831,-1.068,73.333,742.000,1.000,10.545,0.000
-38662.810,-36227.570,-45397.810,-42526.080,-32909.740,-31123.390,-29341.140,-30303.560,-0.164,0.959,-0.192,-1.923,1.862,-1.038,73.333,743.000,1.000,4.418,0.000
-38703.630,-36266.980,-45438.720,-42565.150,-32944.300,-31160.120,-29369.990,-30337.910,-0.165,0.960,-0.192,-1.770,1.801,-1.007,73.333,744.000,1.000,0.009,0.000
-38738.920,-36302.160,-45474.300,-42598.940,-32976.250,-31194.110,-29397.590,-30372.380,-0.166,0.961,-0.193,-1.556,1.740,-0.854,73.333,745.000,1.000,7.424,0.000
-38774.190,-36340.010,-45509.270,-42637.790,-33009.720,-31229.860,-29427.780,-30408.060,-0.167,0.963,-0.193,-1.404,1.678,-0.793,73.333,746.000,1.000,0.008,0.000
-38810.300,-36378.010,-45545.320,-42682.840,-33046.290,-31266.810,-29461.010,-30445.840,-0.169,0.966,-0.194,-1.190,1.740,-0.732,73.333,747.000,1.000,16.240,0.000
-38845.730,-36411.830,-45581.860,-42724.590,-33084.310,-31302.650,-29494.490,-30484.280,-0.169,0.969,-0.195,-1.068,1.801,-0.702,73.333,748.000,1.000,0.018,0.000
-38881.890,-36446.630,-45620.510,-42761.870,-33122.960,-31339.130,-29527.780,-30522.800,-0.166,0.971,-0.196,-1.099,1.770,-0.519,73.333,749.000,1.000,6.757,0.000
-38920.390,-36485.870,-45661.720,-42801.400,-33160.290,-31375.650,-29560.590,-30560.470,-0.165,0.971,-0.195,-1.190,1.678,-0.336,73.333,750.000,1.000,0.007,0.000
-38956.450,-36520.950,-45698.850,-42838.610,-33189.260,-31404.850,-29586.720,-30590.810,-0.165,0.973,-0.196,-1.251,1.709,-0.214,73.333,751.000,1.000,0.003,0.000
-38990.660,-36551.160,-45732.210,-42871.270,-33212.730,-31428.110,-29608.190,-30616.740,-0.164,0.974,-0.197,-1.404,1.648,-0.061,73.333,752.000,1.000,3.182,0.000
-39030.200,-36584.850,-45769.470,-42908.290,-33241.300,-31453.150,-29633.710,-30647.960,-0.164,0.975,-0.199,-1.434,1.709,0.061,73.333,753.000,1.000,0.004,0.000
-39076.440,-36625.210,-45812.590,-42952.870,-33277.700,-31482.740,-29665.960,-30685.240,-0.166,0.975,-0.197,-1.678,1.740,0.336,73.333,754.000,1.000,4.428,0.000
-39127.520,-36672.900,-45861.330,-43001.770,-33321.250,-31518.580,-29705.560,-30726.540,-0.164,0.974,-0.198,-1.770,1.740,0.458,73.333,755.000,1.000,5.000,0.000
-39178.790,-36722.500,-45912.140,-43049.380,-33368.030,-31556.710,-29748.520,-30767.300,-0.162,0.974,-0.201,-2.014,1.678,0.397,73.333,756.000,1.000,2.501,0.000
-39222.910,-36762.920,-45956.180,-43089.040,-33407.860,-31586.060,-29783.220,-30798.810,-0.162,0.974,-0.201,-2.075,1.617,0.427,73.333,757.000,1.000,8.679,0.000
-39259.210,-36793.050,-45991.340,-43120.540,-33436.730,-31604.620,-29805.240,-30819.830,-0.161,0.972,-0.202,-2.319,1.740,0.336,73.333,758.000,1.000,8.053,0.000
-39290.820,-36818.860,-46021.490,-43147.510,-33458.090,-31618.000,-29820.280,-30835.370,-0.160,0.972,-0.206,-2.472,1.801,0.336,73.333,759.000,1.000,0.009,0.000
-39324.350,-36846.900,-46053.820,-43177.240,-33481.540,-31634.030,-29838.630,-30852.750,-0.160,0.972,-0.202,-2.625,1.740,0.458,73.333,760.000,1.000,4.462,0.000
-39367.860,-36884.310,-46096.460,-43217.310,-33519.110,-31662.970,-29870.830,-30881.190,-0.158,0.971,-0.205,-2.655,1.831,0.458,73.333,761.000,1.000,2.419,0.000
-39416.000,-36927.310,-46144.250,-43261.770,-33564.900,-31701.310,-29911.130,-30917.880,-0.162,0.972,-0.204,-2.808,1.831,0.366,73.333,762.000,1.000,2.574,0.000
-39458.790,-36966.970,-46186.780,-43301.710,-33604.360,-31736.630,-29945.180,-30951.540,-0.160,0.971,-0.202,-2.838,1.709,0.336,73.333,763.000,1.000,3.707,0.000
-39496.050,-37001.510,-46222.810,-43337.930,-33636.180,-31767.390,-29971.720,-30979.520,-0.160,0.971,-0.203,-3.052,1.617,0.122,73.333,764.000,1.000,9.425,0.000
-39530.090,-37031.970,-46254.250,-43371.420,-33663.840,-31796.570,-29995.650,-31004.090,-0.157,0.971,-0.203,-3.143,1.587,0.031,73.333,765.000,1.000,0.011,0.000
