EEG 1, EEG 2, EEG 3, EEG 4, EEG 5, EEG 6, EEG 7, EEG 8, ACC X, ACC Y, ACC Z, GYR X, GYR Y, GYR Z, BAT, CNT, VALID, DT, TRIG
750000.100,750000.100,139894.400,653319.100,750000.100,750000.100,750000.100,750000.100,-0.142,0.961,-0.154,0.000,0.000,0.000,73.333,1.000,1.000,0.000,0.000
750000.100,750000.100,193972.000,555859.400,465088.200,654802.300,750000.100,750000.100,-0.140,0.972,-0.164,0.000,0.000,0.000,73.333,2.000,1.000,13.104,0.000
530512.100,750000.100,348625.600,629768.600,-121774.600,300584.400,750000.100,646371.700,-0.138,0.969,-0.170,0.000,0.000,0.000,73.333,3.000,1.000,9.947,0.000
469047.900,750000.100,608329.100,693018.600,-254897.400,228748.300,750000.100,600842.000,-0.141,0.976,-0.169,0.000,0.000,0.000,73.333,4.000,1.000,4.990,0.000
490811.500,644137.900,574709.900,750000.100,-391891.900,270123.600,750000.100,667414.600,-0.137,0.977,-0.176,-4.883,5.768,-5.859,73.333,5.000,1.000,2.479,0.000
385321.200,367727.200,555725.800,750000.100,-743903.300,436533.900,750000.100,731910.100,-0.138,0.983,-0.176,-5.402,5.615,-4.486,73.333,6.000,1.000,5.013,0.000
391313.600,186331.600,660429.100,750000.100,-750000.100,524211.100,750000.100,750000.100,-0.142,0.988,-0.176,-3.967,3.479,-2.014,73.333,7.000,1.000,2.517,0.000
750000.100,626963.000,749566.900,750000.100,196325.900,554198.100,750000.100,750000.100,-0.141,0.986,-0.175,-3.754,2.533,-1.312,73.333,8.000,1.000,2.458,0.000
750000.100,750000.100,750000.100,750000.100,750000.100,750000.100,750000.100,750000.100,-0.148,0.989,-0.169,-3.662,2.045,-1.038,73.333,9.000,1.000,2.526,0.000
750000.100,750000.100,750000.100,750000.100,750000.100,750000.100,750000.100,750000.100,-0.147,0.985,-0.170,-3.937,1.678,-1.099,73.333,10.000,1.000,7.501,0.000
750000.100,750000.100,750000.100,750000.100,750000.100,750000.100,750000.100,750000.100,-0.148,0.981,-0.169,-4.059,1.526,-1.160,73.333,11.000,1.000,2.514,0.000
750000.100,750000.100,750000.100,750000.100,750000.100,750000.100,750000.100,750000.100,-0.147,0.979,-0.172,-4.150,1.190,-1.099,73.333,12.000,1.000,3.052,0.000
750000.100,750000.100,750000.100,750000.100,750000.100,750000.100,750000.100,750000.100,-0.141,0.974,-0.174,-4.395,0.977,-1.312,73.333,13.000,1.000,0.011,0.000
750000.100,750000.100,750000.100,750000.100,750000.100,750000.100,700879.600,737257.100,-0.145,0.974,-0.173,-4.150,0.702,-1.251,73.333,14.000,1.000,1.914,0.000
750000.100,748052.400,750000.100,750000.100,673045.100,638490.100,593605.100,623760.100,-0.142,0.966,-0.172,-4.242,0.366,-1.251,73.333,15.000,1.000,13.744,0.000
684663.100,640343.000,750000.100,750000.100,576431.300,546647.200,508733.900,534065.800,-0.140,0.959,-0.172,-4.303,0.214,-1.190,73.333,16.000,1.000,7.494,0.000
590722.300,552342.400,750000.100,750000.100,497427.100,471472.800,439264.400,460744.400,-0.139,0.955,-0.174,-4.059,0.122,-1.160,73.333,17.000,1.000,0.015,0.000
512610.600,479120.700,750000.100,750000.100,431725.200,409017.800,381527.900,399790.900,-0.130,0.950,-0.178,-3.998,0.061,-1.160,73.333,18.000,1.000,0.007,0.000
446923.100,417554.500,750000.100,750000.100,376506.500,356750.000,332993.100,348678.900,-0.128,0.955,-0.181,-3.510,0.244,-0.977,73.333,19.000,1.000,2.337,0.000
392827.700,366956.500,750000.100,750000.100,331069.700,313641.700,292817.100,306423.700,-0.128,0.962,-0.179,-3.174,0.366,-0.763,73.333,20.000,1.000,8.900,0.000
360872.800,337166.800,750000.100,750000.100,304168.300,288152.300,269112.300,281457.400,-0.129,0.962,-0.177,-2.960,0.458,-0.641,73.333,21.000,1.000,2.481,0.000
348666.600,325735.900,750000.100,750000.100,293882.800,278400.500,260038.200,271899.400,-0.129,0.964,-0.178,-2.838,0.610,-0.458,73.333,22.000,1.000,2.538,0.000
339280.600,316879.700,750000.100,750000.100,285994.900,270897.300,253062.900,264544.600,-0.135,0.968,-0.179,-2.686,0.793,-0.336,73.333,23.000,1.000,5.558,0.000
330618.300,308757.600,750000.100,750000.100,278739.500,263995.300,246654.600,257763.600,-0.135,0.971,-0.180,-2.594,0.977,-0.153,73.333,24.000,1.000,0.008,0.000
322554.800,301227.700,750000.100,750000.100,271982.800,257576.700,240679.200,251476.600,-0.138,0.971,-0.180,-2.441,1.160,-0.122,73.333,25.000,1.000,4.397,0.000
315091.500,294274.400,750000.100,750000.100,265699.600,251648.300,235127.500,245642.900,-0.140,0.972,-0.180,-2.411,1.251,0.122,73.333,26.000,1.000,2.443,0.000
308188.200,287821.100,750000.100,750000.100,259847.000,246131.000,229962.600,240234.800,-0.143,0.976,-0.181,-2.411,1.373,0.183,73.333,27.000,1.000,2.528,0.000
301866.200,281875.500,750000.100,750000.100,254525.700,241085.300,225240.900,235289.500,-0.146,0.981,-0.182,-2.502,1.404,0.244,73.333,28.000,1.000,8.776,0.000
295952.400,276330.500,750000.100,750000.100,249566.900,236387.400,220826.400,230659.400,-0.145,0.982,-0.183,-2.655,1.343,0.244,73.333,29.000,1.000,12.444,0.000
290413.200,271154.100,750000.100,750000.100,244916.000,231984.800,216702.700,226336.100,-0.141,0.981,-0.184,-2.686,1.251,0.275,73.333,30.000,1.000,0.019,0.000
285269.000,266368.500,750000.100,750000.100,240573.900,227892.400,212880.700,222324.900,-0.135,0.979,-0.181,-2.808,1.373,0.336,73.333,31.000,1.000,0.011,0.000
280386.000,261810.500,750000.100,750000.100,236424.700,223970.500,209198.400,218486.400,-0.131,0.979,-0.178,-2.777,1.526,0.214,73.333,32.000,1.000,3.083,0.000
275894.600,257587.400,750000.100,750000.100,232640.700,220357.700,205824.700,214978.500,-0.128,0.980,-0.175,-2.930,1.740,0.305,73.333,33.000,1.000,0.010,0.000
271742.200,253696.500,750000.100,750000.100,229186.100,217087.000,202775.300,211763.300,-0.126,0.979,-0.174,-3.021,2.075,0.275,73.333,34.000,1.000,1.926,0.000
267714.700,249937.700,750000.100,748088.000,225789.100,213858.500,199736.400,208584.300,-0.128,0.976,-0.170,-3.174,2.411,0.549,73.333,35.000,1.000,13.797,0.000
263932.200,246405.500,750000.100,736671.900,222588.100,210830.100,196911.500,205617.900,-0.129,0.972,-0.169,-3.326,2.716,0.641,73.333,36.000,1.000,4.310,0.000
260427.300,243135.800,750000.100,725974.700,219620.200,208034.900,194293.200,202886.000,-0.131,0.972,-0.168,-3.418,2.991,0.610,73.333,37.000,1.000,0.017,0.000
257160.500,240068.200,750000.100,715934.400,216869.400,205427.100,191848.300,200335.200,-0.133,0.969,-0.173,-3.357,3.235,0.397,73.333,38.000,1.000,8.750,0.000
254077.000,237180.100,750000.100,706470.600,214292.600,202980.800,189550.900,197933.000,-0.138,0.970,-0.173,-3.448,3.357,0.366,73.333,39.000,1.000,0.016,0.000
251167.700,234464.000,750000.100,697537.000,211864.500,200670.100,187401.500,195682.300,-0.141,0.970,-0.174,-3.326,3.387,0.275,73.333,40.000,1.000,6.194,0.000
248298.300,231785.300,748948.100,688972.100,209428.200,198362.200,185252.100,193422.700,-0.146,0.975,-0.172,-3.235,3.387,0.031,73.333,41.000,1.000,0.011,0.000
245635.500,229301.800,739987.900,680913.800,207162.100,196220.200,183256.900,191337.200,-0.148,0.976,-0.171,-3.235,3.387,-0.214,73.333,42.000,1.000,2.478,0.000
243198.700,227009.300,731583.700,673372.400,205118.500,194282.000,181449.300,189449.900,-0.150,0.979,-0.172,-3.204,3.174,-0.458,73.333,43.000,1.000,0.011,0.000
240869.000,224827.200,723605.100,666208.000,203175.800,192434.100,179726.700,187640.600,-0.151,0.980,-0.175,-3.357,3.021,-0.580,73.333,44.000,1.000,13.121,0.000
238692.800,222806.900,716081.900,659453.900,201373.600,190720.100,178133.300,185974.000,-0.148,0.984,-0.173,-3.326,2.808,-0.671,73.333,45.000,1.000,11.257,0.000
236568.800,220832.900,708886.800,652978.400,199579.500,189034.100,176564.600,184326.400,-0.146,0.987,-0.173,-3.235,2.563,-0.885,73.333,46.000,1.000,0.019,0.000
234504.700,218913.600,702001.100,646785.500,197811.000,187369.700,175001.300,182689.600,-0.143,0.987,-0.171,-3.326,2.350,-0.885,73.333,47.000,1.000,0.007,0.000
232618.500,217131.300,695521.300,640975.100,196218.400,185852.400,173573.200,181209.800,-0.145,0.990,-0.168,-3.571,1.984,-0.854,73.333,48.000,1.000,2.559,0.000
230858.800,215472.300,689397.800,635489.700,194759.700,184459.500,172276.200,179843.800,-0.148,0.986,-0.171,-3.784,1.678,-0.763,73.333,49.000,1.000,2.387,0.000
229161.100,213893.500,683554.000,630240.400,193345.000,183119.800,171027.300,178525.700,-0.149,0.978,-0.168,-4.028,1.434,-0.793,73.333,50.000,1.000,5.016,0.000
227530.100,212391.900,677983.300,625231.200,191969.000,181829.000,169828.000,177265.000,-0.150,0.977,-0.169,-4.059,1.068,-0.641,73.333,51.000,1.000,2.565,0.000
225987.700,210961.200,672680.500,620469.100,190657.800,180598.200,168686.800,176073.500,-0.150,0.974,-0.169,-3.998,0.641,-0.641,73.333,52.000,1.000,2.453,0.000
224502.000,209547.600,667595.600,615912.800,189392.800,179393.800,167552.800,174881.800,-0.152,0.973,-0.169,-3.967,0.244,-0.732,73.333,53.000,1.000,3.762,0.000
223142.200,208268.600,662812.700,611630.200,188265.000,178313.400,166536.100,173825.000,-0.150,0.972,-0.165,-3.845,-0.122,-0.732,73.333,54.000,1.000,6.230,0.000
221838.400,207060.600,658252.000,607541.600,187183.000,177289.200,165584.400,172826.100,-0.150,0.970,-0.162,-3.784,-0.488,-0.854,73.333,55.000,1.000,9.375,0.000
220537.600,205858.000,653848.800,603576.800,186083.300,176265.900,164628.900,171810.100,-0.150,0.968,-0.165,-3.601,-0.977,-0.854,73.333,56.000,1.000,0.009,0.000
219294.200,204696.400,649631.400,599786.800,185013.100,175254.500,163674.000,170827.700,-0.150,0.968,-0.164,-3.510,-1.404,-0.763,73.333,57.000,1.000,4.942,0.000
218205.100,203665.400,645691.800,596266.300,184096.800,174368.600,162846.600,169986.700,-0.149,0.964,-0.167,-3.296,-1.678,-0.641,73.333,58.000,1.000,0.007,0.000
217125.600,202653.900,641894.300,592866.400,183206.300,173518.800,162049.100,169149.500,-0.147,0.958,-0.166,-3.082,-2.075,-0.641,73.333,59.000,1.000,1.962,0.000
216101.100,201708.700,638276.400,589625.600,182362.800,172721.600,161307.600,168367.900,-0.144,0.960,-0.165,-2.716,-2.319,-0.549,73.333,60.000,1.000,2.533,0.000
215093.400,200775.900,634785.100,586491.300,181507.300,171927.500,160571.700,167586.500,-0.144,0.961,-0.163,-2.350,-2.594,-0.610,73.333,61.000,1.000,3.663,0.000
214102.500,199853.000,631404.400,583459.900,180648.500,171134.400,159820.900,166798.000,-0.141,0.969,-0.163,-2.045,-2.808,-0.702,73.333,62.000,1.000,14.338,0.000
213239.600,199034.900,628243.800,580644.900,179917.200,170425.000,159162.800,166129.600,-0.137,0.974,-0.165,-1.862,-2.808,-0.763,73.333,63.000,1.000,0.014,0.000
212406.000,198246.600,625219.400,577943.200,179232.300,169765.400,158546.700,165469.700,-0.134,0.981,-0.167,-1.801,-2.869,-0.732,73.333,64.000,1.000,1.817,0.000
211591.000,197492.300,622314.100,575338.900,178564.400,169145.400,157960.500,164844.000,-0.129,0.979,-0.167,-1.831,-2.838,-0.732,73.333,65.000,1.000,2.628,0.000
210826.500,196800.300,619544.600,572857.000,177923.800,168559.500,157411.700,164263.500,-0.126,0.973,-0.164,-1.740,-2.747,-0.641,73.333,66.000,1.000,6.135,0.000
210045.900,196061.700,616832.900,570426.600,177241.200,167905.100,156813.000,163647.000,-0.124,0.966,-0.165,-1.709,-2.441,-0.488,73.333,67.000,1.000,2.514,0.000
209349.800,195395.200,614277.200,568155.700,176649.100,167336.700,156285.500,163102.900,-0.120,0.969,-0.171,-1.678,-2.045,-0.336,73.333,68.000,1.000,9.403,0.000
208668.100,194750.800,611815.000,565963.400,176086.700,166798.600,155784.300,162577.700,-0.118,0.971,-0.171,-1.373,-1.587,-0.122,73.333,69.000,1.000,0.019,0.000
208016.200,194139.800,609458.000,563852.200,175556.200,166298.000,155313.600,162076.900,-0.115,0.973,-0.174,-1.343,-1.129,-0.031,73.333,70.000,1.000,1.857,0.000
207401.000,193578.400,607197.800,561829.400,175030.500,165802.600,154856.600,161600.300,-0.118,0.978,-0.169,-1.282,-0.641,0.305,73.333,71.000,1.000,2.502,0.000
206793.800,193015.400,605005.700,559869.600,174494.400,165302.800,154384.700,161116.700,-0.120,0.979,-0.170,-1.373,-0.275,0.336,73.333,72.000,1.000,25.068,0.000
206228.900,192473.100,602914.800,558016.500,174017.200,164844.700,153953.100,160665.600,-0.121,0.980,-0.170,-1.556,0.336,0.366,73.333,73.000,1.000,2.400,0.000
205729.000,191994.700,600949.600,556276.800,173616.800,164452.800,153587.600,160279.700,-0.123,0.981,-0.170,-1.617,0.824,0.549,73.333,74.000,1.000,2.505,0.000
205212.400,191515.500,599027.600,554561.800,173187.500,164048.000,153209.700,159879.900,-0.122,0.981,-0.170,-1.892,1.251,0.641,73.333,75.000,1.000,2.529,0.000
204682.600,191033.300,597148.000,552872.100,172726.300,163623.000,152811.200,159459.000,-0.127,0.986,-0.172,-2.045,1.831,0.885,73.333,76.000,1.000,2.500,0.000
204192.800,190580.500,595353.900,551270.300,172293.300,163221.500,152433.000,159064.900,-0.128,0.985,-0.174,-2.411,1.984,0.793,73.333,77.000,1.000,2.472,0.000
203781.600,190184.600,593674.500,549788.800,171946.700,162888.000,152122.200,158738.200,-0.129,0.983,-0.177,-2.777,2.472,0.671,73.333,78.000,1.000,2.566,0.000
203381.500,189795.200,592056.100,548358.800,171624.400,162567.100,151824.700,158431.900,-0.128,0.983,-0.173,-2.777,2.747,0.702,73.333,79.000,1.000,7.454,0.000
203006.100,189445.300,590512.900,546991.400,171321.800,162280.200,151559.900,158154.100,-0.128,0.982,-0.176,-3.082,3.143,0.366,73.333,80.000,1.000,2.494,0.000
202590.700,189066.500,588972.900,545613.600,170962.300,161950.300,151253.300,157831.200,-0.129,0.986,-0.176,-3.265,3.510,0.305,73.333,81.000,1.000,2.503,0.000
202170.300,188680.600,587468.000,544268.900,170590.100,161604.800,150926.900,157497.300,-0.131,0.988,-0.180,-3.448,3.662,0.183,73.333,82.000,1.000,3.035,0.000
201806.500,188330.900,586049.000,543011.400,170277.400,161300.800,150632.700,157202.600,-0.132,0.986,-0.182,-3.906,3.784,0.122,73.333,83.000,1.000,0.007,0.000
201483.700,188019.600,584710.100,541829.600,170026.100,161053.600,150405.900,156964.500,-0.136,0.987,-0.175,-4.120,3.815,0.000,73.333,84.000,1.000,1.917,0.000
201157.500,187721.400,583411.300,540678.100,169770.500,160811.700,150187.900,156725.400,-0.135,0.980,-0.177,-4.578,3.906,-0.092,73.333,85.000,1.000,2.582,0.000
200802.500,187403.500,582116.500,539525.200,169461.000,160533.600,149917.900,156446.500,-0.135,0.978,-0.180,-4.761,4.150,-0.244,73.333,86.000,1.000,11.746,0.000
200496.500,187122.600,580889.300,538439.500,169182.000,160276.900,149673.000,156190.100,-0.140,0.979,-0.177,-4.761,4.089,-0.397,73.333,87.000,1.000,0.008,0.000
200260.000,186886.900,579754.900,537451.600,168981.700,160078.800,149496.200,156011.100,-0.143,0.973,-0.177,-5.035,3.967,-0.519,73.333,88.000,1.000,1.898,0.000
200062.700,186695.500,578696.000,536530.900,168839.400,159940.100,149371.000,155877.100,-0.150,0.973,-0.180,-5.066,3.723,-0.488,73.333,89.000,1.000,2.598,0.000
199776.600,186431.700,577585.400,535544.300,168610.300,159721.500,149166.500,155650.500,-0.155,0.973,-0.175,-5.096,3.326,-0.549,73.333,90.000,1.000,2.449,0.000
199474.800,186170.700,576489.400,534556.100,168343.300,159480.900,148935.800,155408.600,-0.157,0.972,-0.176,-5.127,2.930,-0.641,73.333,91.000,1.000,6.307,0.000
199248.600,185965.500,575486.200,533672.800,168142.400,159297.800,148769.800,155234.600,-0.159,0.972,-0.173,-5.096,2.258,-0.671,73.333,92.000,1.000,3.061,0.000
199063.300,185776.700,574543.900,532857.400,167991.300,159145.300,148631.900,155100.000,-0.156,0.969,-0.173,-5.157,1.617,-0.671,73.333,93.000,1.000,0.009,0.000
198836.800,185555.200,573587.200,532016.900,167812.100,158959.900,148459.300,154916.000,-0.156,0.967,-0.170,-5.066,1.068,-0.610,73.333,94.000,1.000,1.917,0.000
198594.200,185329.600,572639.800,531168.800,167615.100,158776.800,148275.600,154719.300,-0.159,0.968,-0.164,-4.791,0.549,-0.549,73.333,95.000,1.000,13.768,0.000
198367.200,185129.800,571727.100,530355.100,167409.000,158594.200,148104.700,154534.100,-0.156,0.966,-0.167,-4.730,0.061,-0.641,73.333,96.000,1.000,2.991,0.000
198162.200,184940.800,570850.700,529584.600,167216.400,158416.600,147936.100,154368.300,-0.158,0.966,-0.167,-4.486,-0.458,-0.580,73.333,97.000,1.000,0.010,0.000
197985.400,184761.600,570022.000,528866.600,167070.500,158275.000,147804.600,154229.500,-0.157,0.966,-0.168,-4.242,-0.977,-0.397,73.333,98.000,1.000,4.440,0.000
197822.900,184608.300,569236.000,528186.600,166956.500,158166.500,147699.300,154123.600,-0.155,0.965,-0.173,-4.181,-1.556,-0.275,73.333,99.000,1.000,6.238,0.000
197643.300,184444.600,568453.900,527499.400,166818.900,158030.200,147567.600,153994.700,-0.156,0.965,-0.169,-3.815,-2.075,-0.061,73.333,100.000,1.000,2.558,0.000
197479.500,184311.000,567705.400,526838.000,166675.700,157909.500,147455.700,153869.800,-0.153,0.964,-0.167,-3.601,-2.594,0.031,73.333,101.000,1.000,2.470,0.000
197303.900,184155.400,566953.000,526180.600,166512.800,157760.900,147317.800,153732.700,-0.153,0.958,-0.167,-3.265,-3.113,0.214,73.333,102.000,1.000,3.699,0.000
197159.800,184004.000,566240.400,525570.900,166388.000,157633.900,147195.100,153626.400,-0.152,0.962,-0.166,-2.655,-3.418,0.244,73.333,103.000,1.000,3.727,0.000
197045.700,183886.600,565578.900,525002.600,166305.800,157543.000,147123.300,153540.300,-0.148,0.963,-0.166,-2.411,-3.937,0.214,73.333,104.000,1.000,14.419,0.000
196892.000,183746.200,564892.400,524398.300,166181.000,157431.500,147014.500,153424.300,-0.145,0.972,-0.166,-2.136,-4.150,0.336,73.333,105.000,1.000,0.015,0.000
196739.000,183605.800,564223.300,523808.600,166044.200,157306.500,146903.400,153297.600,-0.139,0.975,-0.160,-1.709,-4.517,0.488,73.333,106.000,1.000,4.413,0.000
196598.800,183471.900,563576.100,523239.800,165905.000,157175.500,146787.300,153176.800,-0.128,0.975,-0.161,-1.740,-4.578,0.458,73.333,107.000,1.000,2.446,0.000
196498.500,183368.000,562978.900,522727.400,165823.700,157094.500,146710.800,153096.000,-0.128,0.977,-0.162,-1.617,-4.333,0.610,73.333,108.000,1.000,2.485,0.000
196417.400,183294.000,562422.100,522250.200,165780.500,157051.500,146662.900,153043.800,-0.125,0.974,-0.159,-1.587,-4.242,0.641,73.333,109.000,1.000,2.449,0.000
196298.800,183189.500,561842.300,521742.100,165690.100,156961.500,146581.200,152959.100,-0.121,0.971,-0.161,-1.526,-3.845,0.519,73.333,110.000,1.000,3.862,0.000
196153.900,183068.500,561246.900,521218.600,165557.200,156843.000,146475.700,152839.500,-0.125,0.973,-0.160,-1.190,-3.448,0.519,73.333,111.000,1.000,4.245,0.000
196045.600,182971.800,560698.800,520742.900,165454.300,156754.300,146389.100,152746.400,-0.122,0.972,-0.163,-1.099,-3.235,0.305,73.333,112.000,1.000,0.006,0.000
195973.800,182894.300,560185.400,520307.300,165394.300,156692.900,146319.100,152691.000,-0.122,0.975,-0.165,-1.007,-2.808,0.183,73.333,113.000,1.000,11.929,0.000
195904.000,182823.200,559687.100,519884.700,165354.100,156648.800,146275.300,152645.100,-0.123,0.981,-0.159,-0.763,-2.350,0.427,73.333,114.000,1.000,5.553,0.000
195783.000,182711.000,559152.800,519418.300,165256.700,156550.800,146187.700,152546.900,-0.120,0.979,-0.160,-0.854,-1.923,0.336,73.333,115.000,1.000,0.009,0.000
195705.500,182651.600,558668.300,519000.600,165185.100,156498.200,146135.400,152486.800,-0.122,0.985,-0.162,-0.763,-1.221,0.275,73.333,116.000,1.000,1.923,0.000
195614.300,182563.600,558176.800,518574.900,165085.300,156406.600,146050.600,152402.300,-0.122,0.985,-0.162,-0.824,-0.763,0.305,73.333,117.000,1.000,11.950,0.000
195543.400,182481.100,557714.400,518176.600,165020.600,156340.500,145983.300,152343.300,-0.118,0.981,-0.163,-1.190,-0.183,0.061,73.333,118.000,1.000,0.019,0.000
195481.800,182420.200,557272.800,517809.600,164987.500,156303.300,145949.500,152307.800,-0.122,0.984,-0.166,-1.068,0.336,0.183,73.333,119.000,1.000,2.377,0.000
195414.100,182358.300,556837.500,517438.300,164941.800,156248.000,145906.500,152263.000,-0.119,0.981,-0.162,-1.038,0.824,0.031,73.333,120.000,1.000,0.007,0.000
195329.600,182285.600,556391.800,517048.100,164860.800,156171.900,145842.300,152194.600,-0.116,0.980,-0.165,-1.099,1.587,-0.092,73.333,121.000,1.000,1.871,0.000
195250.600,182212.100,555955.300,516674.600,164778.200,156099.900,145776.700,152131.200,-0.121,0.986,-0.162,-1.007,2.197,-0.031,73.333,122.000,1.000,8.832,0.000
195195.000,182147.100,555546.400,516326.200,164732.500,156056.000,145725.700,152079.800,-0.119,0.982,-0.164,-1.190,2.594,-0.336,73.333,123.000,1.000,2.502,0.000
195130.400,182087.600,555141.200,515975.100,164694.900,156015.000,145685.900,152032.500,-0.121,0.984,-0.167,-1.282,3.204,-0.305,73.333,124.000,1.000,7.506,0.000
195063.200,182037.600,554746.300,515636.200,164654.500,155982.100,145655.200,151992.600,-0.127,0.988,-0.167,-1.282,3.418,-0.336,73.333,125.000,1.000,2.980,0.000
195000.900,181983.500,554354.100,515295.200,164590.900,155931.800,145606.600,151938.600,-0.127,0.985,-0.166,-1.617,3.845,-0.580,73.333,126.000,1.000,0.007,0.000
194946.600,181917.900,553963.800,514965.900,164526.200,155871.300,145545.000,151886.400,-0.133,0.986,-0.168,-1.740,4.303,-0.610,73.333,127.000,1.000,1.956,0.000
194899.400,181866.100,553595.300,514653.200,164487.200,155832.500,145511.100,151856.100,-0.137,0.985,-0.167,-1.770,4.486,-0.732,73.333,128.000,1.000,13.802,0.000
194845.300,181818.800,553238.200,514340.600,164454.800,155799.200,145483.800,151818.700,-0.136,0.979,-0.169,-2.075,4.700,-0.977,73.333,129.000,1.000,3.051,0.000
194787.100,181771.900,552878.500,514027.400,164409.500,155758.200,145437.500,151765.900,-0.143,0.984,-0.167,-2.106,4.822,-0.977,73.333,130.000,1.000,0.010,0.000
194742.200,181732.900,552535.900,513731.900,164361.900,155715.300,145397.800,151726.100,-0.143,0.978,-0.165,-2.136,4.669,-1.129,73.333,131.000,1.000,4.420,0.000
194699.200,181682.300,552192.900,513440.300,164309.300,155661.100,145353.800,151687.900,-0.144,0.974,-0.169,-2.197,4.669,-1.282,73.333,132.000,1.000,2.430,0.000
194664.000,181638.200,551861.200,513161.000,164277.500,155624.800,145320.400,151657.700,-0.151,0.977,-0.163,-2.228,4.608,-1.068,73.333,133.000,1.000,2.483,0.000
194636.000,181613.100,551553.200,512895.700,164268.900,155620.300,145315.500,151650.700,-0.146,0.971,-0.166,-2.197,4.364,-1.221,73.333,134.000,1.000,3.850,0.000
194586.800,181574.200,551230.200,512616.400,164236.700,155589.700,145284.800,151622.700,-0.147,0.972,-0.171,-2.197,4.364,-1.312,73.333,135.000,1.000,14.239,0.000
194528.700,181525.200,550898.800,512332.200,164177.700,155540.100,145239.500,151574.000,-0.152,0.975,-0.167,-2.014,4.059,-1.068,73.333,136.000,1.000,0.010,0.000
194501.600,181495.500,550596.200,512076.300,164142.100,155511.400,145212.200,151546.000,-0.149,0.967,-0.171,-2.167,3.754,-1.129,73.333,137.000,1.000,2.558,0.000
194476.500,181458.000,550298.600,511824.800,164121.200,155481.100,145183.300,151515.600,-0.151,0.968,-0.171,-2.136,3.448,-1.038,73.333,138.000,1.000,0.004,0.000
194446.700,181434.600,550012.900,511577.700,164108.800,155469.200,145170.000,151494.300,-0.152,0.966,-0.167,-1.984,2.869,-0.885,73.333,139.000,1.000,6.246,0.000
194412.500,181416.600,549730.800,511334.000,164091.000,155462.700,145163.500,151483.000,-0.153,0.961,-0.166,-2.045,2.625,-0.916,73.333,140.000,1.000,0.014,0.000
194370.700,181380.400,549435.900,511082.400,164047.200,155428.000,145131.500,151450.000,-0.156,0.962,-0.168,-1.709,2.228,-0.763,73.333,141.000,1.000,13.207,0.000
194349.300,181342.500,549153.900,510846.300,164014.400,155387.900,145100.600,151419.100,-0.156,0.960,-0.174,-1.587,1.770,-0.671,73.333,142.000,1.000,4.850,0.000
194347.500,181327.500,548897.000,510629.800,164011.900,155378.600,145092.400,151413.900,-0.155,0.958,-0.171,-1.556,1.404,-0.702,73.333,143.000,1.000,0.015,0.000
194307.800,181297.600,548618.400,510390.400,163991.800,155364.400,145074.300,151389.400,-0.153,0.960,-0.173,-1.434,0.854,-0.610,73.333,144.000,1.000,0.004,0.000
194248.100,181260.900,548333.600,510138.400,163954.000,155334.900,145049.700,151356.600,-0.153,0.962,-0.172,-1.221,0.336,-0.580,73.333,145.000,1.000,5.619,0.000
194212.200,181230.800,548062.400,509908.900,163917.100,155300.800,145020.500,151328.800,-0.151,0.965,-0.176,-1.038,-0.122,-0.580,73.333,146.000,1.000,0.010,0.000
194205.500,181214.400,547812.500,509706.300,163904.000,155289.600,145007.000,151319.700,-0.149,0.969,-0.180,-1.099,-0.702,-0.458,73.333,147.000,1.000,4.470,0.000
194217.300,181215.700,547587.600,509523.300,163918.100,155297.100,145016.100,151329.300,-0.146,0.972,-0.177,-1.221,-1.160,-0.458,73.333,148.000,1.000,3.762,0.000
194185.200,181193.200,547334.900,509303.800,163905.400,155287.800,145007.500,151315.100,-0.146,0.975,-0.174,-1.434,-1.617,-0.366,73.333,149.000,1.000,16.800,0.000
194135.600,181164.100,547067.400,509064.200,163868.200,155262.900,144979.500,151270.400,-0.148,0.979,-0.178,-1.526,-2.014,-0.336,73.333,150.000,1.000,0.020,0.000
194097.000,181130.400,546806.100,508841.200,163824.600,155218.400,144939.800,151233.700,-0.150,0.983,-0.178,-1.740,-2.380,-0.427,73.333,151.000,1.000,4.925,0.000
194082.600,181104.400,546562.100,508647.300,163795.800,155192.400,144913.300,151218.200,-0.149,0.984,-0.178,-2.014,-2.625,-0.580,73.333,152.000,1.000,0.008,0.000
194073.900,181082.000,546331.800,508461.600,163792.300,155182.300,144904.900,151215.700,-0.144,0.984,-0.177,-2.167,-2.899,-0.671,73.333,153.000,1.000,4.964,0.000
194054.600,181072.900,546107.400,508268.900,163797.300,155185.300,144900.200,151216.400,-0.139,0.983,-0.179,-2.289,-3.021,-0.824,73.333,154.000,1.000,0.008,0.000
194011.200,181046.800,545866.800,508061.700,163776.100,155157.100,144882.500,151195.600,-0.134,0.983,-0.178,-2.289,-3.143,-1.007,73.333,155.000,1.000,1.893,0.000
193979.100,181024.500,545632.600,507854.600,163743.700,155124.900,144862.400,151166.400,-0.127,0.983,-0.178,-2.350,-2.991,-0.946,73.333,156.000,1.000,9.415,0.000
193964.100,181002.100,545405.800,507661.400,163717.100,155102.900,144843.500,151144.800,-0.123,0.980,-0.173,-2.472,-2.747,-0.824,73.333,157.000,1.000,0.006,0.000
193973.700,180997.800,545201.400,507492.300,163723.500,155103.400,144836.100,151141.900,-0.121,0.977,-0.174,-2.411,-2.472,-0.854,73.333,158.000,1.000,1.912,0.000
193970.600,181000.800,545000.400,507318.300,163736.600,155113.100,144844.200,151144.200,-0.120,0.974,-0.173,-2.472,-2.106,-0.793,73.333,159.000,1.000,7.477,0.000
193941.500,180983.300,544779.800,507125.500,163721.200,155104.000,144834.800,151130.200,-0.119,0.973,-0.171,-2.350,-1.801,-0.824,73.333,160.000,1.000,14.316,0.000
193921.400,180970.800,544566.200,506943.500,163702.500,155090.600,144823.400,151119.000,-0.120,0.972,-0.172,-2.258,-1.343,-0.854,73.333,161.000,1.000,0.016,0.000
193909.800,180956.900,544355.100,506765.800,163683.300,155070.400,144804.200,151102.500,-0.120,0.973,-0.172,-2.258,-0.793,-0.916,73.333,162.000,1.000,3.111,0.000
193909.500,180942.800,544154.300,506601.300,163679.900,155057.800,144795.100,151099.700,-0.117,0.975,-0.173,-2.075,-0.214,-0.916,73.333,163.000,1.000,0.017,0.000
193907.300,180941.800,543963.900,506441.800,163691.900,155067.300,144800.100,151106.800,-0.116,0.975,-0.174,-2.167,0.244,-0.916,73.333,164.000,1.000,0.006,0.000
193883.600,180928.600,543758.000,506260.700,163680.000,155064.600,144790.600,151092.300,-0.116,0.977,-0.167,-2.075,0.946,-0.854,73.333,165.000,1.000,2.507,0.000
193862.000,180909.100,543549.200,506079.500,163648.000,155040.600,144769.700,151070.900,-0.115,0.979,-0.167,-2.045,1.404,-0.916,73.333,166.000,1.000,6.308,0.000
193846.800,180876.500,543338.200,505903.400,163610.000,155006.100,144739.200,151048.500,-0.118,0.979,-0.168,-2.258,1.953,-0.946,73.333,167.000,1.000,4.995,0.000
193846.800,180865.500,543143.800,505741.100,163605.600,155002.900,144733.300,151040.400,-0.120,0.977,-0.171,-2.350,2.350,-0.824,73.333,168.000,1.000,3.701,0.000
193843.700,180866.700,542963.300,505589.600,163623.200,155016.600,144743.100,151050.100,-0.123,0.976,-0.174,-2.350,2.838,-0.885,73.333,169.000,1.000,9.318,0.000
193828.300,180863.900,542773.700,505427.600,163623.700,155011.700,144744.000,151050.300,-0.126,0.975,-0.174,-2.289,3.265,-0.854,73.333,170.000,1.000,0.022,0.000
193807.100,180851.600,542571.900,505253.800,163600.400,154991.600,144734.000,151036.400,-0.131,0.976,-0.173,-2.380,3.510,-0.977,73.333,171.000,1.000,1.972,0.000
193794.800,180834.700,542375.300,505087.400,163573.100,154971.600,144707.100,151009.700,-0.129,0.976,-0.175,-2.472,3.784,-0.885,73.333,172.000,1.000,2.449,0.000
193801.600,180831.800,542201.800,504943.200,163579.400,154971.000,144710.200,151017.400,-0.134,0.976,-0.173,-2.594,3.937,-0.977,73.333,173.000,1.000,8.731,0.000
193788.600,180818.800,542017.300,504788.400,163584.200,154975.500,144714.400,151007.300,-0.136,0.971,-0.174,-2.563,4.150,-1.068,73.333,174.000,1.000,3.092,0.000
193769.400,180813.600,541836.500,504630.600,163582.400,154984.400,144715.700,150994.700,-0.138,0.968,-0.168,-2.655,4.181,-1.099,73.333,175.000,1.000,0.011,0.000
193747.800,180802.500,541647.700,504467.600,163556.000,154958.700,144689.400,150979.000,-0.139,0.967,-0.171,-2.625,4.333,-1.068,73.333,176.000,1.000,11.862,0.000
193745.600,180794.200,541475.900,504322.000,163538.600,154942.400,144676.600,150971.800,-0.143,0.965,-0.168,-2.563,4.272,-1.251,73.333,177.000,1.000,3.081,0.000
193752.300,180789.300,541310.400,504183.800,163540.400,154939.600,144672.400,150976.600,-0.143,0.967,-0.167,-2.411,4.242,-1.404,73.333,178.000,1.000,0.010,0.000
193737.200,180777.400,541132.100,504030.600,163540.600,154931.300,144672.700,150975.900,-0.143,0.967,-0.170,-2.197,4.272,-1.465,73.333,179.000,1.000,1.888,0.000
193715.200,180766.100,540949.600,503876.600,163531.700,154926.100,144665.000,150962.600,-0.140,0.968,-0.171,-2.106,4.211,-1.465,73.333,180.000,1.000,2.597,0.000
193689.800,180748.300,540764.900,503711.300,163501.900,154908.900,144648.800,150943.800,-0.145,0.968,-0.169,-1.984,4.150,-1.526,73.333,181.000,1.000,8.739,0.000
193676.400,180735.800,540585.400,503553.600,163471.600,154893.000,144628.800,150919.400,-0.144,0.970,-0.167,-1.923,3.906,-1.465,73.333,182.000,1.000,2.508,0.000
193704.100,180752.400,540445.800,503441.400,163495.200,154907.600,144646.000,150935.200,-0.145,0.972,-0.167,-1.831,3.815,-1.465,73.333,183.000,1.000,9.249,0.000
193709.200,180752.700,540294.800,503312.900,163515.600,154920.800,144658.100,150945.000,-0.145,0.974,-0.168,-1.678,3.693,-1.434,73.333,184.000,1.000,0.041,0.000
193682.800,180733.400,540117.400,503151.800,163503.800,154901.000,144647.000,150930.900,-0.148,0.978,-0.171,-1.740,3.601,-1.373,73.333,185.000,1.000,2.416,0.000
193669.500,180728.900,539948.500,503000.900,163486.600,154888.500,144641.400,150920.600,-0.148,0.979,-0.169,-1.740,3.296,-1.282,73.333,186.000,1.000,0.017,0.000
193672.700,180728.300,539791.400,502873.300,163473.800,154884.500,144635.900,150917.500,-0.150,0.977,-0.168,-1.740,3.143,-1.282,73.333,187.000,1.000,10.675,0.000
193691.600,180731.200,539650.800,502766.900,163493.500,154899.300,144649.200,150938.200,-0.153,0.977,-0.169,-1.831,2.869,-1.190,73.333,188.000,1.000,3.035,0.000
193691.900,180727.100,539499.300,502635.100,163508.700,154904.100,144652.200,150946.300,-0.154,0.978,-0.171,-1.831,2.594,-1.221,73.333,189.000,1.000,0.009,0.000
193702.800,180744.900,539363.200,502517.000,163532.200,154925.800,144678.900,150964.200,-0.151,0.976,-0.173,-1.801,2.197,-1.221,73.333,190.000,1.000,8.259,0.000
193648.000,180701.400,539160.600,502334.800,163470.500,154870.400,144630.600,150909.500,-0.151,0.974,-0.172,-1.831,1.892,-1.221,73.333,191.000,1.000,2.998,0.000
193614.800,180668.600,538975.800,502174.300,163422.000,154833.600,144591.200,150872.000,-0.152,0.975,-0.175,-1.831,1.495,-1.282,73.333,192.000,1.000,0.010,0.000
193638.000,180679.300,538843.900,502068.400,163442.900,154848.200,144602.500,150891.100,-0.153,0.978,-0.173,-1.923,1.221,-1.190,73.333,193.000,1.000,1.937,0.000
193645.300,180683.400,538707.400,501950.800,163466.500,154869.900,144616.600,150910.600,-0.152,0.979,-0.174,-2.045,0.793,-1.282,73.333,194.000,1.000,8.781,0.000
193635.100,180684.500,538554.900,501813.300,163463.500,154870.400,144605.400,150903.000,-0.150,0.980,-0.176,-2.014,0.488,-1.373,73.333,195.000,1.000,4.310,0.000
193624.500,180687.100,538400.300,501675.600,163444.600,154860.800,144598.800,150877.400,-0.147,0.980,-0.176,-2.228,0.336,-1.434,73.333,196.000,1.000,0.014,0.000
193610.200,180672.600,538236.900,501538.400,163418.800,154839.000,144583.100,150861.400,-0.143,0.977,-0.176,-2.289,0.122,-1.404,73.333,197.000,1.000,8.218,0.000
193610.200,180665.800,538088.400,501420.300,163418.900,154836.500,144580.600,150857.600,-0.138,0.974,-0.175,-2.411,-0.092,-1.373,73.333,198.000,1.000,2.418,0.000
193640.700,180689.600,537975.900,501331.600,163466.200,154878.000,144625.200,150895.600,-0.131,0.973,-0.173,-2.441,-0.092,-1.495,73.333,199.000,1.000,4.953,0.000
193611.600,180665.500,537811.300,501183.900,163452.000,154853.300,144614.300,150883.500,-0.128,0.975,-0.173,-2.472,-0.031,-1.587,73.333,200.000,1.000,2.530,0.000
193573.100,180638.200,537638.100,501024.800,163406.500,154810.000,144568.900,150847.300,-0.126,0.977,-0.166,-2.472,0.214,-1.617,73.333,201.000,1.000,5.035,0.000
193564.000,180629.700,537486.000,500891.800,163378.800,154796.300,144544.900,150827.900,-0.121,0.974,-0.165,-2.686,0.549,-1.556,73.333,202.000,1.000,6.865,0.000
193583.800,180637.200,537358.300,500792.000,163393.900,154801.800,144557.300,150851.600,-0.119,0.969,-0.167,-2.808,1.007,-1.617,73.333,203.000,1.000,0.009,0.000
193593.700,180644.800,537228.600,500683.800,163416.400,154816.600,144568.700,150859.400,-0.115,0.969,-0.170,-2.777,1.526,-1.556,73.333,204.000,1.000,1.844,0.000
193585.900,180642.800,537089.800,500559.400,163423.500,154821.300,144575.600,150859.900,-0.115,0.969,-0.170,-2.625,2.136,-1.465,73.333,205.000,1.000,8.752,0.000
193553.100,180625.100,536928.800,500413.700,163386.600,154795.000,144549.100,150833.000,-0.116,0.971,-0.171,-2.533,2.655,-1.404,73.333,206.000,1.000,2.535,0.000
193554.000,180625.400,536789.100,500296.100,163368.200,154783.600,144536.200,150826.700,-0.118,0.972,-0.170,-2.533,3.204,-1.404,73.333,207.000,1.000,16.828,0.000
193576.200,180631.100,536671.300,500200.200,163390.200,154797.300,144552.400,150843.100,-0.123,0.974,-0.170,-2.441,3.662,-1.251,73.333,208.000,1.000,0.012,0.000
193589.600,180642.300,536553.100,500096.300,163420.700,154822.700,144577.300,150861.100,-0.126,0.975,-0.169,-2.380,4.150,-1.373,73.333,209.000,1.000,6.822,0.000
193579.100,180635.300,536410.900,499966.300,163419.300,154823.900,144576.300,150853.900,-0.130,0.976,-0.168,-2.411,4.456,-1.404,73.333,210.000,1.000,0.007,0.000
193557.100,180623.500,536258.500,499828.100,163389.600,154807.300,144562.200,150832.200,-0.132,0.977,-0.171,-2.319,4.639,-1.434,73.333,211.000,1.000,0.003,0.000
193546.000,180612.900,536113.900,499702.300,163364.600,154788.400,144545.300,150824.400,-0.140,0.979,-0.170,-2.228,4.761,-1.465,73.333,212.000,1.000,2.576,0.000
193546.800,180599.100,535977.100,499593.600,163361.300,154779.700,144529.800,150817.200,-0.144,0.981,-0.173,-2.289,4.852,-1.709,73.333,213.000,1.000,2.529,0.000
193584.100,180629.600,535884.500,499523.200,163412.600,154819.000,144566.400,150853.500,-0.146,0.981,-0.174,-2.411,4.883,-1.740,73.333,214.000,1.000,2.479,0.000
193560.100,180611.800,535735.600,499390.200,163404.800,154808.900,144560.600,150839.700,-0.149,0.982,-0.171,-2.350,4.883,-1.831,73.333,215.000,1.000,4.984,0.000
193518.200,180580.300,535566.800,499236.200,163358.000,154768.900,144528.900,150808.400,-0.154,0.982,-0.171,-2.380,4.730,-1.923,73.333,216.000,1.000,2.505,0.000
193510.100,180573.400,535426.800,499116.800,163334.900,154755.700,144509.000,150800.000,-0.158,0.984,-0.173,-2.472,4.456,-1.862,73.333,217.000,1.000,2.447,0.000
193529.800,180576.400,535313.900,499024.300,163356.800,154758.200,144523.200,150809.400,-0.163,0.981,-0.174,-2.686,4.120,-1.923,73.333,218.000,1.000,11.342,0.000
193575.800,180617.400,535235.600,498958.200,163418.700,154815.300,144576.100,150857.700,-0.171,0.980,-0.174,-2.838,3.540,-2.045,73.333,219.000,1.000,5.466,0.000
193625.400,180677.400,535165.700,498899.300,163480.300,154878.900,144635.700,150912.500,-0.172,0.979,-0.173,-2.930,2.960,-2.167,73.333,220.000,1.000,0.010,0.000
193582.900,180650.700,535001.400,498746.400,163428.500,154839.200,144594.300,150868.700,-0.173,0.979,-0.174,-2.960,2.167,-2.258,73.333,221.000,1.000,1.976,0.000
193546.300,180613.200,534833.800,498603.100,163370.800,154785.000,144546.800,150822.500,-0.172,0.976,-0.175,-3.082,1.434,-2.350,73.333,222.000,1.000,2.465,0.000
193559.000,180609.300,534715.100,498514.200,163377.200,154786.300,144546.900,150830.600,-0.168,0.976,-0.175,-2.991,0.580,-2.533,73.333,223.000,1.000,3.791,0.000
193571.200,180612.600,534603.700,498430.800,163403.000,154804.400,144563.300,150846.100,-0.165,0.978,-0.174,-3.052,-0.153,-2.472,73.333,224.000,1.000,8.705,0.000
193565.700,180619.500,534482.400,498327.100,163414.100,154815.600,144577.600,150849.700,-0.161,0.976,-0.177,-3.143,-0.763,-2.441,73.333,225.000,1.000,3.142,0.000
193523.800,180593.300,534325.600,498180.100,163367.800,154784.000,144544.500,150813.300,-0.158,0.976,-0.179,-3.296,-1.282,-2.167,73.333,226.000,1.000,0.006,0.000
193507.900,180584.000,534189.800,498058.900,163335.700,154763.800,144518.200,150793.700,-0.154,0.972,-0.175,-3.448,-1.923,-2.075,73.333,227.000,1.000,1.840,0.000
193526.200,180587.400,534084.500,497979.600,163354.900,154777.500,144523.100,150808.700,-0.153,0.969,-0.176,-3.571,-2.533,-1.740,73.333,228.000,1.000,40.061,0.000
193567.700,180618.200,534003.100,497913.700,163407.700,154819.400,144559.900,150851.100,-0.152,0.967,-0.177,-3.632,-3.113,-1.495,73.333,229.000,1.000,4.324,0.000
193542.800,180596.100,533861.000,497778.400,163391.300,154799.000,144546.100,150827.300,-0.151,0.967,-0.177,-3.601,-3.510,-1.190,73.333,230.000,1.000,0.011,0.000
193510.100,180580.600,533714.900,497642.200,163353.200,154777.300,144524.800,150800.500,-0.149,0.967,-0.177,-3.754,-3.998,-0.885,73.333,231.000,1.000,0.003,0.000
193506.200,180574.600,533586.400,497536.300,163333.400,154752.100,144504.100,150787.900,-0.151,0.970,-0.175,-3.754,-4.456,-0.671,73.333,232.000,1.000,0.089,0.000
193523.300,180574.900,533477.600,497451.400,163350.500,154766.500,144518.600,150800.300,-0.153,0.970,-0.175,-3.784,-5.005,-0.549,73.333,233.000,1.000,11.761,0.000
193541.900,180587.200,533378.800,497371.300,163384.400,154803.600,144554.500,150829.700,-0.153,0.972,-0.173,-3.876,-5.432,-0.549,73.333,234.000,1.000,0.016,0.000
193536.400,180593.000,533258.600,497266.500,163385.500,154815.900,144562.400,150827.300,-0.153,0.970,-0.174,-3.998,-5.768,-0.488,73.333,235.000,1.000,0.003,0.000
193483.200,180549.900,533099.600,497113.500,163331.500,154764.600,144527.200,150782.800,-0.150,0.964,-0.171,-3.937,-6.134,-0.641,73.333,236.000,1.000,4.151,0.000
193500.800,180561.100,533002.900,497028.700,163330.800,154748.800,144518.900,150800.100,-0.144,0.960,-0.171,-3.906,-6.287,-0.641,73.333,237.000,1.000,0.007,0.000
193533.400,180578.600,532913.800,496958.300,163355.800,154757.600,144523.300,150816.400,-0.137,0.958,-0.171,-3.784,-6.317,-0.641,73.333,238.000,1.000,0.003,0.000
193547.400,180586.800,532818.100,496879.500,163385.800,154775.800,144536.800,150839.100,-0.133,0.958,-0.175,-3.479,-6.378,-0.488,73.333,239.000,1.000,0.003,0.000
193520.000,180564.400,532685.600,496757.900,163374.900,154768.400,144528.400,150823.900,-0.128,0.955,-0.172,-3.235,-6.195,-0.336,73.333,240.000,1.000,2.041,0.000
193475.200,180537.500,532530.300,496610.200,163320.500,154730.500,144489.100,150778.700,-0.125,0.957,-0.177,-2.991,-5.981,-0.122,73.333,241.000,1.000,2.482,0.000
193494.500,180558.200,532430.900,496524.700,163319.600,154738.900,144494.600,150778.300,-0.121,0.959,-0.177,-2.808,-5.707,0.061,73.333,242.000,1.000,2.445,0.000
193499.900,180552.500,532316.400,496434.000,163322.100,154733.000,144490.700,150780.900,-0.120,0.963,-0.171,-2.563,-5.341,0.366,73.333,243.000,1.000,2.556,0.000
193499.800,180547.000,532206.500,496340.700,163343.900,154753.800,144507.900,150793.200,-0.118,0.967,-0.172,-2.319,-5.005,0.641,73.333,244.000,1.000,2.501,0.000
193501.700,180559.500,532101.800,496244.000,163356.900,154772.700,144523.000,150797.800,-0.120,0.968,-0.170,-2.228,-4.456,0.854,73.333,245.000,1.000,9.952,0.000
193477.900,180552.200,531972.700,496120.900,163326.200,154755.300,144501.100,150773.000,-0.121,0.971,-0.170,-2.167,-3.967,1.099,73.333,246.000,1.000,2.523,0.000
193460.800,180533.900,531844.700,496012.100,163294.300,154736.000,144480.000,150757.100,-0.124,0.973,-0.171,-2.106,-3.418,1.221,73.333,247.000,1.000,2.554,0.000
193486.500,180546.100,531752.600,495944.500,163317.000,154748.900,144497.100,150778.100,-0.130,0.977,-0.173,-2.106,-2.838,1.312,73.333,248.000,1.000,3.052,0.000
193508.300,180560.300,531662.300,495871.500,163350.800,154777.200,144525.800,150805.300,-0.133,0.983,-0.174,-2.136,-2.563,1.282,73.333,249.000,1.000,0.010,0.000
193484.200,180540.500,531535.300,495752.000,163338.300,154766.700,144515.800,150785.500,-0.136,0.986,-0.175,-2.136,-2.197,1.373,73.333,250.000,1.000,1.865,0.000
193453.300,180519.500,531399.400,495625.900,163297.200,154735.700,144485.300,150756.900,-0.137,0.990,-0.178,-2.228,-1.770,1.465,73.333,251.000,1.000,16.895,0.000
193455.300,180521.500,531290.200,495530.300,163282.500,154731.300,144481.100,150755.700,-0.138,0.993,-0.177,-2.502,-1.495,1.465,73.333,252.000,1.000,0.014,0.000
193445.800,180492.900,531167.900,495428.300,163271.100,154711.000,144460.900,150749.400,-0.135,0.995,-0.179,-2.625,-1.160,1.556,73.333,253.000,1.000,10.635,0.000
193476.600,180517.700,531090.500,495368.200,163316.100,154746.900,144490.300,150783.900,-0.133,0.996,-0.178,-2.930,-0.763,1.770,73.333,254.000,1.000,2.475,0.000
193502.100,180549.000,531012.600,495303.900,163353.000,154782.300,144521.300,150813.800,-0.135,0.994,-0.175,-3.052,-0.458,1.892,73.333,255.000,1.000,2.519,0.000
193439.700,180493.400,530847.900,495143.300,163281.200,154715.300,144469.000,150753.000,-0.135,0.990,-0.172,-3.357,-0.153,1.984,73.333,256.000,1.000,2.515,0.000
193407.100,180457.800,530707.300,495016.300,163231.400,154674.000,144427.100,150716.000,-0.136,0.983,-0.171,-3.601,0.244,2.106,73.333,257.000,1.000,2.600,0.000
193434.300,180466.700,530625.300,494952.100,163257.500,154688.500,144438.800,150731.000,-0.134,0.978,-0.170,-3.784,0.671,2.228,73.333,258.000,1.000,2.338,0.000
193451.500,180476.900,530539.500,494883.800,163291.500,154707.700,144462.300,150753.800,-0.133,0.977,-0.169,-3.876,0.916,2.472,73.333,259.000,1.000,2.570,0.000
193456.500,180487.000,530443.900,494803.500,163306.400,154721.300,144481.400,150764.400,-0.135,0.979,-0.168,-3.876,1.373,2.411,73.333,260.000,1.000,3.047,0.000
193401.700,180447.300,530285.000,494651.700,163240.600,154678.400,144434.400,150711.200,-0.138,0.985,-0.163,-3.845,1.709,2.197,73.333,261.000,1.000,0.008,0.000
193403.200,180452.600,530181.200,494557.900,163230.200,154678.900,144425.900,150706.200,-0.141,0.989,-0.162,-3.967,1.984,2.228,73.333,262.000,1.000,10.714,0.000
193423.000,180458.200,530091.600,494491.500,163252.800,154682.000,144440.200,150729.400,-0.145,0.987,-0.164,-4.181,2.106,2.045,73.333,263.000,1.000,3.072,0.000
193453.400,180482.800,530016.800,494437.700,163298.200,154711.500,144469.600,150754.900,-0.143,0.982,-0.164,-4.303,2.289,1.801,73.333,264.000,1.000,0.009,0.000
193470.500,180513.000,529937.600,494363.300,163327.200,154742.100,144496.900,150772.500,-0.143,0.974,-0.163,-4.303,2.350,1.556,73.333,265.000,1.000,1.820,0.000
193446.500,180503.100,529818.600,494249.400,163297.900,154721.500,144480.400,150755.600,-0.144,0.967,-0.160,-4.120,2.319,1.495,73.333,266.000,1.000,6.255,0.000
193420.000,180474.500,529687.800,494130.500,163258.800,154686.700,144450.000,150714.900,-0.146,0.966,-0.159,-3.876,2.197,1.282,73.333,267.000,1.000,3.732,0.000
193459.300,180507.900,529621.700,494079.900,163300.600,154717.200,144482.500,150753.300,-0.147,0.970,-0.160,-3.754,2.258,0.946,73.333,268.000,1.000,6.280,0.000
193473.700,180513.800,529538.900,494015.500,163335.300,154752.700,144509.400,150787.200,-0.148,0.972,-0.158,-3.540,2.106,0.793,73.333,269.000,1.000,9.329,0.000
193428.800,180480.800,529401.200,493888.400,163305.500,154726.200,144483.100,150755.300,-0.147,0.974,-0.157,-3.540,1.892,0.580,73.333,270.000,1.000,0.022,0.000
193397.900,180471.300,529272.700,493769.800,163268.600,154703.200,144459.600,150724.900,-0.149,0.981,-0.163,-3.571,1.709,0.305,73.333,271.000,1.000,2.456,0.000
193396.100,180467.600,529164.500,493681.200,163252.800,154681.500,144442.900,150717.100,-0.150,0.991,-0.169,-3.510,1.556,0.061,73.333,272.000,1.000,0.011,0.000
193437.100,180493.400,529098.600,493638.600,163293.500,154703.800,144477.600,150753.300,-0.147,0.995,-0.165,-3.693,1.404,-0.153,73.333,273.000,1.000,1.895,0.000
193435.500,180483.300,528996.600,493556.100,163308.200,154711.900,144490.700,150758.600,-0.144,0.991,-0.163,-3.815,1.068,-0.275,73.333,274.000,1.000,11.316,0.000
193458.000,180515.700,528923.500,493489.300,163340.700,154747.000,144528.100,150786.900,-0.143,0.977,-0.157,-3.876,0.763,-0.519,73.333,275.000,1.000,2.998,0.000
193439.100,180503.700,528808.900,493380.000,163309.900,154726.300,144504.400,150762.200,-0.144,0.969,-0.156,-3.906,0.702,-0.671,73.333,276.000,1.000,0.009,0.000
193408.800,180470.900,528678.000,493256.100,163259.000,154683.400,144455.600,150716.000,-0.147,0.967,-0.155,-3.723,0.488,-0.824,73.333,277.000,1.000,1.889,0.000
193398.100,180446.500,528564.900,493161.100,163246.800,154662.700,144432.600,150703.200,-0.149,0.962,-0.160,-3.662,0.336,-0.854,73.333,278.000,1.000,8.768,0.000
193441.800,180482.800,528509.400,493122.800,163302.400,154712.000,144477.400,150748.800,-0.157,0.961,-0.161,-3.357,-0.092,-0.702,73.333,279.000,1.000,2.511,0.000
193473.800,180516.700,528448.300,493071.700,163338.300,154750.800,144520.600,150789.300,-0.158,0.957,-0.163,-3.174,-0.519,-0.763,73.333,280.000,1.000,2.465,0.000
193394.400,180449.000,528277.500,492910.300,163248.800,154672.800,144444.400,150711.900,-0.159,0.956,-0.167,-3.052,-1.038,-0.793,73.333,281.000,1.000,8.860,0.000
193383.100,180437.300,528169.400,492809.300,163231.300,154661.700,144431.700,150704.600,-0.159,0.957,-0.167,-2.686,-1.373,-0.763,73.333,282.000,1.000,2.991,0.000
193400.400,180435.000,528083.600,492743.200,163250.500,154669.700,144434.600,150719.100,-0.156,0.957,-0.167,-2.380,-1.770,-0.977,73.333,283.000,1.000,0.013,0.000
193434.100,180465.000,528021.400,492699.400,163300.500,154711.200,144469.100,150758.900,-0.150,0.962,-0.170,-2.075,-1.923,-1.038,73.333,284.000,1.000,5.650,0.000
193408.800,180448.300,527902.900,492594.300,163281.900,154693.800,144450.200,150740.100,-0.145,0.966,-0.166,-1.770,-2.228,-1.007,73.333,285.000,1.000,11.813,0.000
193368.200,180421.500,527773.100,492469.600,163233.500,154658.500,144417.000,150704.800,-0.137,0.958,-0.165,-1.587,-2.319,-0.854,73.333,286.000,1.000,0.011,0.000
193368.500,180422.500,527678.800,492389.100,163223.000,154652.500,144414.900,150704.800,-0.130,0.951,-0.162,-1.404,-2.167,-0.610,73.333,287.000,1.000,6.337,0.000
193381.100,180423.200,527591.400,492316.700,163234.600,154657.400,144418.300,150711.900,-0.128,0.950,-0.165,-0.977,-2.045,-0.244,73.333,288.000,1.000,4.370,0.000
193397.700,180438.000,527516.900,492250.500,163266.600,154682.300,144438.200,150723.500,-0.127,0.947,-0.168,-0.549,-1.648,-0.153,73.333,289.000,1.000,2.510,0.000
193443.900,180492.800,527476.300,492214.000,163323.400,154737.400,144491.200,150775.200,-0.126,0.947,-0.168,-0.244,-1.282,0.122,73.333,290.000,1.000,2.447,0.000
193418.800,180475.500,527362.400,492103.900,163288.800,154714.000,144468.400,150741.400,-0.130,0.953,-0.167,0.122,-1.129,0.244,73.333,291.000,1.000,2.510,0.000
193376.400,180436.300,527224.500,491974.300,163230.900,154662.300,144417.500,150694.000,-0.132,0.962,-0.168,0.336,-0.916,0.244,73.333,292.000,1.000,2.506,0.000
193431.700,180474.300,527175.100,491944.500,163280.800,154704.000,144453.500,150742.400,-0.132,0.983,-0.173,0.458,-0.488,0.183,73.333,293.000,1.000,6.269,0.000
193434.400,180461.100,527077.400,491860.500,163290.400,154709.300,144457.200,150741.000,-0.134,1.007,-0.173,0.488,-0.275,0.214,73.333,294.000,1.000,11.930,0.000
193413.700,180447.000,526967.500,491756.200,163274.400,154691.900,144442.300,150723.800,-0.132,1.017,-0.167,-0.031,-0.031,0.214,73.333,295.000,1.000,0.014,0.000
193385.100,180431.700,526851.500,491648.500,163237.500,154667.000,144422.500,150703.000,-0.131,1.012,-0.166,-0.702,0.214,0.122,73.333,296.000,1.000,2.333,0.000
193392.600,180436.300,526764.800,491580.700,163233.100,154666.800,144426.300,150708.600,-0.130,1.002,-0.165,-1.251,0.580,0.000,73.333,297.000,1.000,0.008,0.000
193407.800,180438.300,526681.900,491512.800,163247.200,154674.200,144433.900,150717.700,-0.129,0.992,-0.169,-1.587,1.038,-0.153,73.333,298.000,1.000,1.914,0.000
193438.500,180463.800,526626.000,491461.700,163293.600,154713.700,144462.900,150750.100,-0.132,0.986,-0.171,-1.648,1.495,-0.122,73.333,299.000,1.000,6.321,0.000
193426.500,180459.900,526530.600,491370.800,163288.900,154710.300,144451.300,150741.500,-0.134,0.978,-0.171,-1.953,1.770,-0.214,73.333,300.000,1.000,2.513,0.000
193379.400,180424.300,526397.800,491244.800,163232.300,154664.600,144405.200,150688.100,-0.135,0.974,-0.175,-2.106,2.045,0.000,73.333,301.000,1.000,3.675,0.000
193350.100,180393.100,526281.500,491139.500,163194.000,154620.300,144372.300,150655.100,-0.134,0.972,-0.173,-2.106,2.075,-0.031,73.333,302.000,1.000,11.878,0.000
193375.900,180403.700,526213.800,491086.100,163220.400,154642.700,144390.800,150675.400,-0.135,0.973,-0.175,-2.197,2.258,-0.183,73.333,303.000,1.000,0.013,0.000
193407.600,180435.900,526157.300,491038.800,163272.400,154680.600,144429.900,150716.100,-0.138,0.981,-0.174,-2.045,2.472,-0.153,73.333,304.000,1.000,1.839,0.000
193397.500,180437.100,526067.400,490951.500,163276.400,154682.600,144434.400,150713.700,-0.136,0.978,-0.171,-2.197,2.563,-0.305,73.333,305.000,1.000,2.575,0.000
193371.500,180424.100,525957.700,490847.100,163240.100,154659.500,144409.800,150686.000,-0.139,0.978,-0.171,-2.441,2.655,-0.336,73.333,306.000,1.000,2.414,0.000
193374.900,180426.100,525869.800,490772.000,163229.200,154660.600,144409.600,150684.200,-0.141,0.979,-0.172,-2.502,2.686,-0.183,73.333,307.000,1.000,7.598,0.000
193410.500,180449.000,525811.300,490731.900,163266.400,154689.800,144439.500,150717.600,-0.137,0.973,-0.173,-2.808,2.686,-0.366,73.333,308.000,1.000,6.250,0.000
193437.300,180470.600,525748.000,490681.200,163307.600,154715.800,144463.300,150748.400,-0.139,0.970,-0.175,-2.808,2.899,-0.305,73.333,309.000,1.000,5.526,0.000
193406.100,180447.800,525636.000,490578.900,163291.000,154701.300,144450.000,150726.400,-0.145,0.971,-0.167,-2.563,2.808,-0.275,73.333,310.000,1.000,0.011,0.000
193365.800,180423.100,525516.600,490465.800,163248.400,154667.500,144421.700,150698.000,-0.144,0.965,-0.173,-2.838,2.686,-0.519,73.333,311.000,1.000,1.868,0.000
193365.000,180418.700,525426.400,490390.200,163233.500,154656.300,144412.700,150696.200,-0.149,0.969,-0.172,-2.869,2.655,-0.366,73.333,312.000,1.000,3.803,0.000
193392.500,180435.600,525364.200,490340.300,163259.900,154682.700,144431.000,150718.400,-0.153,0.973,-0.173,-2.625,2.289,-0.366,73.333,313.000,1.000,11.849,0.000
193407.800,180444.100,525292.900,490278.300,163289.300,154700.800,144448.200,150744.900,-0.153,0.970,-0.171,-2.899,1.862,-0.610,73.333,314.000,1.000,0.013,0.000
193400.400,180443.900,525201.100,490197.300,163286.500,154701.200,144444.500,150729.600,-0.159,0.974,-0.170,-2.655,1.556,-0.397,73.333,315.000,1.000,2.425,0.000
193374.300,180433.200,525097.300,490090.700,163249.000,154676.200,144424.400,150703.100,-0.155,0.968,-0.170,-2.563,1.007,-0.549,73.333,316.000,1.000,0.006,0.000
193382.200,180436.300,525017.100,490020.700,163242.200,154676.600,144432.400,150710.300,-0.153,0.964,-0.170,-2.686,0.824,-0.732,73.333,317.000,1.000,8.262,0.000
193397.200,180437.600,524945.700,489966.700,163261.500,154689.300,144438.000,150718.400,-0.158,0.963,-0.168,-2.319,0.549,-0.549,73.333,318.000,1.000,2.418,0.000
193398.800,180435.000,524868.300,489894.700,163283.600,154697.600,144443.100,150727.600,-0.152,0.958,-0.173,-2.045,0.153,-0.702,73.333,319.000,1.000,2.488,0.000
193422.800,180466.700,524811.500,489845.700,163317.900,154730.000,144482.000,150768.900,-0.151,0.958,-0.174,-1.862,-0.031,-0.580,73.333,320.000,1.000,3.799,0.000
193380.600,180443.800,524688.600,489727.500,163262.800,154694.400,144441.900,150729.200,-0.155,0.965,-0.171,-1.434,-0.397,-0.366,73.333,321.000,1.000,8.686,0.000
193340.400,180401.100,524564.900,489615.500,163206.500,154642.400,144393.100,150674.100,-0.151,0.963,-0.171,-1.373,-0.946,-0.549,73.333,322.000,1.000,4.424,0.000
193371.800,180420.100,524507.500,489566.800,163239.000,154665.900,144416.500,150698.200,-0.152,0.969,-0.171,-1.221,-1.251,-0.641,73.333,323.000,1.000,0.009,0.000
193392.800,180442.400,524447.600,489518.500,163275.400,154689.600,144439.000,150727.200,-0.151,0.982,-0.172,-1.068,-1.495,-0.519,73.333,324.000,1.000,14.342,0.000
193423.900,180475.300,524402.100,489480.600,163316.500,154733.300,144488.800,150767.400,-0.144,0.990,-0.171,-1.068,-1.801,-0.610,73.333,325.000,1.000,3.057,0.000
193366.800,180432.300,524266.600,489346.100,163250.300,154683.600,144431.900,150715.000,-0.140,0.994,-0.168,-1.221,-2.045,-0.519,73.333,326.000,1.000,0.007,0.000
193325.500,180387.900,524138.300,489225.400,163192.500,154628.200,144382.000,150665.100,-0.134,0.987,-0.164,-1.740,-2.136,-0.397,73.333,327.000,1.000,4.467,0.000
193358.800,180409.300,524085.500,489184.200,163224.300,154652.300,144405.600,150690.200,-0.130,0.981,-0.167,-1.862,-1.953,-0.244,73.333,328.000,1.000,2.466,0.000
193382.900,180426.300,524032.100,489139.500,163264.200,154685.100,144432.000,150717.600,-0.132,0.972,-0.166,-1.831,-1.801,-0.031,73.333,329.000,1.000,5.021,0.000
193378.600,180422.700,523952.200,489062.500,163268.600,154682.200,144438.900,150714.500,-0.130,0.965,-0.168,-2.014,-1.465,-0.153,73.333,330.000,1.000,2.449,0.000
193376.200,180433.400,523870.500,488991.800,163250.800,154674.600,144432.200,150712.300,-0.133,0.970,-0.170,-1.953,-1.251,0.031,73.333,331.000,1.000,2.546,0.000
193382.700,180446.000,523794.900,488926.200,163245.400,154681.900,144433.800,150712.500,-0.128,0.975,-0.173,-2.014,-1.129,-0.031,73.333,332.000,1.000,3.794,0.000
193369.700,180410.100,523691.000,488835.200,163228.900,154657.400,144406.800,150690.700,-0.129,0.981,-0.173,-1.984,-0.763,0.000,73.333,333.000,1.000,6.777,0.000
193367.200,180398.400,523607.800,488760.600,163241.900,154659.400,144412.300,150689.600,-0.128,0.980,-0.173,-1.801,-0.397,-0.092,73.333,334.000,1.000,0.016,0.000
193370.000,180415.800,523537.800,488697.200,163255.700,154676.800,144422.000,150703.800,-0.123,0.977,-0.173,-2.136,0.061,-0.122,73.333,335.000,1.000,1.925,0.000
193365.200,180427.000,523457.800,488623.700,163243.700,154670.100,144423.500,150697.300,-0.125,0.978,-0.171,-2.136,0.427,0.061,73.333,336.000,1.000,8.754,0.000
193354.800,180416.800,523367.300,488548.000,163222.300,154654.700,144411.300,150692.000,-0.124,0.974,-0.169,-2.380,0.763,0.153,73.333,337.000,1.000,4.310,0.000
193378.600,180421.600,523304.100,488498.500,163243.800,154659.400,144424.100,150711.700,-0.122,0.972,-0.170,-2.502,1.282,0.214,73.333,338.000,1.000,0.010,0.000
193390.700,180425.600,523236.400,488438.900,163268.400,154677.300,144437.000,150717.300,-0.125,0.978,-0.173,-2.472,1.556,0.336,73.333,339.000,1.000,10.674,0.000
193362.400,180403.400,523138.500,488343.300,163251.200,154657.000,144424.400,150698.400,-0.127,0.974,-0.170,-2.502,1.923,0.275,73.333,340.000,1.000,3.066,0.000
193353.500,180410.700,523055.700,488260.100,163234.100,154659.400,144422.000,150694.800,-0.128,0.975,-0.171,-2.594,2.258,0.183,73.333,341.000,1.000,0.007,0.000
193373.800,180423.500,522989.600,488204.100,163234.300,154662.400,144425.000,150698.900,-0.133,0.973,-0.171,-2.563,2.441,0.305,73.333,342.000,1.000,12.467,0.000
193368.800,180400.100,522900.800,488124.400,163226.500,154644.600,144408.000,150684.300,-0.130,0.970,-0.171,-2.655,2.594,0.214,73.333,343.000,1.000,0.013,0.000
193385.200,180412.500,522842.400,488074.200,163259.900,154670.800,144428.400,150713.300,-0.133,0.969,-0.169,-2.716,2.686,0.153,73.333,344.000,1.000,4.973,0.000
193389.000,180427.900,522773.900,488010.000,163275.200,154685.000,144447.100,150723.500,-0.134,0.972,-0.168,-2.686,2.838,0.092,73.333,345.000,1.000,0.016,0.000
193372.900,180426.600,522686.300,487922.300,163250.400,154670.100,144438.200,150706.000,-0.134,0.973,-0.168,-2.625,2.991,-0.275,73.333,346.000,1.000,1.863,0.000
193350.300,180401.700,522582.900,487823.300,163210.000,154635.700,144401.700,150675.800,-0.136,0.977,-0.169,-2.563,3.204,-0.397,73.333,347.000,1.000,2.528,0.000
193362.600,180397.100,522510.100,487764.100,163217.900,154637.300,144398.600,150679.300,-0.136,0.980,-0.167,-2.594,3.113,-0.580,73.333,348.000,1.000,16.341,0.000
193389.200,180416.000,522457.500,487726.700,163256.800,154671.400,144426.600,150705.700,-0.136,0.979,-0.172,-2.686,3.143,-0.793,73.333,349.000,1.000,7.476,0.000
193395.000,180431.000,522391.200,487666.200,163272.300,154685.600,144443.600,150718.000,-0.139,0.981,-0.172,-2.838,3.235,-0.763,73.333,350.000,1.000,0.014,0.000
193386.000,180432.100,522312.500,487589.200,163254.000,154682.800,144442.300,150709.700,-0.139,0.977,-0.170,-3.052,3.113,-0.977,73.333,351.000,1.000,0.003,0.000
193376.800,180418.700,522224.600,487517.100,163227.700,154668.500,144425.200,150696.300,-0.139,0.978,-0.171,-3.082,3.174,-1.160,73.333,352.000,1.000,3.019,0.000
193390.200,180419.200,522158.800,487468.900,163242.700,154676.100,144427.100,150703.400,-0.142,0.981,-0.171,-3.021,2.930,-1.373,73.333,353.000,1.000,0.009,0.000
193381.000,180412.200,522077.800,487396.600,163254.800,154675.400,144426.200,150701.200,-0.142,0.980,-0.169,-3.052,2.625,-1.587,73.333,354.000,1.000,1.876,0.000
193372.600,180414.300,521995.400,487317.100,163256.100,154682.500,144437.700,150704.700,-0.146,0.982,-0.167,-3.204,2.533,-1.587,73.333,355.000,1.000,2.454,0.000
193362.000,180420.500,521910.700,487230.800,163237.300,154685.300,144444.100,150691.100,-0.149,0.985,-0.172,-3.265,2.197,-1.709,73.333,356.000,1.000,8.778,0.000
193368.200,180421.400,521835.300,487166.200,163227.100,154674.800,144431.700,150687.900,-0.147,0.981,-0.172,-3.479,1.923,-1.953,73.333,357.000,1.000,20.102,0.000
193384.400,180416.400,521764.800,487109.600,163236.800,154669.300,144426.300,150692.400,-0.147,0.978,-0.172,-3.632,1.740,-1.953,73.333,358.000,1.000,0.023,0.000
193389.500,180427.600,521697.400,487033.900,163249.700,154691.000,144440.900,150692.200,-0.146,0.975,-0.167,-3.784,1.282,-2.075,73.333,359.000,1.000,0.007,0.000
193384.400,180440.100,521627.000,486959.100,163244.800,154695.900,144436.700,150692.000,-0.144,0.968,-0.167,-4.059,1.129,-2.167,73.333,360.000,1.000,3.683,0.000
193382.800,180433.700,521550.000,486892.000,163231.300,154663.400,144411.800,150687.500,-0.150,0.967,-0.163,-3.906,0.946,-2.014,73.333,361.000,1.000,3.678,0.000
193403.300,180433.500,521485.300,486841.500,163232.500,154653.400,144406.800,150689.500,-0.151,0.961,-0.165,-3.601,0.641,-2.136,73.333,362.000,1.000,0.008,0.000
193439.400,180450.900,521438.600,486804.300,163265.600,154675.200,144434.600,150714.600,-0.149,0.958,-0.168,-3.387,0.305,-2.045,73.333,363.000,1.000,0.003,0.000
193430.000,180452.000,521360.700,486720.300,163272.800,154687.800,144446.000,150722.200,-0.152,0.958,-0.166,-3.113,0.000,-1.953,73.333,364.000,1.000,8.091,0.000
193405.000,180449.300,521273.600,486629.800,163260.800,154687.200,144445.100,150708.700,-0.147,0.958,-0.166,-2.655,-0.305,-2.045,73.333,365.000,1.000,0.018,0.000
193394.100,180440.200,521185.700,486555.800,163237.800,154670.300,144425.900,150693.600,-0.149,0.961,-0.164,-2.319,-0.610,-1.862,73.333,366.000,1.000,1.914,0.000
193417.300,180446.600,521124.100,486518.000,163249.400,154666.400,144430.100,150710.100,-0.149,0.965,-0.165,-1.923,-0.854,-1.709,73.333,367.000,1.000,2.550,0.000
193425.600,180441.400,521055.400,486458.400,163262.100,154672.300,144436.200,150715.700,-0.143,0.966,-0.166,-1.709,-0.977,-1.587,73.333,368.000,1.000,3.640,0.000
193406.200,180435.100,520971.000,486370.100,163258.800,154681.800,144437.500,150705.000,-0.140,0.969,-0.166,-1.526,-1.068,-1.312,73.333,369.000,1.000,8.808,0.000
193376.000,180425.800,520877.500,486277.200,163237.200,154669.000,144428.400,150688.000,-0.144,0.972,-0.166,-1.251,-1.160,-1.007,73.333,370.000,1.000,4.290,0.000
193388.900,180438.100,520817.800,486226.500,163239.000,154671.300,144436.300,150702.100,-0.139,0.972,-0.168,-1.190,-1.129,-0.885,73.333,371.000,1.000,0.011,0.000
193414.000,180444.400,520757.900,486182.800,163250.100,154676.900,144438.700,150708.700,-0.142,0.978,-0.167,-1.038,-0.916,-0.580,73.333,372.000,1.000,11.262,0.000
193429.900,180453.200,520693.400,486121.500,163265.400,154690.700,144445.100,150712.800,-0.139,0.978,-0.167,-1.099,-0.977,-0.458,73.333,373.000,1.000,0.014,0.000
193422.500,180458.500,520623.000,486049.700,163275.700,154699.800,144458.300,150721.000,-0.139,0.979,-0.166,-1.099,-0.702,-0.244,73.333,374.000,1.000,2.561,0.000
193410.100,180465.100,520550.300,485977.200,163270.200,154697.100,144462.400,150722.500,-0.138,0.981,-0.167,-0.885,-0.580,0.000,73.333,375.000,1.000,0.007,0.000
193414.200,180465.800,520480.900,485914.700,163262.800,154690.000,144450.300,150712.600,-0.139,0.978,-0.169,-0.977,-0.488,0.061,73.333,376.000,1.000,8.043,0.000
193412.000,180441.500,520395.000,485844.000,163246.300,154668.600,144421.500,150696.800,-0.140,0.975,-0.169,-0.946,-0.305,0.275,73.333,377.000,1.000,2.483,0.000
193427.500,180448.000,520337.100,485794.000,163262.300,154676.300,144430.500,150705.000,-0.140,0.969,-0.169,-0.977,-0.183,0.305,73.333,378.000,1.000,3.752,0.000
193416.400,180452.000,520267.500,485723.600,163269.200,154683.400,144436.500,150708.500,-0.139,0.969,-0.169,-0.854,-0.061,0.305,73.333,379.000,1.000,11.874,0.000
193391.000,180446.800,520183.900,485638.300,163252.800,154677.400,144432.700,150700.800,-0.140,0.973,-0.171,-0.793,-0.031,0.305,73.333,380.000,1.000,0.082,0.000
193387.200,180448.200,520110.100,485571.500,163239.500,154678.800,144430.800,150695.300,-0.137,0.980,-0.172,-0.824,0.183,0.305,73.333,381.000,1.000,1.845,0.000
193410.100,180451.200,520046.500,485521.800,163245.000,154674.700,144426.600,150696.900,-0.136,0.988,-0.171,-0.946,0.275,0.275,73.333,382.000,1.000,9.982,0.000
193436.600,180462.700,519994.100,485478.500,163269.400,154694.300,144439.000,150713.400,-0.137,0.992,-0.167,-1.190,0.336,0.122,73.333,383.000,1.000,2.467,0.000
193424.000,180468.000,519924.800,485404.500,163278.600,154712.900,144458.500,150723.500,-0.137,0.993,-0.165,-1.495,0.305,0.031,73.333,384.000,1.000,8.073,0.000
193406.300,180478.500,519852.800,485333.700,163278.500,154732.700,144470.100,150727.000,-0.135,0.990,-0.166,-1.984,0.519,-0.092,73.333,385.000,1.000,0.010,0.000
193408.500,180480.800,519783.100,485276.500,163266.500,154712.600,144459.000,150721.200,-0.135,0.986,-0.167,-2.197,0.824,-0.214,73.333,386.000,1.000,1.880,0.000
193422.500,180476.000,519713.200,485221.700,163259.700,154701.600,144453.300,150712.700,-0.134,0.984,-0.169,-2.411,0.854,-0.336,73.333,387.000,1.000,2.492,0.000
193430.700,180466.600,519647.600,485165.000,163268.900,154697.000,144448.100,150720.900,-0.136,0.981,-0.167,-2.594,1.068,-0.580,73.333,388.000,1.000,2.535,0.000
193411.500,180458.300,519570.400,485082.800,163267.100,154695.700,144447.300,150711.800,-0.138,0.980,-0.167,-2.686,1.282,-0.793,73.333,389.000,1.000,2.459,0.000
193386.000,180447.700,519485.800,484998.100,163247.000,154680.500,144428.700,150700.500,-0.139,0.980,-0.163,-2.747,1.373,-1.099,73.333,390.000,1.000,28.840,0.000
193375.200,180438.800,519405.400,484925.500,163226.000,154660.300,144410.000,150688.000,-0.140,0.980,-0.160,-2.716,1.587,-1.312,73.333,391.000,1.000,3.022,0.000
193393.700,180439.700,519347.000,484882.100,163228.700,154661.700,144412.300,150694.800,-0.141,0.979,-0.163,-2.655,1.617,-1.465,73.333,392.000,1.000,0.010,0.000
193416.300,180448.600,519299.400,484839.800,163253.800,154676.400,144427.400,150706.100,-0.139,0.977,-0.165,-2.533,1.526,-1.617,73.333,393.000,1.000,4.427,0.000
193406.700,180450.200,519231.800,484768.800,163259.200,154681.300,144433.000,150708.100,-0.141,0.977,-0.165,-2.472,1.678,-1.801,73.333,394.000,1.000,2.457,0.000
193378.500,180445.300,519147.800,484683.600,163239.400,154676.700,144425.700,150698.200,-0.140,0.975,-0.163,-2.502,1.648,-1.770,73.333,395.000,1.000,2.583,0.000
193374.600,180443.900,519076.300,484618.800,163227.600,154669.800,144421.100,150691.000,-0.141,0.976,-0.165,-2.350,1.709,-1.801,73.333,396.000,1.000,2.444,0.000
193398.100,180448.400,519021.900,484580.200,163237.100,154671.000,144423.000,150695.700,-0.145,0.977,-0.165,-2.228,1.770,-1.648,73.333,397.000,1.000,2.503,0.000
193417.300,180458.000,518970.600,484535.300,163261.800,154687.600,144437.300,150715.100,-0.143,0.977,-0.163,-2.319,1.923,-1.556,73.333,398.000,1.000,2.445,0.000
193401.200,180458.200,518898.300,484463.000,163265.800,154695.900,144446.500,150719.000,-0.144,0.978,-0.164,-2.197,1.862,-1.526,73.333,399.000,1.000,2.519,0.000
193378.200,180454.600,518823.500,484384.800,163257.500,154696.500,144446.300,150710.900,-0.143,0.980,-0.167,-2.106,1.801,-1.404,73.333,400.000,1.000,2.517,0.000
193379.300,180457.500,518757.600,484326.600,163254.800,154695.400,144446.600,150716.400,-0.144,0.978,-0.164,-2.045,1.984,-1.221,73.333,401.000,1.000,2.479,0.000
193395.700,180458.600,518694.500,484281.300,163257.900,154695.300,144442.500,150716.600,-0.144,0.976,-0.165,-2.014,1.953,-1.221,73.333,402.000,1.000,2.483,0.000
193409.200,180464.100,518637.400,484231.800,163273.500,154704.100,144443.700,150716.600,-0.146,0.973,-0.167,-1.984,1.801,-1.129,73.333,403.000,1.000,3.131,0.000
193400.300,180471.700,518578.000,484167.100,163286.200,154722.300,144458.700,150726.000,-0.148,0.969,-0.170,-1.953,1.740,-0.885,73.333,404.000,1.000,0.012,0.000
193361.600,180454.200,518488.300,484068.100,163260.600,154706.100,144439.400,150702.500,-0.146,0.969,-0.167,-1.770,1.678,-0.763,73.333,405.000,1.000,2.486,0.000
193359.400,180450.600,518416.800,483999.300,163247.600,154694.100,144428.000,150688.400,-0.149,0.965,-0.170,-1.617,1.648,-0.641,73.333,406.000,1.000,0.004,0.000
193384.500,180451.500,518363.700,483958.700,163256.400,154686.700,144425.600,150693.000,-0.148,0.963,-0.171,-1.526,1.648,-0.488,73.333,407.000,1.000,8.202,0.000
193406.800,180464.200,518317.700,483919.400,163281.200,154701.100,144440.200,150711.700,-0.147,0.961,-0.172,-1.404,1.587,-0.427,73.333,408.000,1.000,3.732,0.000
193399.200,180468.900,518252.100,483856.500,163286.900,154698.500,144442.900,150717.700,-0.147,0.958,-0.171,-1.251,1.648,-0.549,73.333,409.000,1.000,14.335,0.000
193379.200,180466.700,518175.900,483780.100,163277.100,154697.600,144441.800,150703.600,-0.144,0.960,-0.171,-1.068,1.587,-0.519,73.333,410.000,1.000,0.018,0.000
193369.600,180454.400,518096.100,483711.500,163255.200,154676.200,144421.500,150691.400,-0.140,0.962,-0.172,-0.854,1.678,-0.549,73.333,411.000,1.000,1.822,0.000
193391.600,180454.100,518037.800,483668.100,163259.400,154670.900,144420.500,150699.000,-0.141,0.964,-0.174,-0.671,1.770,-0.549,73.333,412.000,1.000,6.281,0.000
193412.700,180464.600,517991.300,483625.900,163284.300,154689.500,144438.900,150715.500,-0.142,0.967,-0.173,-0.427,1.831,-0.610,73.333,413.000,1.000,2.474,0.000
193388.200,180458.500,517915.600,483548.100,163278.200,154694.200,144436.900,150704.000,-0.145,0.969,-0.176,-0.458,1.862,-0.458,73.333,414.000,1.000,5.008,0.000
193364.900,180456.000,517837.000,483465.600,163266.000,154695.000,144436.900,150692.700,-0.144,0.971,-0.178,-0.427,1.953,-0.427,73.333,415.000,1.000,2.480,0.000
193362.100,180450.400,517764.900,483401.300,163251.900,154686.600,144430.200,150684.000,-0.142,0.970,-0.176,-0.427,1.862,-0.366,73.333,416.000,1.000,7.495,0.000
193387.400,180452.900,517713.300,483363.100,163259.700,154690.300,144431.100,150697.600,-0.143,0.968,-0.177,-0.427,1.740,-0.275,73.333,417.000,1.000,2.514,0.000
193411.600,180464.700,517668.000,483323.300,163286.000,154709.100,144444.700,150719.100,-0.144,0.973,-0.177,-0.458,1.801,-0.153,73.333,418.000,1.000,3.082,0.000
193401.500,180467.400,517600.500,483256.500,163295.100,154722.500,144457.300,150724.200,-0.144,0.974,-0.179,-0.549,1.831,-0.061,73.333,419.000,1.000,0.010,0.000
193373.900,180459.600,517516.100,483174.700,163275.000,154711.100,144448.900,150713.000,-0.147,0.976,-0.176,-0.580,1.740,-0.092,73.333,420.000,1.000,4.475,0.000
193370.100,180457.500,517446.400,483114.800,163258.700,154695.900,144439.100,150709.000,-0.146,0.979,-0.179,-0.793,1.495,-0.092,73.333,421.000,1.000,2.461,0.000
193388.600,180459.900,517391.000,483079.800,163265.300,154696.800,144438.000,150719.200,-0.149,0.979,-0.178,-1.038,1.373,-0.183,73.333,422.000,1.000,9.312,0.000
193407.500,180467.600,517343.100,483042.000,163289.500,154718.700,144456.500,150738.900,-0.148,0.979,-0.180,-1.282,1.190,-0.122,73.333,423.000,1.000,0.041,0.000
193392.000,180464.000,517274.900,482968.800,163295.500,154724.500,144469.900,150738.500,-0.151,0.980,-0.180,-1.465,0.946,-0.305,73.333,424.000,1.000,4.988,0.000
193370.000,180463.300,517200.500,482893.800,163285.400,154720.600,144475.000,150736.500,-0.151,0.980,-0.180,-1.648,0.824,-0.336,73.333,425.000,1.000,0.024,0.000
193367.500,180462.900,517135.400,482833.400,163271.600,154712.700,144469.300,150735.200,-0.149,0.980,-0.182,-1.892,0.519,-0.336,73.333,426.000,1.000,1.749,0.000
193374.000,180446.400,517067.500,482777.900,163258.000,154685.000,144442.000,150724.800,-0.148,0.979,-0.179,-2.167,0.397,-0.427,73.333,427.000,1.000,8.751,0.000
193380.900,180440.600,517003.300,482723.400,163263.400,154680.500,144436.800,150728.800,-0.142,0.975,-0.180,-2.411,0.183,-0.458,73.333,428.000,1.000,9.350,0.000
193369.700,180439.700,516938.600,482654.800,163267.200,154686.200,144441.100,150724.800,-0.138,0.973,-0.182,-2.655,0.031,-0.366,73.333,429.000,1.000,0.013,0.000
193353.800,180440.800,516869.600,482579.600,163259.700,154689.800,144437.700,150712.400,-0.134,0.970,-0.181,-2.869,0.061,-0.214,73.333,430.000,1.000,2.442,0.000
193354.800,180441.500,516806.500,482521.000,163251.900,154682.000,144446.000,150710.800,-0.130,0.969,-0.180,-2.930,0.183,-0.183,73.333,431.000,1.000,0.013,0.000
193369.300,180436.100,516745.700,482476.500,163247.700,154668.200,144430.500,150706.600,-0.126,0.967,-0.181,-2.991,0.519,-0.214,73.333,432.000,1.000,24.519,0.000
193392.000,180444.100,516695.100,482433.400,163263.900,154679.700,144426.100,150710.900,-0.125,0.965,-0.178,-3.052,0.854,-0.122,73.333,433.000,1.000,3.466,0.000
193386.900,180451.200,516634.300,482365.600,163270.500,154690.000,144436.400,150711.000,-0.128,0.963,-0.182,-3.052,1.160,-0.031,73.333,434.000,1.000,0.008,0.000
193354.500,180438.200,516555.500,482281.700,163246.200,154675.200,144414.800,150685.500,-0.129,0.961,-0.180,-2.991,1.434,-0.092,73.333,435.000,1.000,0.003,0.000
193342.700,180425.500,516481.600,482211.700,163219.100,154656.300,144394.600,150666.300,-0.130,0.960,-0.182,-2.869,1.678,-0.061,73.333,436.000,1.000,7.617,0.000
193373.300,180437.700,516439.400,482182.900,163235.900,154666.900,144405.500,150682.000,-0.133,0.960,-0.179,-2.747,1.831,-0.031,73.333,437.000,1.000,0.010,0.000
193402.400,180456.500,516403.400,482152.700,163270.200,154693.800,144431.300,150707.800,-0.135,0.965,-0.181,-2.625,1.953,-0.061,73.333,438.000,1.000,0.004,0.000
193394.700,180462.000,516347.300,482092.400,163283.500,154713.800,144447.800,150719.900,-0.137,0.968,-0.176,-2.441,1.984,0.000,73.333,439.000,1.000,2.605,0.000
193373.500,180455.700,516275.800,482020.200,163272.100,154700.100,144446.900,150715.900,-0.141,0.971,-0.177,-2.319,2.075,0.183,73.333,440.000,1.000,2.456,0.000
193370.000,180447.100,516205.400,481962.400,163255.600,154683.600,144429.800,150710.500,-0.143,0.974,-0.177,-2.350,2.106,0.092,73.333,441.000,1.000,2.500,0.000
193392.700,180452.300,516158.200,481928.700,163265.900,154684.900,144428.700,150725.800,-0.143,0.976,-0.180,-2.441,1.953,0.000,73.333,442.000,1.000,2.511,0.000
193404.400,180455.100,516103.700,481883.300,163278.300,154689.100,144435.500,150729.000,-0.140,0.974,-0.178,-2.441,1.892,-0.031,73.333,443.000,1.000,14.406,0.000
193392.100,180458.000,516040.000,481816.200,163281.700,154695.300,144442.900,150729.400,-0.139,0.971,-0.178,-2.319,1.770,0.000,73.333,444.000,1.000,0.014,0.000
193368.900,180454.800,515967.100,481738.300,163269.800,154694.100,144443.600,150719.900,-0.138,0.973,-0.178,-2.350,1.678,0.153,73.333,445.000,1.000,2.470,0.000
193369.300,180456.500,515906.200,481684.900,163262.600,154689.500,144444.500,150724.000,-0.137,0.974,-0.179,-2.258,1.648,0.214,73.333,446.000,1.000,0.012,0.000
193386.800,180455.800,515851.600,481645.100,163267.500,154689.800,144446.300,150738.000,-0.135,0.977,-0.178,-2.380,1.526,0.244,73.333,447.000,1.000,13.150,0.000
193388.800,180447.000,515787.900,481585.900,163267.000,154686.200,144437.000,150725.800,-0.135,0.979,-0.180,-2.563,1.343,0.275,73.333,448.000,1.000,3.060,0.000
193385.300,180454.100,515730.600,481523.800,163276.500,154701.700,144444.500,150720.900,-0.136,0.979,-0.178,-2.716,1.343,0.244,73.333,449.000,1.000,0.013,0.000
193369.700,180460.500,515663.300,481451.700,163270.700,154714.200,144452.400,150716.900,-0.138,0.980,-0.177,-2.747,1.099,0.305,73.333,450.000,1.000,4.314,0.000
193370.500,180459.000,515599.400,481395.800,163257.800,154704.100,144446.700,150714.800,-0.139,0.978,-0.173,-2.991,0.977,0.305,73.333,451.000,1.000,7.589,0.000
193397.000,180464.000,515551.800,481366.600,163266.200,154703.400,144446.400,150730.300,-0.141,0.977,-0.170,-3.143,0.824,0.153,73.333,452.000,1.000,2.437,0.000
193393.700,180450.900,515481.800,481307.000,163260.700,154697.200,144436.900,150722.600,-0.143,0.975,-0.175,-3.265,0.824,0.092,73.333,453.000,1.000,2.609,0.000
193378.600,180445.900,515415.200,481237.200,163261.300,154695.500,144438.700,150721.800,-0.146,0.974,-0.175,-3.448,0.641,-0.183,73.333,454.000,1.000,2.406,0.000
193358.300,180443.900,515349.300,481167.000,163254.900,154700.300,144448.000,150722.300,-0.149,0.972,-0.174,-3.510,0.580,-0.488,73.333,455.000,1.000,3.055,0.000
193353.400,180433.000,515281.800,481110.500,163236.100,154688.300,144435.000,150714.800,-0.151,0.973,-0.177,-3.479,0.092,-0.732,73.333,456.000,1.000,0.006,0.000
193360.800,180411.800,515213.300,481056.900,163218.100,154644.900,144391.700,150692.400,-0.153,0.973,-0.172,-3.540,-0.183,-0.977,73.333,457.000,1.000,4.462,0.000
193371.100,180410.500,515156.100,481004.700,163226.100,154644.300,144386.300,150692.100,-0.153,0.974,-0.170,-3.601,-0.458,-1.129,73.333,458.000,1.000,6.296,0.000
193363.400,180421.500,515100.700,480946.400,163239.200,154671.000,144409.500,150697.700,-0.150,0.972,-0.167,-3.632,-0.427,-1.282,73.333,459.000,1.000,2.472,0.000
193341.800,180422.200,515033.900,480876.400,163228.500,154674.600,144418.900,150696.700,-0.145,0.969,-0.170,-3.540,-0.580,-1.221,73.333,460.000,1.000,3.716,0.000
193342.500,180423.600,514975.600,480823.700,163218.800,154675.300,144416.000,150697.100,-0.140,0.966,-0.175,-3.235,-0.427,-1.190,73.333,461.000,1.000,11.875,0.000
193366.200,180427.900,514930.400,480790.000,163228.500,154672.000,144419.600,150709.200,-0.135,0.965,-0.171,-3.021,-0.366,-1.160,73.333,462.000,1.000,0.073,0.000
193378.700,180432.500,514882.700,480751.700,163248.300,154679.900,144432.600,150721.500,-0.134,0.967,-0.170,-2.747,-0.214,-1.007,73.333,463.000,1.000,2.330,0.000
193371.700,180442.800,514826.300,480692.700,163260.200,154700.700,144446.600,150724.400,-0.135,0.969,-0.167,-2.533,-0.061,-0.916,73.333,464.000,1.000,0.014,0.000
193346.400,180437.300,514754.300,480616.300,163243.500,154695.200,144440.000,150712.300,-0.137,0.973,-0.162,-2.289,0.244,-0.671,73.333,465.000,1.000,6.958,0.000
193340.300,180431.100,514688.800,480557.900,163228.400,154678.500,144426.400,150703.000,-0.139,0.975,-0.165,-2.228,0.519,-0.580,73.333,466.000,1.000,3.699,0.000
193372.400,180441.200,514650.400,480530.300,163246.800,154686.400,144432.500,150714.300,-0.139,0.977,-0.166,-2.197,0.641,-0.641,73.333,467.000,1.000,14.446,0.000
193385.800,180442.300,514601.900,480484.100,163260.800,154693.800,144439.600,150717.500,-0.140,0.977,-0.166,-2.045,0.916,-0.549,73.333,468.000,1.000,0.022,0.000
193373.500,180440.400,514541.600,480415.900,163262.400,154696.900,144445.800,150715.700,-0.142,0.980,-0.165,-2.106,1.068,-0.458,73.333,469.000,1.000,2.401,0.000
193358.300,180441.000,514478.700,480353.300,163256.500,154696.700,144451.500,150717.300,-0.144,0.981,-0.166,-2.045,1.099,-0.336,73.333,470.000,1.000,0.011,0.000
193351.500,180433.400,514411.400,480294.600,163239.500,154682.300,144437.500,150708.300,-0.145,0.983,-0.167,-2.197,1.251,-0.275,73.333,471.000,1.000,1.960,0.000
193360.400,180427.100,514352.000,480248.400,163236.500,154674.300,144427.700,150706.600,-0.146,0.983,-0.165,-2.167,1.373,-0.183,73.333,472.000,1.000,8.702,0.000
193375.600,180436.600,514304.300,480205.300,163255.800,154688.200,144442.400,150720.000,-0.149,0.984,-0.167,-2.228,1.190,-0.183,73.333,473.000,1.000,2.539,0.000
193370.500,180446.900,514251.200,480148.600,163267.600,154706.800,144454.600,150722.600,-0.152,0.980,-0.165,-2.289,1.129,-0.061,73.333,474.000,1.000,5.055,0.000
193347.600,180446.000,514181.500,480078.700,163253.700,154704.800,144450.200,150709.200,-0.152,0.977,-0.168,-2.472,1.099,-0.122,73.333,475.000,1.000,2.400,0.000
193341.800,180437.300,514113.900,480020.300,163236.800,154688.500,144434.400,150694.600,-0.151,0.974,-0.172,-2.472,1.038,-0.092,73.333,476.000,1.000,6.831,0.000
193364.600,180441.500,514067.400,479991.300,163247.200,154685.100,144436.700,150707.000,-0.149,0.974,-0.175,-2.441,0.854,-0.214,73.333,477.000,1.000,0.008,0.000
193374.800,180442.300,514016.500,479951.500,163261.300,154689.500,144441.100,150717.100,-0.150,0.976,-0.172,-2.228,0.671,-0.427,73.333,478.000,1.000,8.766,0.000
193358.600,180435.700,513951.200,479888.800,163259.900,154689.400,144445.800,150718.800,-0.149,0.977,-0.172,-2.258,0.549,-0.519,73.333,479.000,1.000,0.013,0.000
193351.500,180444.700,513895.800,479833.400,163257.500,154700.500,144453.400,150711.500,-0.147,0.979,-0.170,-2.319,0.275,-0.458,73.333,480.000,1.000,2.452,0.000
193368.500,180459.000,513851.600,479795.400,163261.200,154711.800,144460.100,150721.100,-0.146,0.981,-0.169,-2.441,0.122,-0.366,73.333,481.000,1.000,0.004,0.000
193380.200,180445.000,513792.500,479752.300,163254.500,154687.000,144449.300,150721.000,-0.146,0.982,-0.172,-2.411,-0.061,-0.366,73.333,482.000,1.000,13.253,0.000
193394.100,180449.100,513744.600,479710.100,163271.500,154693.400,144456.700,150730.200,-0.145,0.979,-0.174,-2.533,-0.275,-0.458,73.333,483.000,1.000,2.478,0.000
193379.100,180451.200,513680.800,479643.600,163276.500,154705.600,144461.800,150727.100,-0.143,0.974,-0.172,-2.441,-0.488,-0.458,73.333,484.000,1.000,2.493,0.000
193348.700,180445.600,513604.000,479565.400,163256.000,154701.400,144450.700,150707.200,-0.140,0.970,-0.173,-2.502,-0.732,-0.549,73.333,485.000,1.000,2.438,0.000
193340.400,180440.600,513539.100,479512.700,163240.500,154689.200,144438.800,150703.500,-0.140,0.967,-0.174,-2.441,-0.885,-0.671,73.333,486.000,1.000,3.697,0.000
193360.000,180443.300,513490.900,479480.100,163245.300,154687.400,144435.700,150709.900,-0.140,0.964,-0.172,-2.319,-1.129,-0.732,73.333,487.000,1.000,8.086,0.000
193376.200,180445.300,513442.800,479440.100,163259.700,154697.700,144445.100,150718.200,-0.143,0.964,-0.176,-2.228,-1.343,-0.916,73.333,488.000,1.000,0.010,0.000
193366.700,180447.300,513383.300,479381.100,163262.100,154713.200,144455.000,150725.200,-0.146,0.967,-0.172,-2.197,-1.556,-1.007,73.333,489.000,1.000,12.577,0.000
193342.900,180441.800,513313.800,479308.400,163245.800,154708.000,144449.200,150707.600,-0.149,0.967,-0.173,-2.228,-1.770,-1.373,73.333,490.000,1.000,0.009,0.000
193346.100,180437.100,513258.700,479258.600,163234.900,154695.500,144442.200,150698.100,-0.148,0.966,-0.171,-2.106,-2.014,-1.770,73.333,491.000,1.000,6.828,0.000
193377.300,180447.300,513224.000,479236.700,163250.800,154702.600,144451.900,150712.200,-0.148,0.963,-0.175,-1.953,-2.228,-1.984,73.333,492.000,1.000,5.009,0.000
193388.900,180451.700,513177.200,479197.200,163267.700,154714.000,144461.700,150724.300,-0.146,0.959,-0.173,-1.740,-2.625,-2.289,73.333,493.000,1.000,2.516,0.000
193363.500,180439.700,513103.400,479121.300,163257.900,154702.800,144449.100,150711.600,-0.142,0.960,-0.171,-1.556,-2.716,-2.563,73.333,494.000,1.000,10.116,0.000
193333.900,180428.800,513024.900,479043.400,163232.800,154689.200,144431.000,150698.500,-0.135,0.965,-0.169,-1.465,-2.716,-2.869,73.333,495.000,1.000,2.334,0.000
193336.000,180432.000,512969.100,478996.400,163224.300,154692.200,144430.100,150696.800,-0.128,0.968,-0.168,-1.282,-2.594,-3.052,73.333,496.000,1.000,5.035,0.000
193359.000,180427.700,512922.300,478958.400,163229.300,154677.000,144416.000,150700.700,-0.125,0.971,-0.167,-1.282,-2.319,-3.113,73.333,497.000,1.000,3.072,0.000
193369.300,180427.200,512871.700,478912.600,163238.900,154678.500,144414.700,150706.000,-0.122,0.971,-0.169,-1.282,-1.923,-3.235,73.333,498.000,1.000,0.010,0.000
193350.600,180427.800,512809.800,478849.000,163237.700,154684.500,144420.900,150704.900,-0.123,0.970,-0.170,-1.251,-1.617,-3.296,73.333,499.000,1.000,9.427,0.000
193330.100,180423.600,512744.200,478785.800,163226.900,154677.300,144420.300,150700.300,-0.128,0.971,-0.171,-1.038,-1.282,-3.357,73.333,500.000,1.000,2.450,0.000
193330.700,180419.500,512685.900,478737.700,163217.000,154673.500,144415.500,150693.900,-0.132,0.973,-0.173,-1.007,-1.068,-3.357,73.333,501.000,1.000,2.591,0.000
193354.400,180420.900,512641.400,478709.700,163227.700,154675.800,144420.500,150697.800,-0.134,0.977,-0.174,-1.007,-0.854,-3.204,73.333,502.000,1.000,2.473,0.000
193365.000,180422.300,512593.600,478667.700,163244.400,154688.400,144431.300,150714.200,-0.138,0.980,-0.173,-1.099,-0.641,-3.204,73.333,503.000,1.000,2.575,0.000
193351.200,180426.600,512536.900,478603.700,163246.200,154695.300,144441.000,150706.000,-0.145,0.985,-0.175,-1.129,-0.488,-3.082,73.333,504.000,1.000,4.845,0.000
193327.000,180421.000,512469.800,478530.300,163226.800,154686.600,144432.100,150691.100,-0.147,0.984,-0.173,-1.282,-0.397,-2.960,73.333,505.000,1.000,2.537,0.000
193327.600,180413.400,512411.400,478479.700,163212.100,154670.400,144418.500,150686.200,-0.150,0.983,-0.177,-1.495,-0.488,-2.869,73.333,506.000,1.000,4.946,0.000
193358.200,180421.400,512373.400,478454.600,163224.900,154676.800,144421.800,150697.100,-0.151,0.983,-0.176,-1.709,-0.397,-2.716,73.333,507.000,1.000,3.150,0.000
193379.800,180431.600,512336.300,478419.500,163246.500,154693.600,144431.100,150706.300,-0.151,0.987,-0.177,-2.045,-0.366,-2.655,73.333,508.000,1.000,0.013,0.000
193371.700,180437.900,512283.200,478362.900,163255.200,154700.200,144445.600,150712.400,-0.152,0.987,-0.178,-2.228,-0.519,-2.472,73.333,509.000,1.000,1.872,0.000
193346.300,180433.100,512214.500,478294.200,163239.900,154698.800,144445.100,150698.900,-0.153,0.986,-0.178,-2.502,-0.519,-2.289,73.333,510.000,1.000,3.744,0.000
193358.000,180440.300,512165.600,478254.300,163238.400,154695.900,144452.400,150707.300,-0.157,0.984,-0.172,-2.869,-0.580,-2.136,73.333,511.000,1.000,11.851,0.000
193384.300,180443.500,512121.800,478224.900,163248.100,154695.400,144452.000,150716.800,-0.156,0.981,-0.172,-3.174,-0.671,-2.014,73.333,512.000,1.000,0.008,0.000
193394.300,180447.300,512070.600,478181.400,163257.700,154703.700,144439.300,150710.800,-0.157,0.978,-0.167,-3.448,-0.702,-1.892,73.333,513.000,1.000,9.311,0.000
193375.000,180442.700,512008.700,478115.900,163253.000,154699.700,144429.900,150709.400,-0.155,0.976,-0.167,-3.723,-0.732,-1.801,73.333,514.000,1.000,0.011,0.000
193337.300,180423.400,511931.300,478037.500,163226.200,154669.700,144423.400,150704.800,-0.155,0.973,-0.172,-3.723,-0.610,-1.709,73.333,515.000,1.000,0.006,0.000
193324.100,180406.800,511861.600,477978.500,163197.700,154644.000,144398.300,150690.800,-0.153,0.970,-0.172,-3.906,-0.702,-1.373,73.333,516.000,1.000,10.067,0.000
193338.700,180398.500,511811.500,477940.900,163191.200,154629.600,144385.800,150681.000,-0.152,0.968,-0.170,-3.845,-0.580,-1.221,73.333,517.000,1.000,2.491,0.000
193352.300,180401.400,511773.700,477907.200,163209.000,154644.000,144395.000,150684.100,-0.153,0.965,-0.173,-3.754,-0.458,-0.885,73.333,518.000,1.000,3.044,0.000
193341.500,180403.500,511720.900,477844.000,163216.300,154660.100,144401.300,150680.800,-0.151,0.962,-0.173,-3.693,-0.427,-0.641,73.333,519.000,1.000,0.009,0.000
193318.500,180398.600,511654.500,477776.600,163203.100,154653.500,144398.000,150672.800,-0.151,0.961,-0.171,-3.479,-0.305,-0.366,73.333,520.000,1.000,1.912,0.000
193336.300,180412.200,511612.100,477739.300,163208.300,154660.200,144405.200,150677.000,-0.150,0.961,-0.172,-3.174,-0.031,-0.092,73.333,521.000,1.000,2.544,0.000
193364.300,180420.400,511574.600,477711.000,163222.900,154670.400,144412.800,150690.400,-0.150,0.962,-0.173,-2.930,0.122,0.244,73.333,522.000,1.000,8.806,0.000
193381.000,180428.600,511536.500,477671.300,163242.000,154686.000,144426.900,150703.300,-0.150,0.968,-0.173,-2.502,0.427,0.336,73.333,523.000,1.000,6.719,0.000
193363.100,180427.300,511478.400,477604.800,163241.000,154695.200,144431.100,150698.200,-0.149,0.968,-0.173,-2.197,0.641,0.549,73.333,524.000,1.000,0.022,0.000
193346.000,180427.600,511417.800,477542.100,163230.100,154694.100,144430.400,150692.700,-0.148,0.967,-0.169,-1.984,0.824,0.610,73.333,525.000,1.000,8.226,0.000
193350.300,180428.700,511362.200,477499.300,163219.200,154683.100,144426.100,150690.900,-0.149,0.966,-0.170,-1.801,1.099,0.702,73.333,526.000,1.000,9.877,0.000
193371.000,180428.100,511319.600,477471.100,163223.700,154676.800,144421.500,150696.500,-0.149,0.972,-0.172,-1.678,1.434,0.824,73.333,527.000,1.000,0.009,0.000
193388.000,180437.500,511282.200,477437.200,163244.300,154690.300,144433.700,150713.400,-0.149,0.977,-0.171,-1.526,1.648,0.854,73.333,528.000,1.000,0.003,0.000
193377.700,180442.100,511231.700,477381.700,163253.200,154709.200,144443.600,150715.800,-0.148,0.980,-0.171,-1.526,1.862,0.763,73.333,529.000,1.000,3.132,0.000
193351.800,180435.600,511165.500,477312.100,163236.200,154702.300,144436.000,150697.500,-0.148,0.984,-0.171,-1.465,1.984,0.916,73.333,530.000,1.000,0.010,0.000
193350.300,180431.500,511109.900,477262.500,163225.700,154678.900,144427.000,150700.000,-0.148,0.985,-0.174,-1.587,2.167,0.854,73.333,531.000,1.000,2.003,0.000
193371.500,180434.300,511069.200,477237.000,163233.400,154678.400,144419.300,150708.300,-0.148,0.983,-0.172,-1.617,2.258,0.793,73.333,532.000,1.000,8.697,0.000
193382.300,180437.100,511027.500,477199.800,163248.100,154685.000,144427.800,150708.100,-0.149,0.979,-0.175,-1.709,2.289,0.854,73.333,533.000,1.000,9.300,0.000
193363.400,180433.200,510969.500,477136.400,163248.000,154690.500,144434.300,150706.600,-0.151,0.974,-0.176,-1.740,2.167,0.885,73.333,534.000,1.000,0.009,0.000
193336.200,180418.100,510899.200,477060.500,163224.300,154673.200,144420.900,150683.700,-0.148,0.971,-0.176,-1.801,2.167,0.732,73.333,535.000,1.000,8.776,0.000
193351.200,180424.100,510857.700,477024.600,163219.200,154666.800,144419.600,150684.300,-0.147,0.969,-0.175,-1.831,2.075,0.671,73.333,536.000,1.000,0.010,0.000
193378.700,180430.000,510820.500,477001.500,163226.200,154672.600,144422.000,150694.800,-0.149,0.969,-0.178,-1.892,2.045,0.488,73.333,537.000,1.000,4.988,0.000
193387.800,180430.100,510775.300,476963.300,163237.900,154683.000,144423.800,150702.500,-0.148,0.972,-0.177,-1.923,1.892,0.366,73.333,538.000,1.000,0.008,0.000
193368.400,180431.400,510716.100,476900.400,163238.700,154688.500,144430.900,150699.000,-0.144,0.975,-0.177,-1.892,1.801,0.183,73.333,539.000,1.000,4.344,0.000
193323.900,180407.900,510630.300,476812.900,163205.500,154666.100,144411.500,150671.400,-0.143,0.975,-0.177,-2.014,1.587,0.122,73.333,540.000,1.000,5.039,0.000
193327.000,180409.600,510577.200,476768.800,163195.500,154662.700,144408.500,150672.500,-0.145,0.972,-0.181,-2.136,1.343,-0.061,73.333,541.000,1.000,2.523,0.000
193378.200,180442.900,510564.300,476769.500,163230.100,154693.400,144436.400,150711.200,-0.146,0.973,-0.181,-2.380,1.190,-0.214,73.333,542.000,1.000,8.745,0.000
193392.600,180445.500,510526.800,476737.000,163247.900,154705.300,144447.100,150725.400,-0.148,0.968,-0.180,-2.441,0.977,-0.336,73.333,543.000,1.000,5.579,0.000
193384.200,180447.500,510475.900,476682.200,163252.800,154714.700,144456.300,150721.800,-0.147,0.968,-0.178,-2.563,0.732,-0.580,73.333,544.000,1.000,0.008,0.000
193360.400,180437.700,510408.700,476609.900,163229.900,154703.000,144448.000,150706.500,-0.149,0.971,-0.179,-2.686,0.336,-0.671,73.333,545.000,1.000,1.927,0.000
193365.100,180432.700,510355.500,476565.300,163216.500,154687.000,144440.000,150702.700,-0.149,0.973,-0.179,-2.930,-0.092,-0.854,73.333,546.000,1.000,2.418,0.000
193383.100,180424.100,510307.100,476532.200,163217.700,154679.700,144428.800,150698.000,-0.147,0.974,-0.181,-3.052,-0.549,-1.038,73.333,547.000,1.000,3.800,0.000
193393.400,180428.500,510264.400,476494.800,163235.800,154697.500,144452.500,150709.500,-0.148,0.977,-0.176,-3.235,-0.916,-1.312,73.333,548.000,1.000,8.743,0.000
193381.300,180433.000,510215.300,476436.800,163244.900,154710.700,144459.500,150710.000,-0.150,0.979,-0.175,-3.418,-1.343,-1.526,73.333,549.000,1.000,3.118,0.000
193357.700,180426.700,510151.500,476365.900,163226.200,154688.300,144429.000,150699.800,-0.149,0.978,-0.172,-3.693,-1.648,-1.770,73.333,550.000,1.000,0.017,0.000
193357.800,180421.300,510096.600,476320.300,163206.900,154660.500,144401.900,150686.800,-0.153,0.972,-0.171,-3.906,-1.923,-1.923,73.333,551.000,1.000,28.179,0.000
193380.200,180426.500,510059.800,476292.100,163217.200,154675.800,144413.200,150694.700,-0.154,0.965,-0.176,-3.998,-2.197,-2.228,73.333,552.000,1.000,2.455,0.000
193383.500,180427.000,510015.800,476247.500,163227.400,154686.200,144421.100,150705.600,-0.152,0.960,-0.177,-3.754,-2.502,-2.289,73.333,553.000,1.000,2.471,0.000
193358.600,180419.800,509954.500,476182.700,163223.300,154674.600,144410.900,150701.600,-0.149,0.957,-0.176,-3.418,-2.808,-2.258,73.333,554.000,1.000,2.428,0.000
193331.500,180408.900,509886.600,476110.100,163205.600,154667.200,144412.000,150686.000,-0.147,0.957,-0.174,-3.174,-2.930,-2.228,73.333,555.000,1.000,2.600,0.000
193329.500,180403.000,509828.800,476062.100,163190.900,154657.200,144408.400,150680.200,-0.141,0.958,-0.170,-2.838,-3.021,-2.167,73.333,556.000,1.000,2.493,0.000
193354.800,180405.800,509790.400,476038.300,163198.700,154651.900,144406.200,150682.900,-0.141,0.963,-0.171,-2.777,-3.021,-2.136,73.333,557.000,1.000,2.501,0.000
193376.900,180417.800,509757.400,476007.600,163219.900,154668.100,144420.000,150695.600,-0.137,0.966,-0.175,-2.441,-2.838,-1.984,73.333,558.000,1.000,2.460,0.000
193361.900,180416.400,509704.000,475951.900,163220.800,154672.600,144423.900,150694.300,-0.137,0.969,-0.175,-2.319,-2.594,-1.892,73.333,559.000,1.000,2.532,0.000
193339.100,180411.900,509643.100,475888.600,163205.700,154670.000,144420.700,150685.800,-0.136,0.973,-0.173,-2.014,-2.319,-1.648,73.333,560.000,1.000,2.478,0.000
193332.300,180405.600,509584.300,475838.300,163188.000,154657.400,144408.200,150677.000,-0.136,0.975,-0.172,-1.862,-2.045,-1.587,73.333,561.000,1.000,2.547,0.000
193358.300,180410.500,509549.100,475817.800,163201.700,154660.400,144412.200,150692.500,-0.138,0.976,-0.170,-1.801,-1.648,-1.404,73.333,562.000,1.000,2.388,0.000
193384.000,180426.200,509523.100,475793.900,163233.400,154683.800,144431.300,150711.100,-0.137,0.975,-0.168,-1.709,-1.221,-1.221,73.333,563.000,1.000,3.164,0.000
193369.400,180429.800,509471.300,475737.000,163239.600,154696.100,144440.500,150708.100,-0.139,0.975,-0.169,-1.526,-0.824,-1.038,73.333,564.000,1.000,0.008,0.000
193341.700,180422.900,509405.300,475667.500,163224.200,154688.500,144437.900,150701.500,-0.140,0.975,-0.172,-1.495,-0.427,-0.732,73.333,565.000,1.000,16.227,0.000
193349.100,180425.600,509360.600,475631.600,163221.200,154682.600,144438.400,150707.200,-0.139,0.974,-0.173,-1.404,0.000,-0.519,73.333,566.000,1.000,0.012,0.000
193370.300,180423.400,509318.800,475600.100,163225.000,154676.000,144429.400,150705.000,-0.139,0.978,-0.175,-1.343,0.427,-0.275,73.333,567.000,1.000,2.426,0.000
193373.100,180418.500,509270.300,475550.700,163229.500,154678.900,144428.000,150698.100,-0.138,0.979,-0.171,-1.282,0.671,-0.153,73.333,568.000,1.000,0.008,0.000
193363.600,180424.100,509223.800,475497.700,163234.100,154686.900,144435.900,150699.400,-0.141,0.978,-0.168,-1.312,1.038,0.031,73.333,569.000,1.000,1.981,0.000
193349.000,180424.800,509166.800,475439.600,163222.800,154682.400,144432.300,150693.900,-0.142,0.979,-0.168,-1.404,1.434,0.153,73.333,570.000,1.000,2.482,0.000
193346.200,180415.500,509110.100,475390.300,163207.100,154669.000,144421.300,150685.100,-0.143,0.979,-0.172,-1.404,2.014,0.336,73.333,571.000,1.000,2.442,0.000
193356.600,180407.200,509059.700,475346.400,163203.600,154656.900,144411.300,150676.200,-0.144,0.980,-0.173,-1.617,2.411,0.427,73.333,572.000,1.000,3.867,0.000
193378.700,180424.400,509029.200,475319.800,163228.400,154677.500,144424.400,150690.500,-0.148,0.979,-0.171,-1.770,2.533,0.366,73.333,573.000,1.000,14.223,0.000
193356.700,180418.200,508971.200,475258.300,163226.100,154680.200,144421.100,150683.900,-0.150,0.979,-0.172,-1.770,2.747,0.366,73.333,574.000,1.000,0.008,0.000
193344.300,180417.800,508917.600,475200.300,163219.400,154680.900,144423.800,150678.700,-0.153,0.978,-0.170,-1.801,2.899,0.366,73.333,575.000,1.000,1.936,0.000
193350.600,180418.900,508869.600,475153.600,163210.600,154676.000,144423.800,150680.200,-0.153,0.976,-0.173,-1.953,2.960,0.183,73.333,576.000,1.000,4.982,0.000
193384.500,180431.200,508844.400,475140.300,163231.200,154687.000,144438.200,150707.700,-0.153,0.977,-0.175,-2.014,2.960,0.061,73.333,577.000,1.000,8.837,0.000
193417.200,180453.200,508824.000,475126.100,163265.900,154712.900,144465.500,150729.700,-0.153,0.980,-0.177,-2.075,3.082,-0.031,73.333,578.000,1.000,2.501,0.000
193398.700,180447.300,508771.700,475060.200,163263.900,154715.100,144460.800,150718.400,-0.154,0.978,-0.176,-2.411,2.838,0.031,73.333,579.000,1.000,5.543,0.000
193374.100,180439.400,508710.700,474989.400,163244.400,154704.200,144455.000,150703.800,-0.157,0.977,-0.177,-2.594,2.655,0.122,73.333,580.000,1.000,0.007,0.000
193376.000,180435.200,508659.800,474949.800,163227.600,154688.500,144444.000,150697.600,-0.159,0.972,-0.179,-2.808,2.350,0.153,73.333,581.000,1.000,1.915,0.000
193400.900,180437.400,508623.400,474932.500,163235.900,154689.300,144442.900,150706.100,-0.157,0.971,-0.177,-2.869,2.106,0.244,73.333,582.000,1.000,2.488,0.000
193403.200,180433.300,508575.800,474888.800,163245.100,154692.600,144442.600,150709.900,-0.156,0.971,-0.179,-3.021,1.801,0.122,73.333,583.000,1.000,2.475,0.000
193384.800,180430.600,508523.400,474831.900,163250.600,154699.100,144451.500,150712.800,-0.156,0.972,-0.177,-3.174,1.617,0.183,73.333,584.000,1.000,6.243,0.000
193361.500,180427.100,508462.500,474773.800,163236.300,154694.500,144449.800,150707.300,-0.156,0.973,-0.176,-3.204,1.251,0.061,73.333,585.000,1.000,3.083,0.000
193362.200,180423.200,508406.200,474728.100,163221.100,154685.500,144440.000,150699.600,-0.157,0.974,-0.177,-3.265,0.916,0.092,73.333,586.000,1.000,0.007,0.000
193387.800,180433.000,508373.000,474706.000,163235.600,154698.600,144449.000,150710.100,-0.159,0.974,-0.178,-3.510,0.610,-0.031,73.333,587.000,1.000,8.186,0.000
193398.300,180438.100,508334.800,474668.200,163254.300,154719.100,144463.000,150716.400,-0.158,0.973,-0.178,-3.540,0.183,0.031,73.333,588.000,1.000,2.438,0.000
193390.800,180442.400,508289.300,474613.700,163263.000,154722.200,144478.500,150724.400,-0.158,0.970,-0.178,-3.510,-0.275,-0.031,73.333,589.000,1.000,8.842,0.000
193368.800,180434.800,508228.300,474548.800,163245.600,154698.800,144460.200,150707.200,-0.155,0.966,-0.177,-3.448,-0.610,-0.153,73.333,590.000,1.000,2.999,0.000
193367.200,180430.100,508176.300,474504.400,163228.600,154680.000,144434.400,150694.800,-0.158,0.966,-0.178,-3.357,-1.007,-0.366,73.333,591.000,1.000,0.006,0.000
193392.200,180437.400,508146.600,474480.300,163239.100,154686.100,144437.100,150709.900,-0.156,0.966,-0.177,-3.296,-1.404,-0.549,73.333,592.000,1.000,1.887,0.000
193414.900,180452.300,508120.200,474453.400,163263.300,154700.800,144444.000,150721.800,-0.154,0.962,-0.177,-3.113,-1.770,-0.580,73.333,593.000,1.000,13.783,0.000
193395.900,180448.900,508065.100,474394.500,163261.000,154698.900,144440.500,150714.600,-0.155,0.962,-0.177,-2.930,-2.075,-0.641,73.333,594.000,1.000,2.517,0.000
193361.200,180433.000,507995.400,474329.900,163234.000,154681.800,144434.800,150699.400,-0.151,0.962,-0.176,-2.655,-2.411,-0.854,73.333,595.000,1.000,7.455,0.000
193348.800,180419.800,507935.700,474281.300,163211.500,154671.000,144424.500,150689.700,-0.152,0.965,-0.177,-2.502,-2.716,-0.824,73.333,596.000,1.000,2.566,0.000
193371.300,180421.700,507901.500,474260.300,163223.300,154670.600,144426.500,150701.800,-0.152,0.966,-0.175,-2.350,-2.960,-0.885,73.333,597.000,1.000,3.099,0.000
193389.200,180432.100,507870.300,474229.700,163247.800,154681.800,144435.700,150715.500,-0.152,0.967,-0.175,-2.167,-3.235,-0.885,73.333,598.000,1.000,0.007,0.000
193377.400,180437.500,507821.000,474173.800,163253.000,154692.600,144445.800,150717.500,-0.151,0.969,-0.175,-2.106,-3.448,-0.916,73.333,599.000,1.000,1.887,0.000
193354.800,180429.800,507758.000,474107.300,163233.300,154683.700,144439.100,150708.300,-0.148,0.968,-0.175,-2.045,-3.479,-0.916,73.333,600.000,1.000,3.775,0.000
193362.500,180427.000,507710.600,474068.100,163221.100,154672.500,144431.900,150704.200,-0.145,0.968,-0.171,-1.953,-3.632,-0.793,73.333,601.000,1.000,11.830,0.000
193394.900,180431.400,507680.800,474050.400,163234.300,154673.800,144433.600,150717.900,-0.144,0.968,-0.176,-1.801,-3.662,-0.793,73.333,602.000,1.000,0.014,0.000
193410.800,180435.700,507647.600,474014.500,163253.800,154686.200,144444.700,150724.400,-0.142,0.971,-0.174,-1.678,-3.571,-0.702,73.333,603.000,1.000,4.904,0.000
193392.600,180436.200,507598.800,473959.700,163259.500,154700.300,144451.800,150729.000,-0.142,0.972,-0.175,-1.678,-3.510,-0.641,73.333,604.000,1.000,0.006,0.000
193363.500,180428.500,507537.000,473895.300,163243.000,154686.400,144446.000,150711.500,-0.141,0.972,-0.177,-1.617,-3.326,-0.488,73.333,605.000,1.000,1.903,0.000
193360.200,180426.700,507489.400,473857.800,163236.900,154677.800,144443.700,150713.300,-0.141,0.973,-0.175,-1.495,-3.021,-0.397,73.333,606.000,1.000,6.348,0.000
193390.900,180438.400,507466.300,473851.900,163260.700,154689.200,144455.000,150729.500,-0.142,0.975,-0.173,-1.587,-2.777,-0.336,73.333,607.000,1.000,2.478,0.000
193403.100,180443.900,507432.400,473819.400,163279.600,154703.000,144468.400,150738.000,-0.138,0.977,-0.174,-1.587,-2.625,-0.244,73.333,608.000,1.000,2.495,0.000
193379.600,180437.700,507376.300,473753.800,163273.300,154705.800,144475.100,150730.200,-0.137,0.980,-0.174,-1.709,-2.258,-0.214,73.333,609.000,1.000,8.692,0.000
193353.200,180426.900,507313.200,473687.500,163250.700,154684.500,144457.400,150709.300,-0.135,0.981,-0.174,-1.801,-1.984,-0.092,73.333,610.000,1.000,3.107,0.000
193356.100,180428.100,507266.300,473643.200,163236.000,154675.600,144449.300,150702.400,-0.133,0.981,-0.175,-2.075,-1.495,0.092,73.333,611.000,1.000,0.006,0.000
193383.100,180433.700,507233.700,473619.500,163242.900,154679.400,144446.700,150707.800,-0.129,0.981,-0.172,-2.167,-1.068,0.153,73.333,612.000,1.000,1.957,0.000
193403.600,180442.300,507203.000,473591.000,163266.500,154695.000,144460.400,150718.600,-0.128,0.980,-0.174,-2.411,-0.519,0.183,73.333,613.000,1.000,16.828,0.000
193390.400,180439.500,507148.200,473532.300,163260.500,154694.400,144453.100,150707.400,-0.129,0.978,-0.170,-2.716,0.000,0.366,73.333,614.000,1.000,0.021,0.000
193378.300,180437.800,507094.000,473477.200,163246.700,154686.700,144450.600,150707.500,-0.130,0.979,-0.171,-2.838,0.519,0.549,73.333,615.000,1.000,1.937,0.000
193381.400,180433.100,507045.400,473435.800,163235.300,154672.700,144442.100,150701.400,-0.133,0.979,-0.172,-2.991,1.129,0.610,73.333,616.000,1.000,2.397,0.000
193401.000,180432.500,507009.500,473405.100,163242.900,154674.100,144442.700,150706.600,-0.134,0.981,-0.173,-3.052,1.465,0.702,73.333,617.000,1.000,2.546,0.000
193409.900,180437.900,506973.600,473367.000,163258.400,154687.200,144444.800,150710.100,-0.139,0.981,-0.173,-3.265,1.831,0.793,73.333,618.000,1.000,2.497,0.000
193390.000,180438.800,506920.600,473309.100,163255.700,154692.600,144443.700,150699.100,-0.142,0.981,-0.175,-3.448,2.136,0.793,73.333,619.000,1.000,14.998,0.000
193358.600,180429.400,506855.400,473242.000,163232.900,154678.800,144433.500,150687.300,-0.143,0.979,-0.173,-3.632,2.472,0.824,73.333,620.000,1.000,0.012,0.000
193374.500,180440.200,506821.000,473217.300,163236.300,154682.800,144443.600,150696.200,-0.145,0.978,-0.172,-3.845,2.747,0.732,73.333,621.000,1.000,0.004,0.000
193396.100,180439.800,506784.500,473189.000,163244.600,154687.400,144450.000,150706.600,-0.148,0.976,-0.169,-3.876,2.838,0.641,73.333,622.000,1.000,2.516,0.000
193410.200,180444.500,506751.300,473160.300,163261.300,154694.700,144460.400,150722.400,-0.148,0.973,-0.171,-3.967,2.960,0.488,73.333,623.000,1.000,2.464,0.000
193382.900,180431.000,506688.800,473098.100,163247.100,154683.800,144440.200,150699.800,-0.150,0.971,-0.171,-3.998,2.991,0.305,73.333,624.000,1.000,5.019,0.000
193365.700,180428.700,506632.800,473040.100,163233.400,154683.200,144436.800,150689.600,-0.149,0.969,-0.170,-3.937,3.052,0.122,73.333,625.000,1.000,2.450,0.000
193370.900,180428.100,506586.600,472999.400,163225.500,154675.200,144434.800,150690.500,-0.148,0.968,-0.171,-3.906,3.052,-0.031,73.333,626.000,1.000,6.306,0.000
193401.800,180439.200,506557.900,472983.800,163242.000,154674.700,144445.200,150707.300,-0.145,0.965,-0.170,-3.662,3.021,-0.153,73.333,627.000,1.000,9.274,0.000
193427.400,180457.100,506535.300,472966.900,163273.500,154702.400,144472.600,150735.600,-0.145,0.967,-0.173,-3.632,2.991,-0.183,73.333,628.000,1.000,0.011,0.000
193404.100,180447.300,506479.900,472906.400,163270.900,154707.300,144473.200,150729.400,-0.147,0.965,-0.168,-3.448,2.930,-0.183,73.333,629.000,1.000,1.897,0.000
193385.800,180446.200,506428.300,472849.600,163255.500,154700.400,144463.900,150720.200,-0.148,0.963,-0.169,-3.235,2.838,-0.122,73.333,630.000,1.000,3.782,0.000
193389.800,180451.200,506389.400,472808.200,163244.100,154695.400,144460.300,150711.800,-0.152,0.963,-0.168,-3.082,2.686,-0.183,73.333,631.000,1.000,11.773,0.000
193407.900,180452.100,506355.400,472784.800,163248.200,154696.300,144457.200,150719.400,-0.154,0.966,-0.166,-2.960,2.502,-0.305,73.333,632.000,1.000,0.023,0.000
193418.100,180455.600,506319.700,472753.600,163265.000,154705.400,144463.800,150729.400,-0.156,0.965,-0.169,-2.777,2.258,-0.275,73.333,633.000,1.000,10.042,0.000
193403.000,180460.000,506273.100,472702.000,163272.200,154717.800,144474.400,150728.600,-0.159,0.966,-0.172,-2.563,1.984,-0.183,73.333,634.000,1.000,0.013,0.000
193376.500,180449.800,506214.300,472637.800,163254.600,154703.500,144466.400,150711.700,-0.161,0.966,-0.172,-2.472,1.556,-0.305,73.333,635.000,1.000,1.852,0.000
193379.700,180440.800,506167.900,472599.300,163241.300,154688.600,144457.500,150713.300,-0.167,0.968,-0.173,-2.472,1.038,-0.427,73.333,636.000,1.000,2.514,0.000
193409.100,180447.400,506141.400,472585.000,163257.900,154696.300,144469.600,150728.100,-0.172,0.969,-0.174,-2.441,0.580,-0.488,73.333,637.000,1.000,2.530,0.000
193423.100,180452.300,506110.800,472556.300,163277.100,154709.400,144477.800,150736.400,-0.173,0.969,-0.173,-2.411,0.092,-0.671,73.333,638.000,1.000,2.505,0.000
193401.600,180447.900,506055.700,472496.900,163275.000,154706.800,144467.900,150728.200,-0.172,0.973,-0.171,-2.441,-0.519,-0.793,73.333,639.000,1.000,8.751,0.000
193379.600,180446.500,505998.300,472438.200,163261.000,154707.000,144454.700,150716.800,-0.174,0.979,-0.175,-2.502,-1.129,-0.916,73.333,640.000,1.000,3.064,0.000
193379.100,180438.100,505946.200,472394.800,163243.600,154685.200,144434.600,150707.600,-0.171,0.981,-0.173,-2.594,-1.740,-0.977,73.333,641.000,1.000,0.016,0.000
193389.700,180425.200,505897.900,472351.400,163236.200,154661.700,144422.300,150704.700,-0.166,0.980,-0.175,-2.686,-2.258,-0.946,73.333,642.000,1.000,10.658,0.000
193400.600,180433.600,505862.700,472318.500,163252.500,154675.600,144442.300,150717.700,-0.162,0.980,-0.172,-2.808,-2.655,-0.916,73.333,643.000,1.000,3.041,0.000
193384.500,180433.700,505813.800,472266.400,163254.600,154687.000,144456.500,150722.600,-0.156,0.978,-0.171,-2.808,-3.021,-0.854,73.333,644.000,1.000,0.010,0.000
193361.200,180428.300,505757.100,472211.800,163240.600,154679.500,144442.000,150708.700,-0.150,0.979,-0.169,-2.869,-3.113,-0.641,73.333,645.000,1.000,1.852,0.000
193360.800,180422.700,505712.300,472174.000,163230.000,154662.800,144432.800,150702.700,-0.143,0.978,-0.164,-2.991,-3.143,-0.366,73.333,646.000,1.000,10.095,0.000
193385.300,180429.500,505685.000,472155.300,163243.900,154671.400,144437.800,150712.700,-0.140,0.975,-0.163,-2.991,-3.174,-0.244,73.333,647.000,1.000,2.414,0.000
193403.900,180442.400,505656.500,472129.800,163267.300,154691.000,144447.300,150729.700,-0.137,0.972,-0.163,-2.960,-2.808,0.000,73.333,648.000,1.000,2.556,0.000
193389.900,180442.600,505608.900,472076.600,163270.900,154700.900,144456.500,150722.600,-0.135,0.969,-0.165,-2.960,-2.411,0.183,73.333,649.000,1.000,2.440,0.000
193370.900,180437.200,505553.800,472018.700,163254.300,154697.400,144451.200,150710.600,-0.135,0.969,-0.166,-2.838,-2.014,0.305,73.333,650.000,1.000,8.794,0.000
193375.800,180432.100,505508.100,471979.500,163237.900,154684.200,144438.600,150705.200,-0.134,0.969,-0.166,-2.686,-1.617,0.458,73.333,651.000,1.000,3.043,0.000
193404.100,180438.500,505478.800,471961.100,163250.100,154689.600,144444.200,150713.400,-0.135,0.971,-0.166,-2.502,-1.282,0.549,73.333,652.000,1.000,0.008,0.000
193411.400,180440.700,505439.200,471924.800,163261.300,154697.800,144451.500,150717.300,-0.136,0.972,-0.163,-2.350,-0.885,0.519,73.333,653.000,1.000,8.161,0.000
193391.200,180441.000,505388.400,471870.200,163262.000,154705.700,144455.400,150714.300,-0.136,0.973,-0.165,-2.258,-0.610,0.519,73.333,654.000,1.000,3.066,0.000
193373.400,180443.900,505336.800,471816.300,163251.500,154705.600,144457.000,150706.500,-0.136,0.972,-0.167,-2.136,-0.244,0.671,73.333,655.000,1.000,0.013,0.000
193372.000,180436.400,505285.800,471770.200,163236.200,154691.300,144445.400,150693.500,-0.136,0.972,-0.171,-1.984,0.122,0.549,73.333,656.000,1.000,1.900,0.000
193396.700,180437.000,505255.200,471755.700,163247.200,154690.500,144449.800,150706.300,-0.134,0.970,-0.171,-1.953,0.458,0.519,73.333,657.000,1.000,11.316,0.000
193403.300,180434.600,505216.600,471722.700,163258.400,154691.200,144454.200,150710.700,-0.136,0.969,-0.172,-1.892,0.610,0.580,73.333,658.000,1.000,3.074,0.000
193388.500,180433.800,505168.800,471668.100,163260.500,154694.700,144460.700,150706.800,-0.137,0.970,-0.174,-1.740,0.885,0.488,73.333,659.000,1.000,0.009,0.000
193368.400,180425.400,505112.800,471612.300,163241.800,154682.700,144450.000,150690.900,-0.139,0.972,-0.175,-1.678,1.099,0.458,73.333,660.000,1.000,1.870,0.000
193372.200,180418.700,505065.100,471569.700,163225.700,154663.400,144435.700,150683.600,-0.139,0.975,-0.176,-1.648,1.221,0.458,73.333,661.000,1.000,11.312,0.000
193393.100,180419.900,505029.400,471542.300,163231.000,154664.500,144431.300,150691.800,-0.141,0.979,-0.175,-1.740,1.343,0.305,73.333,662.000,1.000,5.561,0.000
193406.600,180429.500,505001.400,471517.700,163252.700,154686.500,144449.100,150710.000,-0.140,0.982,-0.173,-1.801,1.495,0.214,73.333,663.000,1.000,0.009,0.000
193401.800,180448.100,504968.800,471478.400,163271.100,154708.300,144474.200,150728.400,-0.140,0.985,-0.175,-1.923,1.526,0.031,73.333,664.000,1.000,1.795,0.000
193393.400,180459.400,504927.700,471434.200,163272.300,154719.600,144477.500,150731.200,-0.144,0.983,-0.177,-2.319,1.495,-0.122,73.333,665.000,1.000,11.298,0.000
193394.300,180454.700,504879.200,471398.200,163260.700,154706.600,144468.300,150721.100,-0.149,0.981,-0.175,-2.563,1.373,-0.092,73.333,666.000,1.000,2.591,0.000
193421.800,180461.400,504850.800,471390.500,163274.800,154711.100,144475.400,150733.700,-0.150,0.977,-0.180,-2.808,1.160,-0.244,73.333,667.000,1.000,2.577,0.000
193427.600,180465.400,504813.500,471355.900,163289.000,154723.600,144483.100,150741.600,-0.153,0.977,-0.177,-2.960,0.977,-0.305,73.333,668.000,1.000,2.374,0.000
193396.100,180448.600,504752.100,471286.400,163277.400,154718.700,144471.700,150723.300,-0.153,0.977,-0.178,-3.052,0.610,-0.458,73.333,669.000,1.000,2.446,0.000
193382.200,180454.200,504706.700,471238.500,163269.600,154726.400,144472.800,150721.200,-0.155,0.975,-0.182,-3.235,0.214,-0.610,73.333,670.000,1.000,9.337,0.000
193392.800,180462.300,504669.000,471207.600,163263.000,154717.700,144472.000,150726.100,-0.156,0.974,-0.177,-3.387,-0.244,-0.732,73.333,671.000,1.000,0.010,0.000
193418.500,180467.000,504639.800,471186.700,163275.200,154720.100,144482.700,150731.700,-0.154,0.972,-0.178,-3.510,-0.671,-0.824,73.333,672.000,1.000,3.459,0.000
193429.100,180479.300,504611.000,471154.100,163300.000,154752.400,144513.800,150743.100,-0.156,0.971,-0.177,-3.723,-1.099,-0.824,73.333,673.000,1.000,0.006,0.000
193411.800,180475.200,504559.900,471096.700,163296.400,154748.200,144498.300,150735.300,-0.158,0.968,-0.176,-3.815,-1.495,-1.038,73.333,674.000,1.000,4.759,0.000
193386.500,180464.300,504495.600,471031.500,163268.400,154726.100,144472.600,150712.700,-0.158,0.967,-0.171,-4.028,-1.801,-1.190,73.333,675.000,1.000,4.959,0.000
193390.300,180463.000,504449.700,470992.900,163255.500,154719.000,144466.100,150710.800,-0.159,0.963,-0.175,-4.181,-2.380,-1.404,73.333,676.000,1.000,3.720,0.000
193406.400,180458.100,504411.600,470970.300,163259.300,154712.300,144456.200,150718.800,-0.158,0.960,-0.171,-4.211,-2.686,-1.434,73.333,677.000,1.000,11.832,0.000
193420.000,180461.600,504379.700,470942.500,163279.700,154711.200,144453.100,150731.000,-0.156,0.959,-0.170,-4.120,-3.113,-1.526,73.333,678.000,1.000,0.015,0.000
193389.200,180445.600,504318.600,470879.200,163266.600,154697.700,144449.800,150720.100,-0.153,0.958,-0.172,-4.028,-3.296,-1.587,73.333,679.000,1.000,5.632,0.000
193360.400,180431.800,504255.800,470821.700,163242.900,154686.500,144444.200,150707.500,-0.150,0.959,-0.174,-3.754,-3.601,-1.465,73.333,680.000,1.000,2.453,0.000
193361.500,180425.500,504207.200,470784.000,163227.500,154678.600,144437.100,150704.900,-0.146,0.961,-0.171,-3.601,-3.876,-1.495,73.333,681.000,1.000,2.624,0.000
193390.600,180436.800,504181.500,470770.200,163242.400,154689.200,144440.900,150716.700,-0.143,0.964,-0.171,-3.357,-3.967,-1.373,73.333,682.000,1.000,2.473,0.000
193402.300,180444.800,504153.000,470741.500,163263.800,154709.500,144456.400,150728.100,-0.141,0.969,-0.171,-3.265,-3.876,-1.099,73.333,683.000,1.000,3.700,0.000
193386.200,180449.100,504109.600,470683.600,163270.400,154723.200,144468.400,150726.800,-0.138,0.971,-0.173,-3.174,-3.815,-0.977,73.333,684.000,1.000,8.809,0.000
193366.900,180447.900,504056.700,470626.700,163255.600,154721.900,144466.000,150718.200,-0.138,0.974,-0.170,-3.113,-3.693,-0.854,73.333,685.000,1.000,3.105,0.000
193368.600,180441.700,504007.700,470584.900,163239.600,154704.200,144453.900,150710.800,-0.136,0.973,-0.175,-3.143,-3.448,-0.641,73.333,686.000,1.000,0.008,0.000
193393.200,180444.700,503976.500,470565.100,163246.900,154704.500,144452.500,150717.900,-0.136,0.977,-0.174,-3.052,-3.082,-0.458,73.333,687.000,1.000,8.143,0.000
193406.900,180451.600,503949.400,470541.900,163265.300,154711.900,144462.400,150724.600,-0.135,0.977,-0.173,-3.052,-2.808,-0.336,73.333,688.000,1.000,3.078,0.000
193397.500,180457.200,503908.300,470495.800,163272.200,154720.700,144472.800,150729.300,-0.135,0.979,-0.172,-2.960,-2.411,-0.153,73.333,689.000,1.000,0.009,0.000
193375.000,180450.600,503852.300,470436.900,163255.500,154712.300,144465.000,150716.000,-0.136,0.981,-0.173,-3.082,-2.045,0.183,73.333,690.000,1.000,1.868,0.000
193369.300,180440.000,503797.800,470392.800,163235.600,154693.000,144443.200,150701.600,-0.137,0.982,-0.171,-3.143,-1.526,0.366,73.333,691.000,1.000,13.797,0.000
193397.600,180448.600,503769.500,470377.600,163248.800,154694.600,144444.700,150715.300,-0.136,0.984,-0.170,-3.235,-1.068,0.580,73.333,692.000,1.000,3.040,0.000
193413.100,180455.100,503739.100,470350.300,163272.000,154712.900,144464.200,150729.900,-0.135,0.986,-0.169,-3.387,-0.702,0.763,73.333,693.000,1.000,0.010,0.000
193402.000,180469.300,503699.500,470303.800,163280.800,154725.400,144481.100,150736.400,-0.134,0.986,-0.172,-3.510,-0.275,0.946,73.333,694.000,1.000,4.383,0.000
193374.500,180458.900,503639.100,470239.100,163257.200,154711.900,144463.500,150716.800,-0.138,0.984,-0.168,-3.693,0.153,1.190,73.333,695.000,1.000,2.510,0.000
193373.300,180435.600,503587.300,470196.200,163237.900,154698.500,144445.200,150701.500,-0.140,0.982,-0.169,-4.089,0.488,1.495,73.333,696.000,1.000,2.462,0.000
193395.400,180442.600,503557.800,470172.800,163245.300,154698.800,144444.800,150705.000,-0.142,0.980,-0.170,-4.120,0.610,1.740,73.333,697.000,1.000,6.313,0.000
193405.100,180446.200,503528.700,470144.300,163260.100,154710.600,144455.700,150713.600,-0.144,0.977,-0.171,-4.272,0.916,1.831,73.333,698.000,1.000,12.525,0.000
193390.100,180441.900,503482.100,470095.300,163258.700,154703.900,144457.400,150718.600,-0.145,0.978,-0.170,-4.395,1.160,1.923,73.333,699.000,1.000,8.072,0.000
193361.500,180429.000,503421.100,470029.200,163230.400,154678.200,144439.800,150694.700,-0.149,0.978,-0.169,-4.486,1.282,1.862,73.333,700.000,1.000,0.018,0.000
193366.900,180431.900,503381.100,469994.500,163220.100,154677.700,144429.600,150686.300,-0.150,0.977,-0.167,-4.578,1.190,1.831,73.333,701.000,1.000,1.874,0.000
193399.600,180446.300,503361.800,469985.600,163240.200,154691.900,144438.700,150698.500,-0.154,0.974,-0.168,-4.608,1.312,1.923,73.333,702.000,1.000,2.510,0.000
193415.400,180460.200,503336.900,469957.300,163262.300,154704.100,144455.200,150716.300,-0.157,0.972,-0.169,-4.791,1.160,1.862,73.333,703.000,1.000,2.498,0.000
193404.600,180466.500,503298.500,469910.000,163273.100,154721.500,144476.900,150727.300,-0.155,0.968,-0.167,-4.852,1.038,1.892,73.333,704.000,1.000,2.449,0.000
193383.500,180456.300,503244.100,469855.300,163259.700,154723.200,144480.000,150717.000,-0.152,0.969,-0.167,-4.852,0.916,1.648,73.333,705.000,1.000,3.740,0.000
193383.800,180455.000,503197.200,469810.700,163240.600,154698.100,144432.800,150705.400,-0.152,0.972,-0.162,-4.730,1.007,1.282,73.333,706.000,1.000,6.912,0.000
193405.600,180457.400,503168.600,469791.000,163251.800,154691.900,144425.000,150709.600,-0.152,0.974,-0.161,-4.700,0.977,1.129,73.333,707.000,1.000,0.009,0.000
193412.200,180454.800,503135.000,469758.700,163267.500,154697.000,144438.000,150718.800,-0.150,0.973,-0.163,-4.639,0.946,0.885,73.333,708.000,1.000,8.145,0.000
193390.300,180453.800,503086.200,469700.800,163266.400,154706.400,144449.100,150725.400,-0.148,0.973,-0.163,-4.547,0.885,0.641,73.333,709.000,1.000,5.670,0.000
193365.500,180440.600,503029.800,469643.100,163246.000,154694.900,144444.800,150710.800,-0.147,0.973,-0.164,-4.333,0.702,0.488,73.333,710.000,1.000,0.020,0.000
193380.500,180447.500,502997.200,469619.400,163248.400,154697.600,144448.000,150714.000,-0.147,0.972,-0.161,-4.242,0.580,0.397,73.333,711.000,1.000,24.347,0.000
193407.100,180459.700,502973.300,469604.000,163266.900,154711.300,144454.400,150726.400,-0.147,0.973,-0.160,-4.028,0.397,0.244,73.333,712.000,1.000,2.457,0.000
193419.000,180465.600,502946.300,469576.600,163286.000,154723.500,144465.600,150736.100,-0.148,0.974,-0.160,-3.876,0.214,0.122,73.333,713.000,1.000,2.505,0.000
193406.300,180467.800,502904.100,469527.500,163290.100,154731.700,144471.900,150735.800,-0.148,0.971,-0.158,-3.784,0.031,0.122,73.333,714.000,1.000,2.511,0.000
193391.500,180467.800,502858.300,469478.800,163280.700,154727.600,144466.600,150732.400,-0.148,0.971,-0.162,-3.601,-0.122,0.061,73.333,715.000,1.000,2.470,0.000
193390.100,180453.200,502810.600,469434.900,163261.700,154710.400,144453.800,150725.300,-0.148,0.968,-0.165,-3.479,-0.214,0.000,73.333,716.000,1.000,2.499,0.000
193411.700,180458.500,502777.600,469413.800,163266.800,154706.600,144454.100,150730.500,-0.149,0.969,-0.165,-3.235,-0.427,-0.031,73.333,717.000,1.000,3.037,0.000
193415.300,180452.300,502741.300,469382.000,163276.800,154706.400,144460.900,150738.200,-0.146,0.969,-0.166,-3.174,-0.519,0.031,73.333,718.000,1.000,0.011,0.000
193398.800,180455.300,502699.600,469335.000,163283.500,154720.000,144465.200,150733.300,-0.144,0.968,-0.167,-2.930,-0.702,-0.122,73.333,719.000,1.000,1.930,0.000
193390.300,180457.900,502659.100,469292.600,163282.300,154725.700,144468.800,150740.600,-0.142,0.970,-0.166,-2.716,-0.732,-0.214,73.333,720.000,1.000,4.986,0.000
193415.300,180480.900,502638.400,469275.700,163291.300,154739.900,144486.800,150753.800,-0.141,0.972,-0.163,-2.716,-0.763,-0.122,73.333,721.000,1.000,5.678,0.000
193428.500,180474.800,502595.200,469238.100,163286.200,154732.000,144482.400,150743.800,-0.139,0.972,-0.163,-2.716,-0.702,-0.153,73.333,722.000,1.000,0.009,0.000
193424.100,180468.500,502547.600,469190.000,163282.500,154716.000,144469.900,150739.400,-0.140,0.972,-0.167,-2.716,-0.732,-0.183,73.333,723.000,1.000,1.848,0.000
193403.300,180457.900,502501.300,469135.600,163282.500,154718.100,144463.400,150735.000,-0.140,0.973,-0.166,-2.808,-0.641,-0.275,73.333,724.000,1.000,2.488,0.000
193383.500,180444.900,502450.700,469082.500,163265.300,154715.000,144460.800,150715.900,-0.136,0.970,-0.167,-2.838,-0.458,-0.305,73.333,725.000,1.000,7.481,0.000
193386.700,180444.200,502404.800,469047.000,163246.000,154695.700,144444.500,150706.900,-0.133,0.970,-0.166,-2.747,-0.183,-0.336,73.333,726.000,1.000,3.134,0.000
193414.400,180444.800,502378.600,469026.900,163262.800,154701.400,144447.300,150720.000,-0.129,0.970,-0.166,-2.655,0.183,-0.427,73.333,727.000,1.000,0.006,0.000
193429.700,180456.900,502351.900,468999.600,163282.400,154715.900,144455.200,150726.400,-0.129,0.969,-0.168,-2.563,0.519,-0.488,73.333,728.000,1.000,1.930,0.000
193416.500,180467.300,502311.000,468948.200,163287.700,154728.500,144461.600,150723.700,-0.129,0.969,-0.167,-2.533,1.007,-0.458,73.333,729.000,1.000,4.979,0.000
193385.700,180450.200,502246.500,468877.100,163258.300,154699.100,144440.600,150696.200,-0.131,0.970,-0.167,-2.563,1.434,-0.458,73.333,730.000,1.000,4.321,0.000
193389.200,180439.700,502200.700,468840.000,163241.700,154683.100,144429.600,150683.800,-0.134,0.971,-0.166,-2.502,1.831,-0.488,73.333,731.000,1.000,0.005,0.000
193415.600,180445.700,502177.800,468830.500,163254.600,154689.200,144439.000,150698.700,-0.137,0.972,-0.167,-2.502,2.258,-0.488,73.333,732.000,1.000,10.630,0.000
193430.500,180460.700,502154.600,468812.000,163277.200,154708.400,144459.000,150715.800,-0.141,0.974,-0.167,-2.441,2.563,-0.397,73.333,733.000,1.000,4.332,0.000
193428.500,180469.000,502125.800,468776.100,163296.800,154736.400,144485.400,150732.000,-0.144,0.975,-0.169,-2.350,2.838,-0.458,73.333,734.000,1.000,0.009,0.000
193419.800,180480.700,502084.700,468732.400,163291.500,154740.700,144490.700,150734.400,-0.144,0.975,-0.163,-2.411,3.052,-0.488,73.333,735.000,1.000,3.726,0.000
193432.800,180486.900,502050.900,468709.200,163285.200,154735.200,144486.400,150736.300,-0.147,0.979,-0.164,-2.441,3.052,-0.610,73.333,736.000,1.000,0.007,0.000
193452.500,180482.600,502017.900,468687.400,163290.900,154732.700,144482.800,150747.700,-0.147,0.979,-0.164,-2.380,3.143,-0.671,73.333,737.000,1.000,15.604,0.000
193448.100,180479.300,501977.600,468644.400,163298.500,154739.300,144482.000,150743.100,-0.149,0.981,-0.163,-2.441,3.143,-0.824,73.333,738.000,1.000,3.186,0.000
193430.800,180476.800,501934.200,468591.700,163300.100,154744.100,144484.000,150732.000,-0.151,0.982,-0.165,-2.563,3.021,-0.793,73.333,739.000,1.000,0.006,0.000
193410.200,180479.400,501883.200,468535.000,163283.200,154729.300,144473.100,150722.600,-0.155,0.981,-0.163,-2.777,2.930,-0.763,73.333,740.000,1.000,2.419,0.000
193432.200,180491.700,501858.200,468523.300,163287.800,154731.000,144482.100,150737.800,-0.155,0.982,-0.164,-2.991,2.747,-0.763,73.333,741.000,1.000,0.005,0.000
193450.700,180477.300,501824.700,468503.700,163290.600,154718.400,144478.000,150739.500,-0.159,0.979,-0.170,-2.930,2.441,-0.793,73.333,742.000,1.000,15.700,0.000
193463.800,180486.200,501799.600,468477.700,163313.200,154740.000,144496.400,150756.800,-0.161,0.979,-0.170,-3.021,2.075,-0.732,73.333,743.000,1.000,3.664,0.000
193444.300,180490.000,501751.000,468427.700,163308.600,154741.800,144495.000,150753.800,-0.163,0.977,-0.167,-3.143,1.709,-0.671,73.333,744.000,1.000,0.015,0.000
