EEG 1, EEG 2, EEG 3, EEG 4, EEG 5, EEG 6, EEG 7, EEG 8, ACC X, ACC Y, ACC Z, GYR X, GYR Y, GYR Z, BAT, CNT, VALID, DT, TRIG
136578.600,136578.600,25475.440,118972.500,136578.600,136578.600,136578.600,136578.600,-0.142,0.961,-0.154,0.000,0.000,0.000,73.333,1.000,1.000,0.000,0.000
469382.100,469382.100,97399.690,391127.200,417498.300,452046.200,469382.100,469382.100,-0.140,0.972,-0.164,0.000,0.000,0.000,73.333,2.000,1.000,13.104,0.000
691089.500,731059.300,198368.700,589284.700,445878.700,606975.700,731059.300,712188.100,-0.138,0.969,-0.170,0.000,0.000,0.000,73.333,3.000,1.000,9.947,0.000
653010.400,801568.300,346307.200,661015.000,132325.500,474008.200,801568.300,728422.000,-0.141,0.976,-0.169,0.000,0.000,0.000,73.333,4.000,1.000,4.990,0.000
566445.400,795616.100,516953.900,727690.800,-169910.900,330454.900,814894.100,697511.500,-0.137,0.977,-0.176,-4.883,5.768,-5.859,73.333,5.000,1.000,2.479,0.000
497914.900,681407.300,601538.200,765540.600,-418382.900,302164.800,797996.100,696271.400,-0.138,0.983,-0.176,-5.402,5.615,-4.486,73.333,6.000,1.000,5.013,0.000
383534.100,422207.400,613977.600,736882.000,-706592.100,328930.200,731418.800,678713.300,-0.142,0.988,-0.176,-3.967,3.479,-2.014,73.333,7.000,1.000,2.517,0.000
384269.700,279228.300,656438.700,718697.600,-672850.500,414067.300,695083.400,680692.400,-0.141,0.986,-0.175,-3.754,2.533,-1.312,73.333,8.000,1.000,2.458,0.000
587485.500,436626.800,713733.100,743122.300,-90235.120,578299.300,725707.700,735099.300,-0.148,0.989,-0.169,-3.662,2.045,-1.038,73.333,9.000,1.000,2.526,0.000
776447.100,674907.700,736189.000,771805.700,560027.900,755090.900,775234.200,795034.600,-0.147,0.985,-0.170,-3.937,1.678,-1.099,73.333,10.000,1.000,7.501,0.000
810622.300,777549.900,748394.800,765393.800,831715.800,808979.300,781121.700,791855.200,-0.148,0.981,-0.169,-4.059,1.526,-1.160,73.333,11.000,1.000,2.514,0.000
754164.100,776695.900,762142.800,722290.300,838175.600,728093.800,727119.200,719792.400,-0.147,0.979,-0.172,-4.150,1.190,-1.099,73.333,12.000,1.000,3.052,0.000
711953.800,760310.800,758557.100,706935.800,811995.400,682257.100,693304.600,680145.700,-0.141,0.974,-0.174,-4.395,0.977,-1.312,73.333,13.000,1.000,0.011,0.000
714149.600,730810.500,735112.200,729323.000,768323.300,731571.600,706235.100,712958.100,-0.145,0.974,-0.173,-4.150,0.702,-1.251,73.333,14.000,1.000,1.914,0.000
743222.600,710375.300,716632.800,752734.600,701157.600,764370.300,703582.700,738785.300,-0.142,0.966,-0.172,-4.242,0.366,-1.251,73.333,15.000,1.000,13.744,0.000
745198.200,700259.900,725934.200,747141.200,646979.900,686874.900,628245.100,668438.100,-0.140,0.959,-0.172,-4.303,0.214,-1.190,73.333,16.000,1.000,7.494,0.000
674305.400,651104.400,743604.300,712986.800,601422.500,527332.800,493859.100,518283.600,-0.139,0.955,-0.174,-4.059,0.122,-1.160,73.333,17.000,1.000,0.015,0.000
571808.200,568002.400,743002.400,700353.300,548086.200,412991.000,384974.200,400194.300,-0.130,0.950,-0.178,-3.998,0.061,-1.160,73.333,18.000,1.000,0.007,0.000
485736.300,462950.700,723563.600,716671.400,447902.700,379755.400,333119.300,353726.100,-0.128,0.955,-0.181,-3.510,0.244,-0.977,73.333,19.000,1.000,2.337,0.000
428199.800,370436.100,707728.300,733779.000,334340.200,360140.800,311526.600,336515.400,-0.128,0.962,-0.179,-3.174,0.366,-0.763,73.333,20.000,1.000,8.900,0.000
377863.400,320760.800,714057.900,729120.300,284276.400,313228.700,283039.000,301603.500,-0.129,0.962,-0.177,-2.960,0.458,-0.641,73.333,21.000,1.000,2.481,0.000
325324.300,305178.700,727289.900,703228.900,293784.800,244255.400,231939.800,240332.900,-0.129,0.964,-0.178,-2.838,0.610,-0.458,73.333,22.000,1.000,2.538,0.000
296088.300,303098.300,726471.300,693115.500,311388.700,211709.900,196836.100,202897.900,-0.135,0.968,-0.179,-2.686,0.793,-0.336,73.333,23.000,1.000,5.558,0.000
290001.800,280745.300,711121.400,704144.600,282068.900,228831.800,195408.700,208514.100,-0.135,0.971,-0.180,-2.594,0.977,-0.153,73.333,24.000,1.000,0.008,0.000
294369.400,252937.900,698418.600,715770.200,231066.800,247135.900,210034.500,227952.400,-0.138,0.971,-0.180,-2.441,1.160,-0.122,73.333,25.000,1.000,4.397,0.000
291233.900,246243.300,702332.900,711880.600,221566.800,239327.500,214228.600,228529.400,-0.140,0.972,-0.180,-2.411,1.251,0.122,73.333,26.000,1.000,2.443,0.000
272841.400,253987.900,711558.900,693024.300,247829.700,206022.400,192673.900,200344.300,-0.143,0.976,-0.181,-2.411,1.373,0.183,73.333,27.000,1.000,2.528,0.000
257277.100,258862.800,710453.000,685083.200,266993.100,186976.900,171300.200,177558.900,-0.146,0.981,-0.182,-2.502,1.404,0.244,73.333,28.000,1.000,8.776,0.000
250542.200,240956.800,698645.400,691689.100,242891.000,196734.100,168018.800,179232.400,-0.145,0.982,-0.183,-2.655,1.343,0.244,73.333,29.000,1.000,12.444,0.000
250957.600,217974.600,688685.100,698723.900,202334.400,207295.800,176355.400,190854.300,-0.141,0.981,-0.184,-2.686,1.251,0.275,73.333,30.000,1.000,0.019,0.000
248603.300,212409.600,690569.900,695448.200,195368.100,202277.600,179661.100,191691.500,-0.135,0.979,-0.181,-2.808,1.373,0.336,73.333,31.000,1.000,0.011,0.000
237446.000,219554.900,696368.400,682390.900,216757.400,181118.400,166232.500,173821.300,-0.131,0.979,-0.178,-2.777,1.526,0.214,73.333,32.000,1.000,3.083,0.000
227317.000,224198.000,694988.400,676264.300,231515.000,168196.100,151603.000,158262.300,-0.128,0.980,-0.175,-2.930,1.740,0.305,73.333,33.000,1.000,0.010,0.000
221218.000,210961.400,686159.300,679293.300,212936.700,172804.100,147760.000,157633.600,-0.126,0.979,-0.174,-3.021,2.075,0.275,73.333,34.000,1.000,1.926,0.000
219583.500,193278.600,678518.400,682256.200,182531.800,178011.200,151899.400,163809.000,-0.128,0.976,-0.170,-3.174,2.411,0.549,73.333,35.000,1.000,13.797,0.000
217537.200,188480.400,678751.000,676524.300,177435.000,174934.900,154180.000,164521.800,-0.129,0.972,-0.169,-3.326,2.716,0.641,73.333,36.000,1.000,4.310,0.000
211311.300,194143.800,681709.800,660413.300,193665.500,162821.200,146612.400,154245.100,-0.131,0.972,-0.168,-3.418,2.991,0.610,73.333,37.000,1.000,0.017,0.000
204986.200,197860.100,680079.300,645018.700,204100.700,154462.900,137095.900,144153.300,-0.133,0.969,-0.173,-3.357,3.235,0.397,73.333,38.000,1.000,8.750,0.000
199292.700,188252.300,673676.400,634238.800,190069.400,154956.300,132805.900,141659.700,-0.138,0.970,-0.173,-3.448,3.357,0.366,73.333,39.000,1.000,0.016,0.000
195973.800,174907.000,667938.300,624136.100,168098.500,155871.400,133524.300,143419.300,-0.141,0.970,-0.174,-3.326,3.387,0.275,73.333,40.000,1.000,6.194,0.000
193961.000,170633.900,666681.300,612144.700,164345.000,154093.700,134761.900,143799.000,-0.146,0.975,-0.172,-3.235,3.387,0.031,73.333,41.000,1.000,0.011,0.000
191250.600,174712.100,665265.600,599170.300,175882.500,148760.400,131525.800,139203.700,-0.148,0.976,-0.171,-3.235,3.387,-0.214,73.333,42.000,1.000,2.478,0.000
187631.300,177304.600,657540.800,588371.900,182475.100,143798.900,125875.400,133249.000,-0.150,0.979,-0.172,-3.204,3.174,-0.458,73.333,43.000,1.000,0.011,0.000
182254.600,170490.600,644642.100,579124.900,172139.300,141153.500,121302.200,129373.300,-0.151,0.980,-0.175,-3.357,3.021,-0.580,73.333,44.000,1.000,13.121,0.000
177693.200,160669.400,631712.100,569689.100,157047.000,138815.500,119421.900,127762.700,-0.148,0.984,-0.173,-3.326,2.808,-0.671,73.333,45.000,1.000,11.257,0.000
175602.200,156809.200,621310.100,560318.900,154268.200,137876.700,119713.100,127721.900,-0.146,0.987,-0.173,-3.235,2.563,-0.885,73.333,46.000,1.000,0.019,0.000
175343.100,159425.100,612558.300,552062.600,161782.600,137475.100,119572.000,127235.900,-0.143,0.987,-0.171,-3.326,2.350,-0.885,73.333,47.000,1.000,0.007,0.000
173674.800,160964.000,603959.400,544063.000,165210.300,135067.900,116826.200,124394.900,-0.145,0.990,-0.168,-3.571,1.984,-0.854,73.333,48.000,1.000,2.559,0.000
168654.400,156323.000,595032.400,535241.700,157871.000,130245.900,112167.800,119629.200,-0.148,0.986,-0.171,-3.784,1.678,-0.763,73.333,49.000,1.000,2.387,0.000
163299.200,149332.000,585997.900,526150.400,148250.500,125605.700,108418.700,115590.900,-0.149,0.978,-0.168,-4.028,1.434,-0.793,73.333,50.000,1.000,5.016,0.000
161087.800,145800.400,577050.300,518718.700,146150.300,125141.700,107877.700,115090.100,-0.150,0.977,-0.169,-4.059,1.068,-0.641,73.333,51.000,1.000,2.565,0.000
162397.900,147098.700,568787.600,513825.300,150308.200,128080.100,109785.600,117371.400,-0.150,0.974,-0.169,-3.998,0.641,-0.641,73.333,52.000,1.000,2.453,0.000
162081.100,147712.200,561610.800,507849.000,151243.900,127514.600,109163.000,116799.600,-0.152,0.973,-0.169,-3.967,0.244,-0.732,73.333,53.000,1.000,3.762,0.000
157494.300,144760.500,555188.100,499448.700,146321.800,121371.400,104658.700,111620.700,-0.150,0.972,-0.165,-3.845,-0.122,-0.732,73.333,54.000,1.000,6.230,0.000
151760.200,140033.800,548461.100,490731.000,140956.400,115278.400,99725.650,106019.000,-0.150,0.970,-0.162,-3.784,-0.488,-0.854,73.333,55.000,1.000,9.375,0.000
149476.200,136835.800,540533.400,484728.100,139366.500,115081.000,98548.740,105145.100,-0.150,0.968,-0.165,-3.601,-0.977,-0.854,73.333,56.000,1.000,0.009,0.000
151691.500,137020.100,532747.400,482122.800,140849.200,120105.300,101686.900,109141.200,-0.150,0.968,-0.164,-3.510,-1.404,-0.763,73.333,57.000,1.000,4.942,0.000
152210.700,136817.000,526628.800,477555.100,139860.700,120750.700,102464.600,110076.600,-0.149,0.964,-0.167,-3.296,-1.678,-0.641,73.333,58.000,1.000,0.007,0.000
148093.000,135129.300,522003.600,469627.500,136818.900,113944.400,98242.830,104834.900,-0.147,0.958,-0.166,-3.082,-2.075,-0.641,73.333,59.000,1.000,1.962,0.000
142323.000,132177.800,516968.300,461376.900,134666.300,107099.300,92698.660,98392.430,-0.144,0.960,-0.165,-2.716,-2.319,-0.549,73.333,60.000,1.000,2.533,0.000
140024.800,129315.900,509890.900,456432.700,133462.900,107028.000,91083.640,97237.450,-0.144,0.961,-0.163,-2.350,-2.594,-0.610,73.333,61.000,1.000,3.663,0.000
142693.500,128657.100,502589.100,455339.100,132946.800,113205.900,94882.410,102182.600,-0.141,0.969,-0.163,-2.045,-2.808,-0.702,73.333,62.000,1.000,14.338,0.000
143710.000,127834.000,497272.100,451778.300,130599.100,114633.300,96576.770,104087.400,-0.137,0.974,-0.165,-1.862,-2.808,-0.763,73.333,63.000,1.000,0.014,0.000
140055.500,127035.800,493868.900,444359.700,128949.000,107667.200,92729.780,99006.870,-0.134,0.981,-0.167,-1.801,-2.869,-0.732,73.333,64.000,1.000,1.817,0.000
134479.800,125396.900,490023.200,436631.600,129080.800,100580.900,86981.650,92227.660,-0.129,0.979,-0.167,-1.831,-2.838,-0.732,73.333,65.000,1.000,2.628,0.000
132228.300,122866.200,483688.500,432477.600,128165.700,100543.400,85088.870,90871.440,-0.126,0.973,-0.164,-1.740,-2.747,-0.641,73.333,66.000,1.000,6.135,0.000
135018.500,121605.400,476903.900,432308.600,126240.200,107164.000,89106.340,96180.020,-0.124,0.966,-0.165,-1.709,-2.441,-0.488,73.333,67.000,1.000,2.514,0.000
136281.400,120338.500,472230.600,429463.200,123017.600,109019.700,91314.630,98636.080,-0.120,0.969,-0.171,-1.678,-2.045,-0.336,73.333,68.000,1.000,9.403,0.000
133088.600,120143.600,469661.700,422614.600,122374.600,102263.300,87895.230,93907.730,-0.118,0.971,-0.171,-1.373,-1.587,-0.122,73.333,69.000,1.000,0.019,0.000
127865.700,119438.400,466640.700,415463.600,124032.800,95317.490,82252.730,87203.410,-0.115,0.973,-0.174,-1.343,-1.129,-0.031,73.333,70.000,1.000,1.857,0.000
125684.800,117202.300,460944.200,411882.700,123304.100,95220.480,80198.480,85717.700,-0.118,0.978,-0.169,-1.282,-0.641,0.305,73.333,71.000,1.000,2.502,0.000
128333.800,115509.400,454660.600,412173.200,120422.800,101724.500,84086.590,90930.880,-0.120,0.979,-0.170,-1.373,-0.275,0.336,73.333,72.000,1.000,25.068,0.000
129639.900,113938.600,450474.700,409797.000,116689.700,103738.600,86483.820,93584.910,-0.121,0.980,-0.170,-1.556,0.336,0.366,73.333,73.000,1.000,2.400,0.000
126907.000,114149.200,448449.200,403557.600,116753.600,97475.660,83520.330,89323.480,-0.123,0.981,-0.170,-1.617,0.824,0.549,73.333,74.000,1.000,2.505,0.000
122188.800,114122.600,446019.400,397054.100,119382.700,90980.660,78233.910,83002.320,-0.122,0.981,-0.170,-1.892,1.251,0.641,73.333,75.000,1.000,2.529,0.000
120142.000,112194.800,440923.000,393926.200,118805.000,90819.450,76150.380,81470.220,-0.127,0.986,-0.172,-2.045,1.831,0.885,73.333,76.000,1.000,2.500,0.000
122490.500,110239.200,435152.300,394366.000,115357.400,96860.300,79702.640,86291.750,-0.128,0.985,-0.174,-2.411,1.984,0.793,73.333,77.000,1.000,2.472,0.000
123700.500,108478.800,431359.200,392291.800,111407.400,98839.650,82072.670,88904.320,-0.129,0.983,-0.177,-2.777,2.472,0.671,73.333,78.000,1.000,2.566,0.000
121397.000,108919.800,429666.200,386672.100,111920.300,93222.170,79566.540,85176.580,-0.128,0.983,-0.173,-2.777,2.747,0.702,73.333,79.000,1.000,7.454,0.000
117237.300,109326.600,427624.000,380819.900,115047.600,87345.040,74778.980,79431.520,-0.128,0.982,-0.176,-3.082,3.143,0.366,73.333,80.000,1.000,2.494,0.000
115360.100,107689.200,423077.600,378045.600,114591.200,87120.390,72766.140,77931.530,-0.129,0.986,-0.176,-3.265,3.510,0.305,73.333,81.000,1.000,2.503,0.000
117357.200,105636.500,417845.700,378459.400,110929.500,92511.040,75891.310,82225.610,-0.131,0.988,-0.180,-3.448,3.662,0.183,73.333,82.000,1.000,3.035,0.000
118392.200,103791.400,414374.100,376573.300,106995.900,94327.320,78083.730,84648.300,-0.132,0.986,-0.182,-3.906,3.784,0.122,73.333,83.000,1.000,0.007,0.000
116435.500,104297.700,412824.000,371522.100,107723.700,89399.680,75969.120,81437.510,-0.136,0.987,-0.175,-4.120,3.815,0.000,73.333,84.000,1.000,1.917,0.000
112804.300,104915.200,410986.600,366268.200,110965.200,84204.060,71724.050,76334.300,-0.135,0.980,-0.177,-4.578,3.906,-0.092,73.333,85.000,1.000,2.582,0.000
111062.700,103504.100,406894.300,363723.600,110555.400,83883.610,69808.610,74865.040,-0.135,0.978,-0.180,-4.761,4.150,-0.244,73.333,86.000,1.000,11.746,0.000
112642.500,101439.400,402158.800,363952.200,106882.600,88484.440,72416.820,78501.700,-0.140,0.979,-0.177,-4.761,4.089,-0.397,73.333,87.000,1.000,0.008,0.000
113491.500,99622.170,398983.700,362207.500,103152.800,90086.270,74364.690,80651.120,-0.143,0.973,-0.177,-5.035,3.967,-0.519,73.333,88.000,1.000,1.898,0.000
111918.700,100175.300,397544.600,357777.200,104020.500,85939.380,72682.070,78008.530,-0.150,0.973,-0.180,-5.066,3.723,-0.488,73.333,89.000,1.000,2.598,0.000
108877.700,100929.000,395874.300,353165.700,107193.000,81518.260,69071.110,73650.520,-0.155,0.973,-0.175,-5.096,3.326,-0.549,73.333,90.000,1.000,2.449,0.000
107316.600,99744.800,392212.900,350822.600,106830.700,81132.040,67311.920,72267.170,-0.157,0.972,-0.176,-5.127,2.930,-0.641,73.333,91.000,1.000,6.307,0.000
108487.800,97752.050,387952.900,350788.800,103316.900,84905.310,69394.620,75224.410,-0.159,0.972,-0.173,-5.096,2.258,-0.671,73.333,92.000,1.000,3.061,0.000
109110.900,96004.270,385020.100,349105.400,99884.660,86235.590,71039.150,77040.660,-0.156,0.969,-0.173,-5.157,1.617,-0.671,73.333,93.000,1.000,0.009,0.000
107803.700,96480.050,383570.800,345186.600,100728.700,82787.350,69680.910,74871.170,-0.156,0.967,-0.170,-5.066,1.068,-0.610,73.333,94.000,1.000,1.917,0.000
105227.300,97186.290,381920.100,341086.300,103586.400,79044.380,66606.550,71167.770,-0.159,0.968,-0.164,-4.791,0.549,-0.549,73.333,95.000,1.000,13.768,0.000
103807.300,96159.280,378604.600,338866.400,103218.200,78570.200,64989.570,69858.380,-0.156,0.966,-0.167,-4.730,0.061,-0.641,73.333,96.000,1.000,2.991,0.000
104601.000,94288.730,374785.400,338550.900,99974.630,81539.760,66567.470,72159.280,-0.158,0.966,-0.167,-4.486,-0.458,-0.580,73.333,97.000,1.000,0.010,0.000
104988.700,92632.880,372039.200,336882.000,96881.270,82567.560,67866.520,73600.180,-0.157,0.966,-0.168,-4.242,-0.977,-0.397,73.333,98.000,1.000,4.440,0.000
103894.600,92988.690,370525.000,333410.600,97618.060,79760.660,66773.320,71839.890,-0.155,0.965,-0.173,-4.181,-1.556,-0.275,73.333,99.000,1.000,6.238,0.000
101778.500,93629.370,368890.500,329816.200,100108.700,76707.550,64256.180,68810.820,-0.156,0.965,-0.169,-3.815,-2.075,-0.061,73.333,100.000,1.000,2.558,0.000
100541.200,92786.230,365926.800,327752.000,99778.840,76218.680,62854.070,67658.050,-0.153,0.964,-0.167,-3.601,-2.594,0.031,73.333,101.000,1.000,2.470,0.000
101012.600,91097.730,362534.800,327185.900,96896.660,78466.510,63999.830,69384.990,-0.153,0.958,-0.167,-3.265,-3.113,0.214,73.333,102.000,1.000,3.699,0.000
101193.900,89582.280,359973.700,325536.900,94192.890,79219.780,64984.550,70485.590,-0.152,0.962,-0.166,-2.655,-3.418,0.244,73.333,103.000,1.000,3.727,0.000
100292.300,89819.400,358402.000,322483.700,94799.070,76991.910,64123.770,69100.440,-0.148,0.963,-0.166,-2.411,-3.937,0.214,73.333,104.000,1.000,14.419,0.000
98584.050,90346.140,356754.200,319331.300,96864.650,74540.290,62098.980,66667.930,-0.145,0.972,-0.166,-2.136,-4.150,0.336,73.333,105.000,1.000,0.015,0.000
97490.210,89619.710,354055.400,317351.700,96522.430,74009.410,60873.430,65620.090,-0.139,0.975,-0.160,-1.709,-4.517,0.488,73.333,106.000,1.000,4.413,0.000
97653.790,88080.570,350997.200,316501.200,93985.020,75574.270,61602.690,66787.450,-0.128,0.975,-0.161,-1.740,-4.578,0.458,73.333,107.000,1.000,2.446,0.000
97644.440,86696.020,348581.800,314839.400,91657.230,76057.380,62283.520,67547.330,-0.128,0.977,-0.162,-1.617,-4.333,0.610,73.333,108.000,1.000,2.485,0.000
96905.980,86819.050,346959.000,312149.900,92125.590,74348.700,61626.300,66477.200,-0.125,0.974,-0.159,-1.587,-4.242,0.641,73.333,109.000,1.000,2.449,0.000
95552.450,87230.080,345302.400,309391.300,93779.030,72453.550,60048.500,64583.060,-0.121,0.971,-0.161,-1.526,-3.845,0.519,73.333,110.000,1.000,3.862,0.000
94594.170,86617.900,342848.800,307499.800,93440.120,71915.050,58998.140,63660.360,-0.125,0.973,-0.160,-1.190,-3.448,0.519,73.333,111.000,1.000,4.245,0.000
94509.880,85261.300,340103.100,306421.600,91266.200,72908.480,59383.690,64367.640,-0.122,0.972,-0.163,-1.099,-3.235,0.305,73.333,112.000,1.000,0.006,0.000
94340.170,84031.780,337826.400,304762.100,89305.050,73166.570,59797.280,64838.840,-0.122,0.975,-0.165,-1.007,-2.808,0.183,73.333,113.000,1.000,11.929,0.000
93720.930,84037.380,336148.300,302381.900,89618.650,71883.840,59284.670,64027.780,-0.123,0.981,-0.159,-0.763,-2.350,0.427,73.333,114.000,1.000,5.553,0.000
92644.060,84293.770,334451.200,299940.100,90846.710,70428.870,58061.540,62574.900,-0.120,0.979,-0.160,-0.854,-1.923,0.336,73.333,115.000,1.000,0.009,0.000
91795.670,83748.650,332182.200,298107.600,90488.730,69876.440,57159.090,61752.830,-0.122,0.985,-0.162,-0.763,-1.221,0.275,73.333,116.000,1.000,1.923,0.000
91529.150,82569.180,329706.800,296843.900,88668.890,70405.120,57271.610,62086.360,-0.122,0.985,-0.162,-0.824,-0.763,0.305,73.333,117.000,1.000,11.950,0.000
91239.720,81487.690,327552.400,295186.000,87046.210,70469.680,57461.410,62315.270,-0.118,0.981,-0.163,-1.190,-0.183,0.061,73.333,118.000,1.000,0.019,0.000
90701.300,81371.910,325818.400,293048.300,87196.880,69516.650,57054.830,61698.570,-0.122,0.984,-0.166,-1.068,0.336,0.183,73.333,119.000,1.000,2.377,0.000
89850.160,81485.700,324095.600,290878.200,88041.380,68429.540,56136.120,60617.360,-0.119,0.981,-0.162,-1.038,0.824,0.031,73.333,120.000,1.000,0.007,0.000
89108.870,81007.310,322002.200,289118.000,87680.840,67885.470,55380.550,59908.610,-0.116,0.980,-0.165,-1.099,1.587,-0.092,73.333,121.000,1.000,1.871,0.000
88692.160,79982.080,319752.800,287703.100,86177.120,68025.290,55271.620,59941.630,-0.121,0.986,-0.162,-1.007,2.197,-0.031,73.333,122.000,1.000,8.832,0.000
88291.590,79025.650,317696.800,286042.200,84847.450,67920.230,55269.930,59961.460,-0.119,0.982,-0.164,-1.190,2.594,-0.336,73.333,123.000,1.000,2.502,0.000
87811.890,78812.550,315925.300,284106.900,84861.400,67239.640,54946.390,59495.930,-0.121,0.984,-0.167,-1.282,3.204,-0.305,73.333,124.000,1.000,7.506,0.000
87132.380,78796.790,314177.100,282146.100,85367.890,66452.770,54267.990,58703.210,-0.127,0.988,-0.167,-1.282,3.418,-0.336,73.333,125.000,1.000,2.980,0.000
86463.130,78357.520,312208.400,280422.100,84987.340,65923.970,53627.030,58072.390,-0.127,0.985,-0.166,-1.617,3.845,-0.580,73.333,126.000,1.000,0.007,0.000
85935.980,77471.820,310139.700,278886.900,83759.040,65776.740,53349.770,57866.480,-0.133,0.986,-0.168,-1.740,4.303,-0.610,73.333,127.000,1.000,1.956,0.000
85464.780,76636.080,308175.500,277235.300,82688.020,65547.910,53198.360,57723.930,-0.137,0.985,-0.167,-1.770,4.486,-0.732,73.333,128.000,1.000,13.802,0.000
85033.900,76344.930,306386.100,275468.400,82583.770,65071.920,52935.070,57380.380,-0.136,0.979,-0.169,-2.075,4.700,-0.977,73.333,129.000,1.000,3.051,0.000
84492.760,76218.650,304630.700,273687.400,82804.010,64512.550,52447.180,56824.500,-0.143,0.984,-0.167,-2.106,4.822,-0.977,73.333,130.000,1.000,0.010,0.000
83892.020,75807.020,302772.200,272008.600,82405.750,63991.360,51897.410,56264.430,-0.143,0.978,-0.165,-2.136,4.669,-1.129,73.333,131.000,1.000,4.420,0.000
83291.210,75042.400,300856.600,270393.200,81410.110,63615.520,51492.340,55880.020,-0.144,0.974,-0.169,-2.197,4.669,-1.282,73.333,132.000,1.000,2.430,0.000
82766.140,74314.690,298978.700,268756.800,80552.630,63283.200,51226.170,55609.250,-0.151,0.977,-0.163,-2.228,4.608,-1.068,73.333,133.000,1.000,2.483,0.000
82368.750,73964.630,297190.400,267126.400,80351.700,62957.440,51001.480,55347.610,-0.146,0.971,-0.166,-2.197,4.364,-1.221,73.333,134.000,1.000,3.850,0.000
81938.380,73750.990,295443.500,265498.300,80350.270,62581.160,50662.930,54980.010,-0.147,0.972,-0.171,-2.197,4.364,-1.312,73.333,135.000,1.000,14.239,0.000
81396.120,73360.360,293675.800,263869.000,79949.260,62087.530,50203.450,54500.880,-0.152,0.975,-0.167,-2.014,4.059,-1.068,73.333,136.000,1.000,0.010,0.000
80742.360,72693.080,291873.400,262199.800,79145.090,61557.540,49719.110,53999.080,-0.149,0.967,-0.171,-2.167,3.754,-1.129,73.333,137.000,1.000,2.558,0.000
80176.310,72053.660,290061.800,260576.700,78457.290,61156.760,49368.420,53629.420,-0.151,0.968,-0.171,-2.136,3.448,-1.038,73.333,138.000,1.000,0.004,0.000
79794.520,71656.330,288280.300,259046.400,78175.220,60935.200,49161.120,53410.790,-0.152,0.966,-0.167,-1.984,2.869,-0.885,73.333,139.000,1.000,6.246,0.000
79432.090,71366.490,286542.300,257527.500,77989.230,60679.730,48919.760,53158.180,-0.153,0.961,-0.166,-2.045,2.625,-0.916,73.333,140.000,1.000,0.014,0.000
78936.420,70993.790,284851.700,255944.000,77584.470,60213.380,48530.970,52732.600,-0.156,0.962,-0.168,-1.709,2.228,-0.763,73.333,141.000,1.000,13.207,0.000
78268.970,70417.340,283153.300,254259.900,76944.700,59591.430,48007.480,52162.090,-0.156,0.960,-0.174,-1.587,1.770,-0.671,73.333,142.000,1.000,4.850,0.000
77690.200,69852.550,281407.900,252663.400,76397.390,59142.380,47602.590,51733.420,-0.155,0.958,-0.171,-1.556,1.404,-0.702,73.333,143.000,1.000,0.015,0.000
77319.830,69420.010,279643.500,251211.100,76053.640,58985.100,47405.410,51550.210,-0.153,0.960,-0.173,-1.434,0.854,-0.610,73.333,144.000,1.000,0.004,0.000
76994.320,69064.040,277912.200,249767.600,75721.630,58806.930,47227.620,51379.960,-0.153,0.962,-0.172,-1.221,0.336,-0.580,73.333,145.000,1.000,5.619,0.000
76514.310,68683.540,276262.200,248206.200,75298.340,58348.070,46876.540,50984.960,-0.151,0.965,-0.176,-1.038,-0.122,-0.580,73.333,146.000,1.000,0.010,0.000
75833.800,68169.800,274630.700,246513.600,74775.600,57663.210,46323.880,50367.760,-0.149,0.969,-0.180,-1.099,-0.702,-0.458,73.333,147.000,1.000,4.470,0.000
75250.630,67673.850,272943.900,244949.500,74338.300,57194.970,45889.250,49906.360,-0.146,0.972,-0.177,-1.221,-1.160,-0.458,73.333,148.000,1.000,3.762,0.000
74887.170,67228.800,271211.200,243564.600,73957.340,57085.730,45702.090,49747.200,-0.146,0.975,-0.174,-1.434,-1.617,-0.366,73.333,149.000,1.000,16.800,0.000
74594.140,66835.800,269508.900,242190.400,73531.840,56964.030,45572.910,49634.300,-0.148,0.979,-0.178,-1.526,-2.014,-0.336,73.333,150.000,1.000,0.020,0.000
74146.590,66462.240,267908.700,240666.900,73108.510,56529.030,45259.840,49270.780,-0.150,0.983,-0.178,-1.740,-2.380,-0.427,73.333,151.000,1.000,4.925,0.000
73475.380,65998.770,266330.500,238984.200,72670.540,55815.460,44695.040,48630.100,-0.149,0.984,-0.178,-2.014,-2.625,-0.580,73.333,152.000,1.000,0.008,0.000
72880.600,65535.090,264675.800,237434.700,72289.020,55314.190,44224.010,48132.540,-0.144,0.984,-0.177,-2.167,-2.899,-0.671,73.333,153.000,1.000,4.964,0.000
72495.730,65056.980,262954.600,236076.800,71856.230,55197.560,44010.570,47960.500,-0.139,0.983,-0.179,-2.289,-3.021,-0.824,73.333,154.000,1.000,0.008,0.000
72207.450,64625.310,261275.300,234748.300,71361.530,55092.390,43893.410,47875.320,-0.134,0.983,-0.178,-2.289,-3.143,-1.007,73.333,155.000,1.000,1.893,0.000
71784.280,64256.610,259724.800,233274.400,70952.020,54681.760,43615.770,47555.860,-0.127,0.983,-0.178,-2.350,-2.991,-0.946,73.333,156.000,1.000,9.415,0.000
71137.890,63840.890,258204.900,231629.400,70593.690,53979.700,43077.930,46936.060,-0.123,0.980,-0.173,-2.472,-2.747,-0.824,73.333,157.000,1.000,0.006,0.000
70556.300,63421.180,256601.300,230107.400,70270.480,53482.880,42612.860,46432.310,-0.121,0.977,-0.174,-2.411,-2.472,-0.854,73.333,158.000,1.000,1.912,0.000
70173.670,62946.820,254920.500,228775.200,69820.430,53366.610,42393.220,46246.020,-0.120,0.974,-0.173,-2.472,-2.106,-0.793,73.333,159.000,1.000,7.477,0.000
69897.390,62504.730,253278.000,227479.500,69287.270,53271.960,42284.910,46163.000,-0.119,0.973,-0.171,-2.350,-1.801,-0.824,73.333,160.000,1.000,14.316,0.000
69499.890,62142.660,251766.100,226043.300,68883.920,52893.300,42032.710,45866.900,-0.120,0.972,-0.172,-2.258,-1.343,-0.854,73.333,161.000,1.000,0.016,0.000
68889.440,61764.300,250288.300,224444.800,68579.340,52228.810,41521.740,45279.570,-0.120,0.973,-0.172,-2.258,-0.793,-0.916,73.333,162.000,1.000,3.111,0.000
68326.200,61376.010,248725.800,222961.800,68295.590,51744.010,41064.180,44790.640,-0.117,0.975,-0.173,-2.075,-0.214,-0.916,73.333,163.000,1.000,0.017,0.000
67932.090,60898.060,247077.700,221651.500,67831.930,51606.570,40831.090,44594.680,-0.116,0.975,-0.174,-2.167,0.244,-0.916,73.333,164.000,1.000,0.006,0.000
67642.020,60437.730,245462.300,220376.000,67271.840,51496.030,40711.960,44503.640,-0.116,0.977,-0.167,-2.075,0.946,-0.854,73.333,165.000,1.000,2.507,0.000
67250.700,60069.050,243974.500,218968.200,66865.400,51130.550,40465.390,44217.330,-0.115,0.979,-0.167,-2.045,1.404,-0.916,73.333,166.000,1.000,6.308,0.000
66667.370,59704.140,242520.200,217406.900,66578.480,50492.440,39972.640,43652.450,-0.118,0.979,-0.168,-2.258,1.953,-0.946,73.333,167.000,1.000,4.995,0.000
66120.610,59324.590,240985.100,215949.500,66300.130,50012.430,39519.600,43169.140,-0.120,0.977,-0.171,-2.350,2.350,-0.824,73.333,168.000,1.000,3.701,0.000
65719.200,58846.220,239369.200,214649.400,65826.620,49853.990,39272.920,42953.180,-0.123,0.976,-0.174,-2.350,2.838,-0.885,73.333,169.000,1.000,9.318,0.000
65416.220,58383.410,237785.100,213386.600,65263.270,49728.400,39143.600,42845.670,-0.126,0.975,-0.174,-2.289,3.265,-0.854,73.333,170.000,1.000,0.022,0.000
65030.110,58017.270,236320.800,212009.400,64866.630,49376.450,38909.870,42574.660,-0.131,0.976,-0.173,-2.380,3.510,-0.977,73.333,171.000,1.000,1.972,0.000
64477.600,57674.880,234890.400,210496.500,64604.700,48781.290,38455.760,42052.200,-0.129,0.976,-0.175,-2.472,3.784,-0.885,73.333,172.000,1.000,2.449,0.000
63954.380,57321.580,233392.300,209076.700,64347.090,48327.480,38029.070,41593.410,-0.134,0.976,-0.173,-2.594,3.937,-0.977,73.333,173.000,1.000,8.731,0.000
63551.010,56859.610,231820.400,207794.100,63884.750,48150.690,37777.500,41365.180,-0.136,0.971,-0.174,-2.563,4.150,-1.068,73.333,174.000,1.000,3.092,0.000
63230.260,56394.500,230268.000,206539.400,63324.630,48001.310,37629.740,41228.170,-0.138,0.968,-0.168,-2.655,4.181,-1.099,73.333,175.000,1.000,0.011,0.000
62839.080,56018.050,228819.700,205182.500,62922.590,47661.130,37390.950,40947.330,-0.139,0.967,-0.171,-2.625,4.333,-1.068,73.333,176.000,1.000,11.862,0.000
62312.610,55681.560,227411.100,203716.300,62662.160,47109.970,36960.450,40456.510,-0.143,0.965,-0.168,-2.563,4.272,-1.251,73.333,177.000,1.000,3.081,0.000
61813.470,55339.950,225951.400,202336.300,62407.570,46675.630,36553.560,40026.330,-0.143,0.967,-0.167,-2.411,4.242,-1.404,73.333,178.000,1.000,0.010,0.000
61410.060,54891.730,224423.600,201069.700,61954.110,46472.390,36293.180,39791.210,-0.143,0.967,-0.170,-2.197,4.272,-1.465,73.333,179.000,1.000,1.888,0.000
61074.630,54433.250,222904.300,199821.900,61405.430,46289.450,36121.020,39635.850,-0.140,0.968,-0.171,-2.106,4.211,-1.465,73.333,180.000,1.000,2.597,0.000
60681.140,54051.660,221469.900,198485.200,61001.330,45948.550,35876.750,39360.200,-0.145,0.968,-0.169,-1.984,4.150,-1.526,73.333,181.000,1.000,8.739,0.000
60175.200,53712.000,220069.000,197054.100,60731.270,45437.050,35475.320,38900.730,-0.144,0.970,-0.167,-1.923,3.906,-1.465,73.333,182.000,1.000,2.508,0.000
59691.620,53372.820,218629.200,195696.300,60467.210,45027.380,35092.720,38484.520,-0.145,0.972,-0.167,-1.831,3.815,-1.465,73.333,183.000,1.000,9.249,0.000
59294.250,52945.950,217143.900,194445.000,60032.830,44814.250,34834.960,38235.320,-0.145,0.974,-0.168,-1.678,3.693,-1.434,73.333,184.000,1.000,0.041,0.000
58960.580,52508.870,215673.100,193217.300,59520.680,44621.660,34655.580,38063.030,-0.148,0.978,-0.171,-1.740,3.601,-1.373,73.333,185.000,1.000,2.416,0.000
58577.210,52133.260,214268.800,191909.900,59132.390,44293.410,34415.950,37795.060,-0.148,0.979,-0.169,-1.740,3.296,-1.282,73.333,186.000,1.000,0.017,0.000
58104.910,51802.050,212892.400,190528.500,58866.290,43822.870,34049.210,37379.240,-0.150,0.977,-0.168,-1.740,3.143,-1.282,73.333,187.000,1.000,10.675,0.000
57649.270,51470.960,211486.100,189213.800,58605.000,43436.480,33695.670,36999.290,-0.153,0.977,-0.169,-1.831,2.869,-1.190,73.333,188.000,1.000,3.035,0.000
57250.680,51052.250,210035.100,187978.600,58184.920,43203.330,33433.010,36747.550,-0.154,0.978,-0.171,-1.831,2.594,-1.221,73.333,189.000,1.000,0.009,0.000
56905.780,50625.960,208596.500,186761.500,57698.150,42992.300,33237.350,36559.740,-0.151,0.976,-0.173,-1.801,2.197,-1.221,73.333,190.000,1.000,8.259,0.000
56529.230,50259.100,207216.600,185485.300,57321.020,42680.930,33001.130,36297.680,-0.151,0.974,-0.172,-1.831,1.892,-1.221,73.333,191.000,1.000,2.998,0.000
56067.050,49917.860,205844.000,184135.300,57032.700,42237.740,32646.780,35898.500,-0.152,0.975,-0.175,-1.831,1.495,-1.282,73.333,192.000,1.000,0.010,0.000
55601.580,49563.380,204436.100,182821.000,56733.100,41842.390,32284.690,35510.790,-0.153,0.978,-0.173,-1.923,1.221,-1.190,73.333,193.000,1.000,1.937,0.000
55189.670,49146.830,203005.500,181578.000,56310.720,41577.370,32003.130,35234.070,-0.152,0.979,-0.174,-2.045,0.793,-1.282,73.333,194.000,1.000,8.781,0.000
54830.690,48732.110,201594.500,180362.300,55842.720,41345.340,31785.220,35021.050,-0.150,0.980,-0.176,-2.014,0.488,-1.373,73.333,195.000,1.000,4.310,0.000
54454.070,48370.200,200233.200,179107.200,55469.200,41044.130,31539.340,34755.370,-0.147,0.980,-0.176,-2.228,0.336,-1.434,73.333,196.000,1.000,0.014,0.000
54030.550,48049.300,198893.800,177812.200,55189.640,40655.080,31220.240,34397.080,-0.143,0.977,-0.176,-2.289,0.122,-1.404,73.333,197.000,1.000,8.218,0.000
53603.970,47718.940,197530.000,176547.300,54904.430,40299.600,30900.360,34048.170,-0.138,0.974,-0.175,-2.411,-0.092,-1.373,73.333,198.000,1.000,2.418,0.000
53199.110,47321.410,196134.600,175323.800,54502.270,40025.530,30628.960,33768.140,-0.131,0.973,-0.173,-2.441,-0.092,-1.495,73.333,199.000,1.000,4.953,0.000
52829.670,46916.030,194749.200,174118.300,54058.170,39772.330,30406.430,33535.340,-0.128,0.975,-0.173,-2.472,-0.031,-1.587,73.333,200.000,1.000,2.530,0.000
52442.800,46542.230,193396.200,172878.100,53684.680,39461.100,30158.660,33267.090,-0.126,0.977,-0.166,-2.472,0.214,-1.617,73.333,201.000,1.000,5.035,0.000
52018.190,46198.700,192056.900,171602.600,53380.710,39079.390,29841.480,32928.020,-0.121,0.974,-0.165,-2.686,0.549,-1.556,73.333,202.000,1.000,6.865,0.000
51601.410,45861.180,190712.600,170356.900,53078.460,38731.920,29523.440,32598.220,-0.119,0.969,-0.167,-2.808,1.007,-1.617,73.333,203.000,1.000,0.009,0.000
51205.660,45479.420,189351.800,169146.800,52689.110,38446.420,29245.890,32319.330,-0.115,0.969,-0.170,-2.777,1.526,-1.556,73.333,204.000,1.000,1.844,0.000
50832.000,45088.300,187994.300,167948.300,52264.310,38175.130,29003.400,32068.920,-0.115,0.969,-0.170,-2.625,2.136,-1.465,73.333,205.000,1.000,8.752,0.000
50451.250,44726.080,186664.800,166732.400,51900.600,37876.830,28754.260,31798.280,-0.116,0.971,-0.171,-2.533,2.655,-1.404,73.333,206.000,1.000,2.535,0.000
50052.990,44396.020,185353.400,165502.500,51601.340,37538.850,28470.690,31489.700,-0.118,0.972,-0.170,-2.533,3.204,-1.404,73.333,207.000,1.000,16.828,0.000
49658.120,44067.330,184039.900,164292.600,51302.360,37217.060,28183.570,31185.670,-0.123,0.974,-0.170,-2.441,3.662,-1.251,73.333,208.000,1.000,0.012,0.000
49270.650,43698.390,182713.600,163100.500,50932.910,36930.370,27916.070,30907.620,-0.126,0.975,-0.169,-2.380,4.150,-1.373,73.333,209.000,1.000,6.822,0.000
48894.860,43318.190,181386.300,161911.900,50532.820,36654.330,27670.650,30647.460,-0.130,0.976,-0.168,-2.411,4.456,-1.404,73.333,210.000,1.000,0.007,0.000
48517.550,42959.580,180075.800,160712.400,50175.350,36363.570,27422.460,30377.200,-0.132,0.977,-0.171,-2.319,4.639,-1.434,73.333,211.000,1.000,0.003,0.000
48133.790,42628.280,178779.100,159508.100,49868.520,36048.220,27155.120,30085.620,-0.140,0.979,-0.170,-2.228,4.761,-1.465,73.333,212.000,1.000,2.576,0.000
47743.790,42292.310,177478.400,158313.200,49556.480,35733.890,26876.390,29790.550,-0.144,0.981,-0.173,-2.289,4.852,-1.709,73.333,213.000,1.000,2.529,0.000
47351.430,41924.150,176168.300,157129.800,49188.050,35432.590,26597.910,29504.000,-0.146,0.981,-0.174,-2.411,4.883,-1.740,73.333,214.000,1.000,2.479,0.000
46973.650,41553.780,174865.300,155960.200,48804.890,35144.330,26339.390,29235.200,-0.149,0.982,-0.171,-2.350,4.883,-1.831,73.333,215.000,1.000,4.984,0.000
46595.520,41196.570,173571.700,154784.000,48452.950,34850.240,26086.240,28965.690,-0.154,0.982,-0.171,-2.380,4.730,-1.923,73.333,216.000,1.000,2.505,0.000
46210.960,40855.040,172281.700,153599.100,48133.000,34538.880,25820.250,28682.550,-0.158,0.984,-0.173,-2.472,4.456,-1.862,73.333,217.000,1.000,2.447,0.000
45828.130,40517.190,170998.300,152423.400,47815.420,34231.430,25550.450,28397.820,-0.163,0.981,-0.174,-2.686,4.120,-1.923,73.333,218.000,1.000,11.342,0.000
45451.130,40167.920,169723.200,151261.300,47470.380,33937.520,25290.640,28121.660,-0.171,0.980,-0.174,-2.838,3.540,-2.045,73.333,219.000,1.000,5.466,0.000
45096.700,39831.680,168468.700,150122.000,47128.890,33669.890,25058.350,27871.480,-0.172,0.979,-0.173,-2.930,2.960,-2.167,73.333,220.000,1.000,0.010,0.000
44758.340,39519.550,167233.400,148997.000,46818.150,33418.730,24839.930,27636.500,-0.173,0.979,-0.174,-2.960,2.167,-2.258,73.333,221.000,1.000,1.976,0.000
44405.360,39205.140,165985.300,147857.800,46512.360,33142.020,24598.290,27377.640,-0.172,0.976,-0.175,-3.082,1.434,-2.350,73.333,222.000,1.000,2.465,0.000
44024.890,38863.540,164715.200,146698.900,46178.700,32833.260,24326.240,27088.070,-0.168,0.976,-0.175,-2.991,0.580,-2.533,73.333,223.000,1.000,3.791,0.000
43633.450,38501.780,163441.100,145540.200,45815.960,32517.100,24046.130,26793.280,-0.165,0.978,-0.174,-3.052,-0.153,-2.472,73.333,224.000,1.000,8.705,0.000
43245.440,38137.950,162171.800,144391.200,45449.440,32210.920,23775.410,26508.670,-0.161,0.976,-0.177,-3.143,-0.763,-2.441,73.333,225.000,1.000,3.142,0.000
42866.270,37785.600,160911.200,143250.000,45101.960,31919.170,23518.090,26235.270,-0.158,0.976,-0.179,-3.296,-1.282,-2.167,73.333,226.000,1.000,0.006,0.000
42502.120,37454.920,159665.700,142119.400,44780.290,31640.470,23272.410,25972.650,-0.154,0.972,-0.175,-3.448,-1.923,-2.075,73.333,227.000,1.000,1.840,0.000
42141.310,37131.020,158433.700,140993.800,44463.210,31362.720,23024.380,25709.540,-0.153,0.969,-0.176,-3.571,-2.533,-1.740,73.333,228.000,1.000,40.061,0.000
41775.960,36801.000,157207.400,139869.200,44134.630,31076.750,22768.000,25441.010,-0.152,0.967,-0.177,-3.632,-3.113,-1.495,73.333,229.000,1.000,4.324,0.000
41405.460,36459.500,155975.100,138740.300,43795.140,30783.600,22506.130,25168.320,-0.151,0.967,-0.177,-3.601,-3.510,-1.190,73.333,230.000,1.000,0.011,0.000
41033.040,36110.470,154733.900,137607.700,43451.460,30490.260,22245.400,24894.860,-0.149,0.967,-0.177,-3.754,-3.998,-0.885,73.333,231.000,1.000,0.003,0.000
40676.470,35777.580,153503.600,136492.600,43125.780,30212.210,22001.780,24636.300,-0.151,0.970,-0.175,-3.754,-4.456,-0.671,73.333,232.000,1.000,0.089,0.000
40328.290,35456.540,152291.000,135390.300,42812.590,29938.150,21765.470,24383.050,-0.153,0.970,-0.175,-3.784,-5.005,-0.549,73.333,233.000,1.000,11.761,0.000
39967.300,35128.820,151079.400,134279.900,42490.170,29651.540,21519.950,24116.390,-0.153,0.972,-0.173,-3.876,-5.432,-0.549,73.333,234.000,1.000,0.016,0.000
39593.340,34790.620,149860.000,133162.700,42155.240,29363.130,21267.190,23841.710,-0.153,0.970,-0.174,-3.998,-5.768,-0.488,73.333,235.000,1.000,0.003,0.000
39223.320,34449.760,148638.300,132052.900,41817.320,29083.210,21017.830,23574.130,-0.150,0.964,-0.171,-3.937,-6.134,-0.641,73.333,236.000,1.000,4.151,0.000
38873.000,34119.590,147431.300,130962.000,41494.230,28812.760,20783.030,23326.420,-0.144,0.960,-0.171,-3.906,-6.287,-0.641,73.333,237.000,1.000,0.007,0.000
38536.160,33803.240,146248.600,129882.500,41185.660,28539.060,20551.130,23087.370,-0.137,0.958,-0.171,-3.784,-6.317,-0.641,73.333,238.000,1.000,0.003,0.000
38191.480,33490.860,145072.500,128797.900,40875.910,28248.980,20302.590,22832.760,-0.133,0.958,-0.175,-3.479,-6.378,-0.488,73.333,239.000,1.000,0.003,0.000
37824.230,33160.510,143880.200,127699.800,40550.890,27948.590,20036.320,22559.190,-0.128,0.955,-0.172,-3.235,-6.195,-0.336,73.333,240.000,1.000,2.041,0.000
37452.600,32817.160,142675.400,126602.400,40214.910,27659.000,19773.830,22288.440,-0.125,0.957,-0.177,-2.991,-5.981,-0.122,73.333,241.000,1.000,2.482,0.000
37104.190,32490.100,141481.800,125524.600,39889.450,27397.130,19536.680,22037.200,-0.121,0.959,-0.177,-2.808,-5.707,0.061,73.333,242.000,1.000,2.445,0.000
36766.150,32177.800,140305.600,124454.000,39573.780,27139.590,19309.860,21788.080,-0.120,0.963,-0.171,-2.563,-5.341,0.366,73.333,243.000,1.000,2.556,0.000
36409.840,31859.140,139127.500,123369.800,39254.710,26856.610,19066.590,21520.740,-0.118,0.967,-0.172,-2.319,-5.005,0.641,73.333,244.000,1.000,2.501,0.000
36038.800,31528.920,137942.800,122278.500,38931.080,26564.120,18810.490,21244.660,-0.120,0.968,-0.170,-2.228,-4.456,0.854,73.333,245.000,1.000,9.952,0.000
35686.550,31207.780,136769.200,121208.900,38614.690,26295.540,18568.790,20988.650,-0.121,0.971,-0.170,-2.167,-3.967,1.099,73.333,246.000,1.000,2.523,0.000
35355.920,30898.120,135608.600,120161.900,38305.680,26050.460,18346.430,20755.050,-0.124,0.973,-0.171,-2.106,-3.418,1.221,73.333,247.000,1.000,2.554,0.000
35016.890,30581.510,134449.000,119108.600,37990.170,25793.920,18119.910,20513.910,-0.130,0.977,-0.173,-2.106,-2.838,1.312,73.333,248.000,1.000,3.052,0.000
34667.410,30266.250,133292.400,118047.000,37677.880,25516.590,17883.140,20257.820,-0.133,0.983,-0.174,-2.136,-2.563,1.282,73.333,249.000,1.000,0.010,0.000
34313.800,29950.200,132137.000,116984.300,37367.640,25232.900,17638.300,19994.590,-0.136,0.986,-0.175,-2.136,-2.197,1.373,73.333,250.000,1.000,1.865,0.000
33963.640,29626.330,130977.700,115928.500,37048.970,24956.660,17393.510,19737.150,-0.137,0.990,-0.178,-2.228,-1.770,1.465,73.333,251.000,1.000,16.895,0.000
33627.870,29306.220,129825.100,114888.400,36731.430,24699.350,17164.180,19498.350,-0.138,0.993,-0.177,-2.502,-1.495,1.465,73.333,252.000,1.000,0.014,0.000
33289.590,28986.610,128678.500,113844.800,36413.660,24438.340,16935.570,19257.740,-0.135,0.995,-0.179,-2.625,-1.160,1.556,73.333,253.000,1.000,10.635,0.000
32937.890,28666.070,127533.100,112789.600,36098.390,24156.840,16691.190,18999.880,-0.133,0.996,-0.178,-2.930,-0.763,1.770,73.333,254.000,1.000,2.475,0.000
32593.320,28357.730,126400.800,111748.200,35798.170,23881.070,16447.400,18746.070,-0.135,0.994,-0.175,-3.052,-0.458,1.892,73.333,255.000,1.000,2.519,0.000
32265.990,28057.360,125278.000,110728.700,35503.290,23624.410,16219.450,18510.500,-0.135,0.990,-0.172,-3.357,-0.153,1.984,73.333,256.000,1.000,2.515,0.000
31931.620,27738.130,124141.000,109701.800,35187.440,23363.820,15991.010,18271.490,-0.136,0.983,-0.171,-3.601,0.244,2.106,73.333,257.000,1.000,2.600,0.000
31582.090,27405.030,122997.500,108658.200,34857.860,23086.690,15749.830,18014.460,-0.134,0.978,-0.170,-3.784,0.671,2.228,73.333,258.000,1.000,2.338,0.000
31236.850,27088.710,121872.300,107621.700,34548.360,22807.780,15509.030,17754.260,-0.133,0.977,-0.169,-3.876,0.916,2.472,73.333,259.000,1.000,2.570,0.000
30897.390,26783.660,120759.400,106598.500,34252.990,22534.030,15272.880,17499.930,-0.135,0.979,-0.168,-3.876,1.373,2.411,73.333,260.000,1.000,3.047,0.000
30561.940,26475.880,119642.900,105584.200,33949.590,22270.040,15042.320,17255.240,-0.138,0.985,-0.163,-3.845,1.709,2.197,73.333,261.000,1.000,0.008,0.000
30233.230,26167.910,118525.300,104575.300,33639.800,22022.520,14820.480,17020.950,-0.141,0.989,-0.162,-3.967,1.984,2.228,73.333,262.000,1.000,10.714,0.000
29907.250,25865.570,117417.600,103567.100,33336.090,21775.960,14601.960,16788.460,-0.145,0.987,-0.164,-4.181,2.106,2.045,73.333,263.000,1.000,3.072,0.000
29580.730,25572.190,116320.900,102561.600,33046.930,21516.720,14381.050,16551.000,-0.143,0.982,-0.164,-4.303,2.289,1.801,73.333,264.000,1.000,0.009,0.000
29253.800,25282.190,115229.900,101560.900,32763.390,21254.130,14155.760,16308.240,-0.143,0.974,-0.163,-4.303,2.350,1.556,73.333,265.000,1.000,1.820,0.000
28936.710,24996.430,114145.800,100573.000,32479.570,21006.940,13938.670,16076.720,-0.144,0.967,-0.160,-4.120,2.319,1.495,73.333,266.000,1.000,6.255,0.000
28626.000,24708.060,113064.600,99593.650,32191.680,20771.010,13732.170,15856.910,-0.146,0.966,-0.159,-3.876,2.197,1.282,73.333,267.000,1.000,3.732,0.000
28307.620,24412.250,111980.800,98606.240,31897.250,20524.750,13521.390,15627.500,-0.147,0.970,-0.160,-3.754,2.258,0.946,73.333,268.000,1.000,6.280,0.000
27984.660,24122.180,110902.100,97615.100,31610.660,20273.040,13306.310,15392.590,-0.148,0.972,-0.158,-3.540,2.106,0.793,73.333,269.000,1.000,9.329,0.000
27648.380,23822.310,109816.900,96617.160,31318.320,20014.860,13078.520,15151.210,-0.147,0.974,-0.157,-3.540,1.892,0.580,73.333,270.000,1.000,0.022,0.000
27301.400,23506.650,108717.800,95614.630,31007.270,19748.750,12839.540,14901.890,-0.149,0.981,-0.163,-3.571,1.709,0.305,73.333,271.000,1.000,2.456,0.000
26971.780,23202.750,107629.800,94631.600,30702.210,19495.690,12614.870,14666.750,-0.150,0.991,-0.169,-3.510,1.556,0.061,73.333,272.000,1.000,0.011,0.000
26662.080,22917.130,106564.300,93668.190,30415.530,19251.740,12406.400,14446.740,-0.147,0.995,-0.165,-3.693,1.404,-0.153,73.333,273.000,1.000,1.895,0.000
26350.510,22633.830,105504.600,92703.060,30136.110,19000.160,12197.150,14220.340,-0.144,0.991,-0.163,-3.815,1.068,-0.275,73.333,274.000,1.000,11.316,0.000
26029.820,22344.360,104441.500,91730.120,29852.940,18744.630,11982.290,13984.190,-0.143,0.977,-0.157,-3.876,0.763,-0.519,73.333,275.000,1.000,2.998,0.000
25719.620,22060.480,103387.300,90768.910,29572.610,18503.420,11775.250,13759.660,-0.144,0.969,-0.156,-3.906,0.702,-0.671,73.333,276.000,1.000,0.009,0.000
25417.760,21777.200,102340.100,89817.400,29290.200,18270.820,11570.370,13542.730,-0.147,0.967,-0.155,-3.723,0.488,-0.824,73.333,277.000,1.000,1.889,0.000
25096.620,21475.340,101278.900,88847.350,28987.220,18017.350,11343.040,13304.400,-0.149,0.962,-0.160,-3.662,0.336,-0.854,73.333,278.000,1.000,8.768,0.000
24763.290,21169.380,100212.400,87867.050,28680.860,17750.390,11103.480,13052.540,-0.157,0.961,-0.161,-3.357,-0.092,-0.702,73.333,279.000,1.000,2.511,0.000
24449.820,20885.650,99169.180,86910.660,28398.770,17502.210,10884.120,12821.120,-0.158,0.957,-0.163,-3.174,-0.519,-0.763,73.333,280.000,1.000,2.465,0.000
24148.220,20607.920,98136.840,85971.570,28122.360,17264.990,10678.250,12604.930,-0.159,0.956,-0.167,-3.052,-1.038,-0.793,73.333,281.000,1.000,8.860,0.000
23831.840,20311.060,97090.250,85021.940,27827.480,17017.680,10462.940,12380.260,-0.159,0.957,-0.167,-2.686,-1.373,-0.763,73.333,282.000,1.000,2.991,0.000
23510.960,20011.080,96043.460,84067.510,27532.880,16769.950,10245.920,12153.520,-0.156,0.957,-0.167,-2.380,-1.770,-0.977,73.333,283.000,1.000,0.013,0.000
23199.960,19725.500,95010.950,83122.560,27255.330,16529.970,10033.810,11931.510,-0.150,0.962,-0.170,-2.075,-1.923,-1.038,73.333,284.000,1.000,5.650,0.000
22887.320,19441.980,93979.860,82179.410,26977.090,16284.440,9813.801,11702.880,-0.145,0.966,-0.166,-1.770,-2.228,-1.007,73.333,285.000,1.000,11.813,0.000
22566.440,19148.950,92940.360,81232.280,26684.600,16029.590,9585.513,11466.870,-0.137,0.958,-0.165,-1.587,-2.319,-0.854,73.333,286.000,1.000,0.011,0.000
22253.470,18860.090,91909.980,80296.660,26395.150,15785.540,9371.304,11243.430,-0.130,0.951,-0.162,-1.404,-2.167,-0.610,73.333,287.000,1.000,6.337,0.000
21953.160,18584.180,90896.570,79375.280,26118.650,15554.810,9173.552,11033.100,-0.128,0.950,-0.165,-0.977,-2.045,-0.244,73.333,288.000,1.000,4.370,0.000
21649.470,18309.420,89884.480,78448.750,25843.130,15319.130,8969.940,10812.610,-0.127,0.947,-0.168,-0.549,-1.648,-0.153,73.333,289.000,1.000,2.510,0.000
21345.730,18036.900,88876.800,77521.230,25570.770,15082.390,8761.850,10586.410,-0.126,0.947,-0.168,-0.244,-1.282,0.122,73.333,290.000,1.000,2.447,0.000
21059.140,17777.550,87887.270,76613.800,25313.430,14861.960,8568.529,10377.240,-0.130,0.953,-0.167,0.122,-1.129,0.244,73.333,291.000,1.000,2.510,0.000
20773.910,17514.670,86898.460,75711.420,25052.200,14642.980,8377.326,10171.340,-0.132,0.962,-0.168,0.336,-0.916,0.244,73.333,292.000,1.000,2.506,0.000
20476.930,17240.350,85898.210,74798.680,24775.920,14410.370,8173.570,9954.702,-0.132,0.983,-0.173,0.458,-0.488,0.183,73.333,293.000,1.000,6.269,0.000
20180.760,16967.470,84899.270,73886.250,24501.430,14175.890,7967.741,9737.653,-0.134,1.007,-0.173,0.488,-0.275,0.214,73.333,294.000,1.000,11.930,0.000
19875.010,16683.000,83892.630,72964.360,24218.540,13930.370,7751.620,9509.084,-0.132,1.017,-0.167,-0.031,-0.031,0.214,73.333,295.000,1.000,0.014,0.000
19558.100,16387.620,82878.300,72035.480,23924.230,13674.430,7526.945,9271.943,-0.131,1.012,-0.166,-0.702,0.214,0.122,73.333,296.000,1.000,2.333,0.000
19257.500,16109.630,81884.100,71130.690,23646.240,13437.940,7322.707,9056.942,-0.130,1.002,-0.165,-1.251,0.580,0.000,73.333,297.000,1.000,0.008,0.000
18974.180,15849.140,80910.460,70248.110,23386.390,13220.010,7137.599,8859.420,-0.129,0.992,-0.169,-1.587,1.038,-0.153,73.333,298.000,1.000,1.914,0.000
18687.990,15588.040,79938.450,69361.700,23126.600,12999.410,6947.801,8655.106,-0.132,0.986,-0.171,-1.648,1.495,-0.122,73.333,299.000,1.000,6.321,0.000
18393.810,15320.980,78963.730,68466.240,22860.890,12771.120,6745.014,8440.886,-0.134,0.978,-0.171,-1.953,1.770,-0.214,73.333,300.000,1.000,2.513,0.000
18092.670,15045.680,77983.780,67566.570,22586.280,12535.190,6531.286,8218.028,-0.135,0.974,-0.175,-2.106,2.045,0.000,73.333,301.000,1.000,3.675,0.000
17787.040,14763.250,76999.970,66666.660,22304.490,12292.400,6314.207,7989.337,-0.134,0.972,-0.173,-2.106,2.075,-0.031,73.333,302.000,1.000,11.878,0.000
17484.130,14482.450,76021.840,65772.760,22025.730,12050.360,6103.600,7764.100,-0.135,0.973,-0.175,-2.197,2.258,-0.183,73.333,303.000,1.000,0.013,0.000
17190.350,14213.260,75056.300,64889.560,21759.510,11819.370,5905.319,7550.886,-0.138,0.981,-0.174,-2.045,2.472,-0.153,73.333,304.000,1.000,1.839,0.000
16902.460,13953.830,74099.230,64013.260,21502.720,11596.490,5715.193,7346.711,-0.136,0.978,-0.171,-2.197,2.563,-0.305,73.333,305.000,1.000,2.575,0.000
16614.270,13694.440,73143.790,63138.310,21245.130,11373.930,5524.620,7141.835,-0.139,0.978,-0.171,-2.441,2.655,-0.336,73.333,306.000,1.000,2.414,0.000
16332.040,13438.080,72195.050,62270.930,20988.390,11158.050,5336.497,6939.870,-0.141,0.979,-0.172,-2.502,2.686,-0.183,73.333,307.000,1.000,7.598,0.000
16059.040,13189.170,71255.970,61414.860,20737.520,10951.520,5155.444,6745.427,-0.137,0.973,-0.173,-2.808,2.686,-0.366,73.333,308.000,1.000,6.250,0.000
15785.710,12940.330,70318.590,60561.700,20487.960,10741.900,4973.787,6551.544,-0.139,0.970,-0.175,-2.808,2.899,-0.305,73.333,309.000,1.000,5.526,0.000
15500.940,12680.320,69372.620,59700.530,20229.700,10518.460,4780.963,6347.527,-0.145,0.971,-0.167,-2.563,2.808,-0.275,73.333,310.000,1.000,0.011,0.000
15204.270,12408.600,68418.230,58830.820,19962.020,10286.160,4580.181,6134.107,-0.144,0.965,-0.173,-2.838,2.686,-0.519,73.333,311.000,1.000,1.868,0.000
14910.960,12140.380,67470.620,57966.630,19697.630,10058.960,4384.171,5927.010,-0.149,0.969,-0.172,-2.869,2.655,-0.366,73.333,312.000,1.000,3.803,0.000
14629.720,11883.750,66536.960,57114.850,19441.670,9841.691,4195.221,5729.877,-0.153,0.973,-0.173,-2.625,2.289,-0.366,73.333,313.000,1.000,11.849,0.000
14350.120,11628.630,65607.200,56265.280,19185.190,9625.469,4004.936,5531.525,-0.153,0.970,-0.171,-2.899,1.862,-0.610,73.333,314.000,1.000,0.013,0.000
14067.020,11369.300,64675.430,55413.910,18924.580,9404.761,3810.896,5327.495,-0.159,0.974,-0.170,-2.655,1.556,-0.397,73.333,315.000,1.000,2.425,0.000
13788.010,11113.750,63748.610,54567.590,18666.540,9185.986,3619.927,5122.446,-0.155,0.968,-0.170,-2.563,1.007,-0.549,73.333,316.000,1.000,0.006,0.000
13517.140,10866.820,62832.930,53729.060,18415.760,8974.915,3438.255,4924.610,-0.153,0.964,-0.170,-2.686,0.824,-0.732,73.333,317.000,1.000,8.262,0.000
13247.210,10620.100,61921.700,52894.380,18167.630,8766.147,3259.599,4731.106,-0.158,0.963,-0.168,-2.319,0.549,-0.549,73.333,318.000,1.000,2.418,0.000
12966.180,10361.760,61003.570,52055.110,17912.230,8548.172,3069.836,4528.074,-0.152,0.958,-0.173,-2.045,0.153,-0.702,73.333,319.000,1.000,2.488,0.000
12684.150,10103.060,60087.890,51218.330,17658.000,8329.494,2879.730,4326.966,-0.151,0.958,-0.174,-1.862,-0.031,-0.580,73.333,320.000,1.000,3.799,0.000
12415.810,9859.481,59185.990,50394.780,17415.510,8123.647,2703.725,4143.218,-0.155,0.965,-0.171,-1.434,-0.397,-0.366,73.333,321.000,1.000,8.686,0.000
12141.720,9611.686,58278.710,49565.930,17163.380,7911.138,2518.302,3949.289,-0.151,0.963,-0.171,-1.373,-0.946,-0.549,73.333,322.000,1.000,4.424,0.000
11852.580,9348.435,57358.910,48723.300,16894.570,7681.196,2314.432,3732.178,-0.152,0.969,-0.171,-1.221,-1.251,-0.641,73.333,323.000,1.000,0.009,0.000
11569.910,9091.013,56448.140,47888.710,16633.070,7455.773,2118.174,3521.293,-0.151,0.982,-0.172,-1.068,-1.495,-0.519,73.333,324.000,1.000,14.342,0.000
11306.360,8852.336,55559.240,47077.520,16391.740,7250.858,1944.600,3334.053,-0.144,0.990,-0.171,-1.068,-1.801,-0.610,73.333,325.000,1.000,3.057,0.000
11049.790,8618.309,54680.210,46276.280,16158.490,7055.928,1779.534,3156.183,-0.140,0.994,-0.168,-1.221,-2.045,-0.519,73.333,326.000,1.000,0.007,0.000
10776.670,8366.734,53785.960,45456.970,15908.770,6844.496,1594.385,2960.907,-0.134,0.987,-0.164,-1.740,-2.136,-0.397,73.333,327.000,1.000,4.467,0.000
10490.470,8103.467,52879.230,44623.670,15644.100,6616.221,1392.357,2749.958,-0.130,0.981,-0.167,-1.862,-1.953,-0.244,73.333,328.000,1.000,2.466,0.000
10214.180,7849.993,51985.180,43804.220,15387.690,6396.645,1200.869,2547.107,-0.132,0.972,-0.166,-1.831,-1.801,-0.031,73.333,329.000,1.000,5.021,0.000
9948.007,7604.228,51105.170,42999.470,15141.640,6188.416,1021.268,2352.712,-0.130,0.965,-0.168,-2.014,-1.465,-0.153,73.333,330.000,1.000,2.449,0.000
9686.652,7361.875,50232.340,42201.930,14900.720,5981.943,845.166,2161.704,-0.133,0.970,-0.170,-1.953,-1.251,0.031,73.333,331.000,1.000,2.546,0.000
9439.329,7136.589,49374.820,41421.220,14673.830,5788.396,680.689,1985.584,-0.128,0.975,-0.173,-2.014,-1.129,-0.031,73.333,332.000,1.000,3.794,0.000
9191.259,6912.924,48517.440,40640.980,14446.600,5598.460,515.112,1810.679,-0.129,0.981,-0.173,-1.984,-0.763,0.000,73.333,333.000,1.000,6.777,0.000
8917.455,6659.138,47634.430,39834.120,14192.610,5383.317,325.377,1609.765,-0.128,0.980,-0.173,-1.801,-0.397,-0.092,73.333,334.000,1.000,0.016,0.000
8632.170,6392.648,46742.120,39017.450,13926.770,5156.137,125.740,1396.740,-0.123,0.977,-0.173,-2.136,0.061,-0.122,73.333,335.000,1.000,1.925,0.000
8362.521,6147.487,45870.580,38220.860,13679.180,4945.892,-58.415,1200.260,-0.125,0.978,-0.171,-2.136,0.427,0.061,73.333,336.000,1.000,8.754,0.000
8110.903,5922.432,45021.260,37446.710,13452.260,4752.475,-223.701,1023.397,-0.124,0.974,-0.169,-2.380,0.763,0.153,73.333,337.000,1.000,4.310,0.000
7862.998,5698.048,44177.110,36679.150,13228.420,4559.573,-384.617,853.389,-0.122,0.972,-0.170,-2.502,1.282,0.214,73.333,338.000,1.000,0.010,0.000
7610.837,5465.984,43328.680,35907.500,12996.640,4359.681,-551.978,677.479,-0.125,0.978,-0.173,-2.472,1.556,0.336,73.333,339.000,1.000,10.674,0.000
7349.196,5223.417,42472.280,35125.680,12753.120,4151.206,-730.026,485.976,-0.127,0.974,-0.170,-2.502,1.923,0.275,73.333,340.000,1.000,3.066,0.000
7078.979,4973.800,41611.540,34335.690,12502.930,3938.352,-914.615,285.809,-0.128,0.975,-0.171,-2.594,2.258,0.183,73.333,341.000,1.000,0.007,0.000
6821.194,4736.904,40765.420,33557.960,12266.240,3739.121,-1087.884,99.042,-0.133,0.973,-0.171,-2.563,2.441,0.305,73.333,342.000,1.000,12.467,0.000
6577.423,4512.022,39933.020,32794.810,12041.080,3549.538,-1252.526,-77.267,-0.130,0.970,-0.171,-2.655,2.594,0.214,73.333,343.000,1.000,0.013,0.000
6327.230,4280.732,39096.520,32029.380,11808.490,3352.179,-1424.188,-258.478,-0.133,0.969,-0.169,-2.716,2.686,0.153,73.333,344.000,1.000,4.973,0.000
6073.362,4048.847,38259.860,31264.860,11574.070,3154.589,-1595.748,-437.938,-0.134,0.972,-0.168,-2.686,2.838,0.092,73.333,345.000,1.000,0.016,0.000
5823.715,3823.150,37429.880,30505.940,11345.550,2961.829,-1760.619,-614.353,-0.134,0.973,-0.168,-2.625,2.991,-0.275,73.333,346.000,1.000,1.863,0.000
5569.916,3592.211,36598.340,29742.370,11112.730,2762.275,-1930.532,-799.119,-0.136,0.977,-0.169,-2.563,3.204,-0.397,73.333,347.000,1.000,2.528,0.000
5310.312,3354.074,35762.730,28973.830,10872.200,2555.810,-2110.126,-990.238,-0.136,0.980,-0.167,-2.594,3.113,-0.580,73.333,348.000,1.000,16.341,0.000
5057.806,3122.360,34934.320,28216.610,10636.490,2357.763,-2284.956,-1173.934,-0.136,0.979,-0.172,-2.686,3.143,-0.793,73.333,349.000,1.000,7.476,0.000
4817.461,2902.301,34118.330,27475.730,10412.120,2172.424,-2447.148,-1346.568,-0.139,0.981,-0.172,-2.838,3.235,-0.763,73.333,350.000,1.000,0.014,0.000
4579.600,2684.108,33307.790,26738.770,10191.470,1989.230,-2605.394,-1517.106,-0.139,0.977,-0.170,-3.052,3.113,-0.977,73.333,351.000,1.000,0.003,0.000
4336.794,2459.781,32496.990,25999.420,9967.469,1802.215,-2766.584,-1691.235,-0.139,0.978,-0.171,-3.082,3.174,-1.160,73.333,352.000,1.000,3.019,0.000
4091.427,2233.811,31687.400,25263.200,9741.966,1615.076,-2929.330,-1865.866,-0.142,0.981,-0.171,-3.021,2.930,-1.373,73.333,353.000,1.000,0.009,0.000
3843.655,2009.437,30878.140,24528.590,9515.719,1426.330,-3094.326,-2041.661,-0.142,0.980,-0.169,-3.052,2.625,-1.587,73.333,354.000,1.000,1.876,0.000
3589.525,1781.333,30063.300,23785.570,9283.721,1230.196,-3264.491,-2223.516,-0.146,0.982,-0.167,-3.204,2.533,-1.587,73.333,355.000,1.000,2.454,0.000
3334.701,1551.501,29246.630,23037.010,9049.403,1034.225,-3432.930,-2407.510,-0.149,0.985,-0.172,-3.265,2.197,-1.709,73.333,356.000,1.000,8.778,0.000
3088.635,1328.105,28438.890,22295.990,8822.749,846.495,-3593.442,-2586.150,-0.147,0.981,-0.172,-3.479,1.923,-1.953,73.333,357.000,1.000,20.102,0.000
2852.885,1112.309,27643.140,21568.140,8605.414,662.638,-3750.679,-2756.683,-0.147,0.978,-0.172,-3.632,1.740,-1.953,73.333,358.000,1.000,0.023,0.000
2619.986,899.228,26852.410,20843.570,8387.389,478.405,-3909.117,-2925.900,-0.146,0.975,-0.167,-3.784,1.282,-2.075,73.333,359.000,1.000,0.007,0.000
2382.629,686.424,26061.510,20112.730,8160.537,294.065,-4071.375,-3101.644,-0.144,0.968,-0.167,-4.059,1.129,-2.167,73.333,360.000,1.000,3.683,0.000
2142.643,470.118,25271.880,19383.590,7930.020,102.429,-4243.668,-3280.025,-0.150,0.967,-0.163,-3.906,0.946,-2.014,73.333,361.000,1.000,3.678,0.000
1908.498,248.842,24487.610,18667.550,7708.176,-98.298,-4420.284,-3452.509,-0.151,0.961,-0.165,-3.601,0.641,-2.136,73.333,362.000,1.000,0.008,0.000
1686.943,34.698,23715.120,17965.890,7501.927,-288.461,-4579.876,-3613.642,-0.149,0.958,-0.168,-3.387,0.305,-2.045,73.333,363.000,1.000,0.003,0.000
1468.350,-168.900,22949.120,17265.540,7300.185,-462.054,-4721.442,-3767.635,-0.152,0.958,-0.166,-3.113,0.000,-1.953,73.333,364.000,1.000,8.091,0.000
1234.612,-377.252,22173.810,16550.710,7084.909,-637.943,-4867.874,-3929.473,-0.147,0.958,-0.166,-2.655,-0.305,-2.045,73.333,365.000,1.000,0.018,0.000
987.048,-597.853,21387.540,15826.850,6856.432,-825.146,-5030.007,-4105.717,-0.149,0.961,-0.164,-2.319,-0.610,-1.862,73.333,366.000,1.000,1.914,0.000
744.605,-820.361,20604.750,15114.290,6632.458,-1014.666,-5195.926,-4281.596,-0.149,0.965,-0.165,-1.923,-0.854,-1.709,73.333,367.000,1.000,2.550,0.000
514.152,-1034.818,19834.310,14417.310,6422.118,-1196.964,-5351.832,-4444.953,-0.143,0.966,-0.166,-1.709,-0.977,-1.587,73.333,368.000,1.000,3.640,0.000
282.253,-1246.394,19067.720,13718.990,6211.875,-1374.828,-5503.206,-4607.109,-0.140,0.969,-0.166,-1.526,-1.068,-1.312,73.333,369.000,1.000,8.808,0.000
40.280,-1463.136,18295.570,13010.590,5989.451,-1557.704,-5661.514,-4779.625,-0.144,0.972,-0.166,-1.251,-1.160,-1.007,73.333,370.000,1.000,4.290,0.000
-201.245,-1680.835,17525.040,12304.500,5764.747,-1744.230,-5822.044,-4952.870,-0.139,0.972,-0.168,-1.190,-1.129,-0.885,73.333,371.000,1.000,0.011,0.000
-429.672,-1890.881,16767.310,11612.590,5552.747,-1922.867,-5974.148,-5115.219,-0.142,0.978,-0.167,-1.038,-0.916,-0.580,73.333,372.000,1.000,11.262,0.000
-649.522,-2093.140,16018.300,10927.630,5350.282,-2091.400,-6120.136,-5273.041,-0.139,0.978,-0.167,-1.099,-0.977,-0.458,73.333,373.000,1.000,0.014,0.000
-871.022,-2292.109,15270.150,10241.120,5146.555,-2259.201,-6266.607,-5432.431,-0.139,0.979,-0.166,-1.099,-0.702,-0.244,73.333,374.000,1.000,2.561,0.000
-1094.033,-2490.754,14524.830,9558.588,4940.822,-2432.628,-6413.139,-5588.775,-0.138,0.981,-0.167,-0.885,-0.580,0.000,73.333,375.000,1.000,0.007,0.000
-1316.395,-2692.302,13782.900,8881.084,4734.638,-2610.089,-6561.836,-5745.284,-0.139,0.978,-0.169,-0.977,-0.488,0.061,73.333,376.000,1.000,8.043,0.000
-1544.124,-2903.313,13036.030,8197.521,4522.793,-2791.418,-6720.570,-5912.604,-0.140,0.975,-0.169,-0.946,-0.305,0.275,73.333,377.000,1.000,2.483,0.000
-1778.668,-3121.289,12284.070,7507.531,4305.019,-2975.680,-6885.763,-6086.850,-0.140,0.969,-0.169,-0.977,-0.183,0.305,73.333,378.000,1.000,3.752,0.000
-2009.254,-3331.616,11540.460,6826.691,4091.835,-3156.003,-7043.666,-6253.189,-0.139,0.969,-0.169,-0.854,-0.061,0.305,73.333,379.000,1.000,11.874,0.000
-2233.091,-3533.219,10807.240,6157.588,3885.477,-3331.383,-7193.592,-6410.220,-0.140,0.973,-0.171,-0.793,-0.031,0.305,73.333,380.000,1.000,0.082,0.000
-2458.351,-3736.316,10073.910,5487.599,3677.631,-3504.679,-7342.531,-6567.812,-0.137,0.980,-0.172,-0.824,0.183,0.305,73.333,381.000,1.000,1.845,0.000
-2685.663,-3940.842,9338.502,4813.245,3467.141,-3675.831,-7490.968,-6729.516,-0.136,0.988,-0.171,-0.946,0.275,0.275,73.333,382.000,1.000,9.982,0.000
-2906.635,-4140.291,8608.810,4143.670,3261.461,-3843.639,-7636.606,-6888.974,-0.137,0.992,-0.167,-1.190,0.336,0.122,73.333,383.000,1.000,2.467,0.000
-3120.092,-4334.363,7888.114,3484.169,3063.242,-4006.600,-7777.775,-7040.470,-0.137,0.993,-0.165,-1.495,0.305,0.031,73.333,384.000,1.000,8.073,0.000
-3332.448,-4525.903,7173.120,2831.643,2869.650,-4163.265,-7913.516,-7185.850,-0.135,0.990,-0.166,-1.984,0.519,-0.092,73.333,385.000,1.000,0.010,0.000
-3547.433,-4717.528,6459.202,2181.285,2675.511,-4320.547,-8049.810,-7332.751,-0.135,0.986,-0.167,-2.197,0.824,-0.214,73.333,386.000,1.000,1.880,0.000
-3766.914,-4913.453,5741.667,1527.170,2473.085,-4489.996,-8193.637,-7488.713,-0.134,0.984,-0.169,-2.411,0.854,-0.336,73.333,387.000,1.000,2.492,0.000
-3990.500,-5115.487,5021.075,868.355,2262.933,-4668.732,-8343.008,-7650.704,-0.136,0.981,-0.167,-2.594,1.068,-0.580,73.333,388.000,1.000,2.535,0.000
-4214.242,-5321.773,4302.304,210.678,2053.289,-4848.639,-8495.323,-7811.289,-0.138,0.980,-0.167,-2.686,1.282,-0.793,73.333,389.000,1.000,2.459,0.000
-4434.168,-5528.530,3588.105,-442.108,1847.572,-5028.013,-8650.382,-7970.124,-0.139,0.980,-0.163,-2.747,1.373,-1.099,73.333,390.000,1.000,28.840,0.000
-4653.664,-5734.835,2875.192,-1094.139,1641.333,-5207.832,-8807.942,-8129.889,-0.140,0.980,-0.160,-2.716,1.587,-1.312,73.333,391.000,1.000,3.022,0.000
-4876.948,-5939.341,2162.731,-1747.387,1432.778,-5384.651,-8962.510,-8289.065,-0.141,0.979,-0.163,-2.655,1.617,-1.465,73.333,392.000,1.000,0.010,0.000
-5097.262,-6136.617,1458.846,-2393.318,1229.385,-5551.858,-9105.986,-8442.847,-0.139,0.977,-0.165,-2.533,1.526,-1.617,73.333,393.000,1.000,4.427,0.000
-5307.905,-6326.625,766.229,-3027.346,1035.228,-5712.674,-9241.893,-8591.332,-0.141,0.977,-0.165,-2.472,1.678,-1.801,73.333,394.000,1.000,2.457,0.000
-5513.490,-6515.675,77.012,-3656.323,843.750,-5874.867,-9379.602,-8738.717,-0.140,0.975,-0.163,-2.502,1.648,-1.770,73.333,395.000,1.000,2.583,0.000
-5723.146,-6707.989,-615.584,-4289.128,648.023,-6039.089,-9520.369,-8888.701,-0.141,0.976,-0.165,-2.350,1.709,-1.801,73.333,396.000,1.000,2.444,0.000
-5937.855,-6901.413,-1309.120,-4925.057,449.813,-6202.187,-9660.332,-9041.103,-0.145,0.977,-0.165,-2.228,1.770,-1.648,73.333,397.000,1.000,2.503,0.000
-6151.284,-7091.507,-1997.602,-5556.487,254.818,-6362.552,-9797.591,-9190.646,-0.143,0.977,-0.163,-2.319,1.923,-1.556,73.333,398.000,1.000,2.445,0.000
-6360.442,-7278.316,-2680.941,-6180.688,64.295,-6520.492,-9932.590,-9334.321,-0.144,0.978,-0.164,-2.197,1.862,-1.526,73.333,399.000,1.000,2.519,0.000
-6565.989,-7464.776,-3360.530,-6799.306,-122.762,-6677.070,-10065.880,-9475.540,-0.143,0.980,-0.167,-2.106,1.801,-1.404,73.333,400.000,1.000,2.517,0.000
-6770.193,-7651.750,-4036.521,-7416.048,-307.424,-6832.342,-10197.320,-9617.221,-0.144,0.978,-0.164,-2.045,1.984,-1.221,73.333,401.000,1.000,2.479,0.000
-6977.558,-7838.821,-4712.674,-8035.215,-494.282,-6987.333,-10329.730,-9760.027,-0.144,0.976,-0.165,-2.014,1.953,-1.221,73.333,402.000,1.000,2.483,0.000
-7189.375,-8026.342,-5391.560,-8656.630,-687.047,-7145.038,-10467.730,-9907.980,-0.146,0.973,-0.167,-1.984,1.801,-1.129,73.333,403.000,1.000,3.131,0.000
-7398.798,-8212.088,-6066.609,-9273.206,-879.468,-7302.678,-10607.600,-10058.300,-0.148,0.969,-0.170,-1.953,1.740,-0.885,73.333,404.000,1.000,0.012,0.000
-7602.800,-8396.294,-6734.038,-9883.770,-1066.455,-7457.837,-10744.430,-10204.920,-0.146,0.969,-0.167,-1.770,1.678,-0.763,73.333,405.000,1.000,2.486,0.000
-7808.325,-8584.213,-7401.423,-10498.090,-1254.978,-7616.430,-10882.800,-10353.760,-0.149,0.965,-0.170,-1.617,1.648,-0.641,73.333,406.000,1.000,0.004,0.000
-8016.354,-8774.365,-8070.092,-11116.130,-1447.498,-7779.702,-11023.720,-10506.520,-0.148,0.963,-0.171,-1.526,1.648,-0.488,73.333,407.000,1.000,8.202,0.000
-8221.109,-8960.628,-8733.153,-11727.550,-1637.546,-7942.032,-11161.130,-10653.930,-0.147,0.961,-0.172,-1.404,1.587,-0.427,73.333,408.000,1.000,3.732,0.000
-8419.772,-9141.407,-9389.225,-12327.640,-1822.319,-8101.603,-11294.290,-10792.960,-0.147,0.958,-0.171,-1.251,1.648,-0.549,73.333,409.000,1.000,14.335,0.000
-8612.222,-9318.509,-10040.750,-12918.640,-2002.438,-8259.028,-11425.420,-10929.350,-0.144,0.960,-0.171,-1.068,1.587,-0.519,73.333,410.000,1.000,0.018,0.000
-8804.802,-9496.847,-10692.320,-13508.810,-2182.965,-8415.253,-11556.720,-11069.340,-0.140,0.962,-0.172,-0.854,1.678,-0.549,73.333,411.000,1.000,1.822,0.000
-9005.275,-9680.750,-11348.320,-14105.960,-2370.884,-8574.194,-11692.100,-11213.260,-0.141,0.964,-0.174,-0.671,1.770,-0.549,73.333,412.000,1.000,6.281,0.000
-9209.325,-9866.066,-12003.850,-14706.000,-2561.646,-8733.332,-11827.340,-11355.590,-0.142,0.967,-0.173,-0.427,1.831,-0.610,73.333,413.000,1.000,2.474,0.000
-9410.995,-10049.020,-12654.100,-15302.120,-2748.839,-8887.261,-11958.580,-11496.840,-0.145,0.969,-0.176,-0.458,1.862,-0.458,73.333,414.000,1.000,5.008,0.000
-9609.942,-10230.000,-13300.540,-15893.600,-2932.820,-9036.824,-12088.340,-11639.920,-0.144,0.971,-0.178,-0.427,1.953,-0.427,73.333,415.000,1.000,2.480,0.000
-9805.322,-10407.800,-13943.260,-16481.010,-3113.833,-9183.895,-12215.090,-11781.020,-0.142,0.970,-0.176,-0.427,1.862,-0.366,73.333,416.000,1.000,7.495,0.000
-9999.766,-10584.210,-14582.790,-17066.380,-3294.748,-9330.345,-12340.180,-11918.470,-0.143,0.968,-0.177,-0.427,1.740,-0.275,73.333,417.000,1.000,2.514,0.000
-10194.840,-10761.140,-15219.790,-17650.230,-3476.760,-9477.293,-12467.470,-12052.840,-0.144,0.973,-0.177,-0.458,1.801,-0.153,73.333,418.000,1.000,3.082,0.000
-10386.730,-10937.050,-15853.540,-18229.810,-3655.416,-9623.148,-12594.440,-12184.290,-0.144,0.974,-0.179,-0.549,1.831,-0.061,73.333,419.000,1.000,0.010,0.000
-10574.550,-11111.170,-16484.820,-18804.050,-3829.997,-9768.204,-12718.370,-12314.300,-0.147,0.976,-0.176,-0.580,1.740,-0.092,73.333,420.000,1.000,4.475,0.000
-10762.850,-11284.140,-17114.720,-19375.310,-4006.211,-9916.441,-12842.220,-12444.460,-0.146,0.979,-0.179,-0.793,1.495,-0.092,73.333,421.000,1.000,2.461,0.000
-10955.680,-11456.580,-17743.330,-19946.000,-4186.517,-10067.180,-12968.370,-12576.080,-0.149,0.979,-0.178,-1.038,1.373,-0.183,73.333,422.000,1.000,9.312,0.000
-11152.180,-11630.210,-18370.990,-20515.930,-4367.833,-10215.630,-13094.960,-12709.060,-0.148,0.979,-0.180,-1.282,1.190,-0.122,73.333,423.000,1.000,0.041,0.000
-11347.000,-11805.920,-18996.410,-21084.260,-4546.193,-10360.840,-13218.220,-12841.930,-0.151,0.980,-0.180,-1.465,0.946,-0.305,73.333,424.000,1.000,4.988,0.000
-11535.650,-11979.900,-19615.960,-21649.030,-4718.763,-10504.470,-13335.550,-12971.520,-0.151,0.980,-0.180,-1.648,0.824,-0.336,73.333,425.000,1.000,0.024,0.000
-11719.800,-12148.370,-20228.700,-22208.720,-4887.734,-10646.470,-13449.140,-13096.010,-0.149,0.980,-0.182,-1.892,0.519,-0.336,73.333,426.000,1.000,1.749,0.000
-11908.190,-12317.920,-20841.770,-22770.550,-5062.855,-10792.770,-13570.040,-13224.060,-0.148,0.979,-0.179,-2.167,0.397,-0.427,73.333,427.000,1.000,8.751,0.000
-12106.460,-12497.710,-21463.680,-23341.540,-5250.777,-10952.420,-13706.790,-13364.380,-0.142,0.975,-0.180,-2.411,0.183,-0.458,73.333,428.000,1.000,9.350,0.000
-12305.650,-12681.580,-22088.160,-23913.050,-5441.682,-11116.780,-13848.770,-13509.130,-0.138,0.973,-0.182,-2.655,0.031,-0.366,73.333,429.000,1.000,0.013,0.000
-12493.360,-12856.700,-22700.810,-24472.850,-5620.935,-11268.700,-13981.100,-13646.970,-0.134,0.970,-0.181,-2.869,0.061,-0.214,73.333,430.000,1.000,2.442,0.000
-12671.310,-13021.840,-23300.550,-25022.180,-5788.269,-11407.470,-14100.530,-13777.130,-0.130,0.969,-0.180,-2.930,0.183,-0.183,73.333,431.000,1.000,0.013,0.000
-12850.700,-13185.240,-23898.360,-25570.260,-5955.002,-11545.480,-14214.280,-13905.870,-0.126,0.967,-0.181,-2.991,0.519,-0.214,73.333,432.000,1.000,24.519,0.000
-13034.880,-13351.810,-24500.120,-26120.830,-6128.325,-11689.450,-14335.300,-14039.570,-0.125,0.965,-0.178,-3.052,0.854,-0.122,73.333,433.000,1.000,3.466,0.000
-13216.710,-13518.040,-25100.850,-26670.010,-6303.588,-11834.490,-14463.770,-14175.750,-0.128,0.963,-0.182,-3.052,1.160,-0.031,73.333,434.000,1.000,0.008,0.000
-13395.300,-13682.700,-25696.490,-27215.610,-6476.770,-11977.940,-14591.960,-14309.950,-0.129,0.961,-0.180,-2.991,1.434,-0.092,73.333,435.000,1.000,0.003,0.000
-13578.500,-13851.300,-26291.150,-27761.260,-6652.852,-12124.170,-14722.600,-14446.290,-0.130,0.960,-0.182,-2.869,1.678,-0.061,73.333,436.000,1.000,7.617,0.000
-13763.790,-14020.110,-26884.080,-28305.500,-6829.033,-12268.200,-14850.950,-14582.320,-0.133,0.960,-0.179,-2.747,1.831,-0.031,73.333,437.000,1.000,0.010,0.000
-13941.250,-14179.400,-27467.790,-28840.660,-6994.266,-12400.750,-14964.030,-14707.660,-0.135,0.965,-0.181,-2.625,1.953,-0.061,73.333,438.000,1.000,0.004,0.000
-14112.200,-14332.490,-28043.260,-29367.160,-7150.151,-12525.800,-15066.550,-14822.960,-0.137,0.968,-0.176,-2.441,1.984,0.000,73.333,439.000,1.000,2.605,0.000
-14283.290,-14488.230,-28617.450,-29890.960,-7306.333,-12654.150,-15171.350,-14935.500,-0.141,0.971,-0.177,-2.319,2.075,0.183,73.333,440.000,1.000,2.456,0.000
-14456.070,-14648.480,-29193.800,-30414.440,-7466.697,-12790.870,-15283.270,-15049.870,-0.143,0.974,-0.177,-2.350,2.106,0.092,73.333,441.000,1.000,2.500,0.000
-14630.210,-14809.800,-29771.150,-30938.020,-7629.656,-12930.490,-15400.960,-15167.300,-0.143,0.976,-0.180,-2.441,1.953,0.000,73.333,442.000,1.000,2.511,0.000
-14807.130,-14970.660,-30348.110,-31463.130,-7794.757,-13069.120,-15519.440,-15288.670,-0.140,0.974,-0.178,-2.441,1.892,-0.031,73.333,443.000,1.000,14.406,0.000
-14987.000,-15132.530,-30925.530,-31989.990,-7963.375,-13210.210,-15637.340,-15415.400,-0.139,0.971,-0.178,-2.319,1.770,0.000,73.333,444.000,1.000,0.014,0.000
-15165.070,-15292.940,-31500.540,-32514.870,-8131.188,-13350.020,-15753.420,-15541.880,-0.138,0.973,-0.178,-2.350,1.678,0.153,73.333,445.000,1.000,2.470,0.000
-15337.680,-15448.080,-32068.710,-33033.880,-8292.225,-13481.580,-15863.200,-15661.110,-0.137,0.974,-0.179,-2.258,1.648,0.214,73.333,446.000,1.000,0.012,0.000
-15507.930,-15600.390,-32632.120,-33548.500,-8448.805,-13607.960,-15967.910,-15774.360,-0.135,0.977,-0.178,-2.380,1.526,0.244,73.333,447.000,1.000,13.150,0.000
-15683.240,-15758.250,-33198.860,-34066.770,-8611.296,-13739.560,-16077.530,-15892.750,-0.135,0.979,-0.180,-2.563,1.343,0.275,73.333,448.000,1.000,3.060,0.000
-15862.520,-15922.030,-33768.890,-34589.230,-8781.188,-13878.190,-16196.800,-16022.590,-0.136,0.979,-0.178,-2.716,1.343,0.244,73.333,449.000,1.000,0.013,0.000
-16035.040,-16079.970,-34332.190,-35105.130,-8946.125,-14010.850,-16314.240,-16151.810,-0.138,0.980,-0.177,-2.747,1.099,0.305,73.333,450.000,1.000,4.314,0.000
-16199.240,-16228.500,-34886.570,-35611.650,-9102.151,-14133.030,-16422.020,-16270.790,-0.139,0.978,-0.173,-2.991,0.977,0.305,73.333,451.000,1.000,7.589,0.000
-16361.840,-16375.440,-35437.750,-36113.960,-9256.630,-14255.670,-16527.030,-16384.710,-0.141,0.977,-0.170,-3.143,0.824,0.153,73.333,452.000,1.000,2.437,0.000
-16529.190,-16528.170,-35991.780,-36617.430,-9416.755,-14386.380,-16637.200,-16501.570,-0.143,0.975,-0.175,-3.265,0.824,0.092,73.333,453.000,1.000,2.609,0.000
-16704.200,-16688.880,-36551.160,-37125.650,-9584.177,-14525.150,-16753.920,-16623.290,-0.146,0.974,-0.175,-3.448,0.641,-0.183,73.333,454.000,1.000,2.406,0.000
-16880.040,-16850.830,-37108.390,-37632.900,-9750.444,-14664.360,-16869.540,-16742.900,-0.149,0.972,-0.174,-3.510,0.580,-0.488,73.333,455.000,1.000,3.055,0.000
-17050.400,-17008.090,-37657.240,-38132.770,-9909.929,-14796.110,-16978.860,-16857.160,-0.151,0.973,-0.177,-3.479,0.092,-0.732,73.333,456.000,1.000,0.006,0.000
-17220.200,-17166.820,-38205.050,-38631.710,-10071.750,-14930.930,-17094.680,-16978.310,-0.153,0.973,-0.172,-3.540,-0.183,-0.977,73.333,457.000,1.000,4.462,0.000
-17392.470,-17329.830,-38756.270,-39135.220,-10240.070,-15077.640,-17223.350,-17110.550,-0.153,0.974,-0.170,-3.601,-0.458,-1.129,73.333,458.000,1.000,6.296,0.000
-17561.280,-17486.690,-39302.220,-39634.740,-10403.180,-15218.040,-17345.200,-17237.310,-0.150,0.972,-0.167,-3.632,-0.427,-1.282,73.333,459.000,1.000,2.472,0.000
-17725.600,-17634.000,-39839.420,-40124.720,-10557.520,-15341.730,-17449.740,-17351.440,-0.145,0.969,-0.170,-3.540,-0.580,-1.221,73.333,460.000,1.000,3.716,0.000
-17888.830,-17778.360,-40372.180,-40609.960,-10709.930,-15459.900,-17548.600,-17461.010,-0.140,0.966,-0.175,-3.235,-0.427,-1.190,73.333,461.000,1.000,11.875,0.000
-18050.250,-17921.590,-40901.120,-41093.440,-10860.730,-15577.770,-17647.380,-17570.040,-0.135,0.965,-0.171,-3.021,-0.366,-1.160,73.333,462.000,1.000,0.073,0.000
-18208.790,-18062.770,-41425.040,-41572.880,-11006.730,-15694.700,-17741.890,-17676.240,-0.134,0.967,-0.170,-2.747,-0.214,-1.007,73.333,463.000,1.000,2.330,0.000
-18366.170,-18203.130,-41946.050,-42047.580,-11149.870,-15812.120,-17834.740,-17780.140,-0.135,0.969,-0.167,-2.533,-0.061,-0.916,73.333,464.000,1.000,0.014,0.000
-18525.800,-18346.030,-42469.360,-42523.270,-11297.420,-15933.210,-17935.650,-17888.800,-0.137,0.973,-0.162,-2.289,0.244,-0.671,73.333,465.000,1.000,6.958,0.000
-18689.000,-18493.200,-42996.180,-43003.310,-11451.590,-16060.960,-18046.590,-18005.100,-0.139,0.975,-0.165,-2.228,0.519,-0.580,73.333,466.000,1.000,3.699,0.000
-18850.430,-18639.010,-43519.560,-43481.680,-11603.420,-16187.680,-18155.600,-18121.870,-0.139,0.977,-0.166,-2.197,0.641,-0.641,73.333,467.000,1.000,14.446,0.000
-19004.760,-18778.650,-44033.670,-43952.910,-11746.750,-16304.070,-18253.610,-18232.560,-0.140,0.977,-0.166,-2.045,0.916,-0.549,73.333,468.000,1.000,0.022,0.000
-19157.120,-18918.380,-44543.770,-44421.890,-11889.580,-16419.390,-18348.870,-18340.470,-0.142,0.980,-0.165,-2.106,1.068,-0.458,73.333,469.000,1.000,2.401,0.000
-19312.570,-19063.040,-45055.880,-44891.780,-12037.940,-16543.540,-18449.960,-18449.160,-0.144,0.981,-0.166,-2.045,1.099,-0.336,73.333,470.000,1.000,0.011,0.000
-19468.850,-19208.220,-45568.540,-45358.900,-12187.210,-16670.700,-18553.990,-18557.700,-0.145,0.983,-0.167,-2.197,1.251,-0.275,73.333,471.000,1.000,1.960,0.000
-19627.800,-19352.740,-46082.370,-45826.070,-12336.970,-16795.150,-18658.300,-18668.440,-0.146,0.983,-0.165,-2.167,1.373,-0.183,73.333,472.000,1.000,8.702,0.000
-19789.000,-19495.680,-46595.930,-46294.500,-12486.740,-16914.660,-18759.670,-18779.340,-0.149,0.984,-0.167,-2.228,1.190,-0.183,73.333,473.000,1.000,2.539,0.000
-19944.970,-19632.730,-47102.510,-46757.190,-12631.050,-17028.210,-18855.300,-18884.410,-0.152,0.980,-0.165,-2.289,1.129,-0.061,73.333,474.000,1.000,5.055,0.000
-20096.700,-19767.000,-47603.840,-47213.990,-12772.890,-17141.470,-18952.020,-18989.230,-0.152,0.977,-0.168,-2.472,1.099,-0.122,73.333,475.000,1.000,2.400,0.000
-20250.110,-19904.300,-48106.180,-47670.690,-12918.090,-17259.760,-19054.960,-19100.960,-0.151,0.974,-0.172,-2.472,1.038,-0.092,73.333,476.000,1.000,6.831,0.000
-20403.930,-20043.160,-48608.050,-48126.300,-13063.580,-17380.030,-19157.420,-19213.570,-0.149,0.974,-0.175,-2.441,0.854,-0.214,73.333,477.000,1.000,0.008,0.000
-20555.310,-20180.020,-49105.360,-48576.100,-13205.250,-17497.620,-19254.070,-19318.690,-0.150,0.976,-0.172,-2.228,0.671,-0.427,73.333,478.000,1.000,8.766,0.000
-20707.090,-20318.190,-49600.780,-49022.410,-13347.110,-17616.160,-19350.460,-19419.060,-0.149,0.977,-0.172,-2.258,0.549,-0.519,73.333,479.000,1.000,0.013,0.000
-20859.170,-20458.570,-50095.700,-49467.970,-13491.440,-17736.900,-19449.450,-19521.540,-0.147,0.979,-0.170,-2.319,0.275,-0.458,73.333,480.000,1.000,2.452,0.000
-21002.900,-20591.160,-50581.970,-49907.360,-13629.820,-17848.780,-19543.170,-19623.410,-0.146,0.981,-0.169,-2.441,0.122,-0.366,73.333,481.000,1.000,0.004,0.000
-21140.550,-20717.500,-51061.040,-50342.230,-13762.950,-17954.090,-19630.960,-19721.490,-0.146,0.982,-0.172,-2.411,-0.061,-0.366,73.333,482.000,1.000,13.253,0.000
-21283.410,-20849.650,-51543.550,-50781.050,-13900.780,-18067.140,-19722.040,-19821.140,-0.145,0.979,-0.174,-2.533,-0.275,-0.458,73.333,483.000,1.000,2.478,0.000
-21431.400,-20985.490,-52029.210,-51223.090,-14041.420,-18184.490,-19817.820,-19923.990,-0.143,0.974,-0.172,-2.441,-0.488,-0.458,73.333,484.000,1.000,2.493,0.000
-21582.910,-21120.910,-52516.540,-51667.100,-14182.930,-18300.010,-19917.320,-20030.290,-0.140,0.970,-0.173,-2.502,-0.732,-0.549,73.333,485.000,1.000,2.438,0.000
-21738.990,-21258.000,-53006.130,-52112.560,-14328.060,-18417.130,-20020.520,-20139.530,-0.140,0.967,-0.174,-2.441,-0.885,-0.671,73.333,486.000,1.000,3.697,0.000
-21893.730,-21393.450,-53491.730,-52552.580,-14472.260,-18533.040,-20121.070,-20245.440,-0.140,0.964,-0.172,-2.319,-1.129,-0.732,73.333,487.000,1.000,8.086,0.000
-22040.630,-21523.700,-53968.690,-52983.840,-14610.980,-18641.950,-20214.800,-20345.950,-0.143,0.964,-0.176,-2.228,-1.343,-0.916,73.333,488.000,1.000,0.010,0.000
-22181.490,-21652.110,-54440.380,-53410.340,-14747.200,-18746.700,-20304.780,-20443.420,-0.146,0.967,-0.172,-2.197,-1.556,-1.007,73.333,489.000,1.000,12.577,0.000
-22322.960,-21782.900,-54911.860,-53837.290,-14885.250,-18854.170,-20396.040,-20541.010,-0.149,0.967,-0.173,-2.228,-1.770,-1.373,73.333,490.000,1.000,0.009,0.000
-22466.770,-21916.330,-55383.080,-54266.050,-15024.620,-18967.190,-20489.890,-20642.760,-0.148,0.966,-0.171,-2.106,-2.014,-1.770,73.333,491.000,1.000,6.828,0.000
-22607.170,-22047.090,-55848.180,-54690.680,-15159.940,-19078.900,-20580.570,-20745.230,-0.148,0.963,-0.175,-1.953,-2.228,-1.984,73.333,492.000,1.000,5.009,0.000
-22742.550,-22171.180,-56305.630,-55107.490,-15288.990,-19182.170,-20665.120,-20841.850,-0.146,0.959,-0.173,-1.740,-2.625,-2.289,73.333,493.000,1.000,2.516,0.000
-22881.710,-22296.230,-56764.990,-55525.050,-15420.060,-19287.130,-20753.490,-20937.970,-0.142,0.960,-0.171,-1.556,-2.716,-2.563,73.333,494.000,1.000,10.116,0.000
-23029.400,-22429.620,-57233.000,-55950.460,-15560.310,-19404.730,-20853.920,-21039.880,-0.135,0.965,-0.169,-1.465,-2.716,-2.869,73.333,495.000,1.000,2.334,0.000
-23178.190,-22564.700,-57702.480,-56376.730,-15703.420,-19524.030,-20956.670,-21141.400,-0.128,0.968,-0.168,-1.282,-2.594,-3.052,73.333,496.000,1.000,5.035,0.000
-23320.960,-22694.450,-58164.900,-56796.950,-15841.080,-19634.710,-21052.800,-21238.850,-0.125,0.971,-0.167,-1.282,-2.319,-3.113,73.333,497.000,1.000,3.072,0.000
-23459.440,-22822.180,-58621.570,-57213.950,-15975.300,-19744.150,-21148.610,-21336.540,-0.122,0.971,-0.169,-1.282,-1.923,-3.235,73.333,498.000,1.000,0.010,0.000
-23598.090,-22949.550,-59075.690,-57629.160,-16109.880,-19855.590,-21245.050,-21435.160,-0.123,0.970,-0.170,-1.251,-1.617,-3.296,73.333,499.000,1.000,9.427,0.000
-23736.960,-23074.470,-59526.280,-58039.040,-16242.470,-19964.890,-21335.050,-21530.370,-0.128,0.971,-0.171,-1.038,-1.282,-3.357,73.333,500.000,1.000,2.450,0.000
-23874.350,-23198.930,-59973.970,-58443.900,-16371.700,-20072.210,-21419.810,-21621.920,-0.132,0.973,-0.173,-1.007,-1.068,-3.357,73.333,501.000,1.000,2.591,0.000
-24010.770,-23324.520,-60421.300,-58847.250,-16500.100,-20176.910,-21504.040,-21715.220,-0.134,0.977,-0.174,-1.007,-0.854,-3.204,73.333,502.000,1.000,2.473,0.000
-24146.870,-23449.250,-60867.580,-59249.720,-16628.040,-20277.080,-21587.450,-21809.830,-0.138,0.980,-0.173,-1.099,-0.641,-3.204,73.333,503.000,1.000,2.575,0.000
-24281.900,-23571.160,-61309.920,-59650.930,-16754.670,-20375.410,-21669.260,-21902.770,-0.145,0.985,-0.175,-1.129,-0.488,-3.082,73.333,504.000,1.000,4.845,0.000
-24415.500,-23690.740,-61747.640,-60051.750,-16881.490,-20476.160,-21751.400,-21996.870,-0.147,0.984,-0.173,-1.282,-0.397,-2.960,73.333,505.000,1.000,2.537,0.000
-24549.280,-23812.080,-62184.210,-60453.100,-17011.090,-20582.260,-21837.870,-22092.540,-0.150,0.983,-0.177,-1.495,-0.488,-2.869,73.333,506.000,1.000,4.946,0.000
-24682.440,-23935.120,-62620.700,-60852.430,-17141.740,-20690.230,-21927.660,-22185.940,-0.151,0.983,-0.176,-1.709,-0.397,-2.716,73.333,507.000,1.000,3.150,0.000
-24811.060,-24053.710,-63052.500,-61245.570,-17268.130,-20791.340,-22014.610,-22276.610,-0.151,0.987,-0.177,-2.045,-0.366,-2.655,73.333,508.000,1.000,0.013,0.000
-24934.720,-24166.800,-63477.590,-61632.570,-17388.670,-20886.420,-22096.130,-22365.490,-0.152,0.987,-0.178,-2.228,-0.519,-2.472,73.333,509.000,1.000,1.872,0.000
-25058.260,-24279.320,-63900.390,-62017.050,-17506.780,-20981.600,-22173.170,-22452.250,-0.153,0.986,-0.178,-2.502,-0.519,-2.289,73.333,510.000,1.000,3.744,0.000
-25184.040,-24392.930,-64324.040,-62401.260,-17625.460,-21077.520,-22247.150,-22537.280,-0.157,0.984,-0.172,-2.869,-0.580,-2.136,73.333,511.000,1.000,11.851,0.000
-25309.610,-24506.050,-64747.510,-62784.870,-17744.990,-21174.160,-22321.200,-22620.650,-0.156,0.981,-0.172,-3.174,-0.671,-2.014,73.333,512.000,1.000,0.008,0.000
-25436.230,-24620.150,-65171.990,-63169.130,-17867.580,-21272.900,-22403.310,-22708.150,-0.157,0.978,-0.167,-3.448,-0.702,-1.892,73.333,513.000,1.000,9.311,0.000
-25566.030,-24737.020,-65597.850,-63554.570,-17994.530,-21374.470,-22497.170,-22802.900,-0.155,0.976,-0.167,-3.723,-0.732,-1.801,73.333,514.000,1.000,0.011,0.000
-25698.690,-24857.660,-66022.800,-63940.070,-18123.440,-21481.460,-22592.890,-22894.960,-0.155,0.973,-0.172,-3.723,-0.610,-1.709,73.333,515.000,1.000,0.006,0.000
-25835.790,-24983.420,-66448.580,-64327.110,-18255.280,-21595.970,-22684.750,-22982.120,-0.153,0.970,-0.172,-3.906,-0.702,-1.373,73.333,516.000,1.000,10.067,0.000
-25976.680,-25112.340,-66876.380,-64716.080,-18392.350,-21713.540,-22778.760,-23075.140,-0.152,0.968,-0.170,-3.845,-0.580,-1.221,73.333,517.000,1.000,2.491,0.000
-26114.810,-25238.650,-67299.410,-65100.840,-18528.290,-21825.580,-22871.690,-23174.340,-0.153,0.965,-0.173,-3.754,-0.458,-0.885,73.333,518.000,1.000,3.044,0.000
-26244.300,-25357.860,-67711.490,-65476.750,-18653.830,-21925.240,-22954.880,-23269.880,-0.151,0.962,-0.173,-3.693,-0.427,-0.641,73.333,519.000,1.000,0.009,0.000
-26366.150,-25470.460,-68116.050,-65846.980,-18769.620,-22014.330,-23031.490,-23358.670,-0.151,0.961,-0.171,-3.479,-0.305,-0.366,73.333,520.000,1.000,1.912,0.000
-26482.840,-25577.210,-68516.990,-66213.530,-18880.170,-22099.520,-23105.690,-23442.500,-0.150,0.961,-0.172,-3.174,-0.031,-0.092,73.333,521.000,1.000,2.544,0.000
-26596.490,-25679.120,-68914.600,-66576.840,-18987.720,-22182.920,-23176.450,-23522.060,-0.150,0.962,-0.173,-2.930,0.122,0.244,73.333,522.000,1.000,8.806,0.000
-26712.090,-25781.650,-69311.540,-66940.800,-19096.900,-22267.390,-23245.400,-23598.880,-0.150,0.968,-0.173,-2.502,0.427,0.336,73.333,523.000,1.000,6.719,0.000
-26832.130,-25888.750,-69710.040,-67307.270,-19211.300,-22356.200,-23315.950,-23677.190,-0.149,0.968,-0.173,-2.197,0.641,0.549,73.333,524.000,1.000,0.022,0.000
-26952.560,-25997.270,-70107.580,-67672.090,-19327.670,-22445.520,-23389.070,-23759.090,-0.148,0.967,-0.169,-1.984,0.824,0.610,73.333,525.000,1.000,8.226,0.000
-27069.970,-26103.440,-70502.090,-68031.580,-19442.370,-22533.280,-23463.610,-23841.890,-0.149,0.966,-0.170,-1.801,1.099,0.702,73.333,526.000,1.000,9.877,0.000
-27188.210,-26210.080,-70896.470,-68388.340,-19558.010,-22625.130,-23540.160,-23924.320,-0.149,0.972,-0.172,-1.678,1.434,0.824,73.333,527.000,1.000,0.009,0.000
-27308.970,-26318.650,-71290.830,-68744.440,-19675.040,-22721.550,-23617.810,-24004.920,-0.149,0.977,-0.171,-1.526,1.648,0.854,73.333,528.000,1.000,0.003,0.000
-27427.430,-26425.190,-71681.010,-69097.380,-19788.550,-22814.230,-23691.730,-24081.460,-0.148,0.980,-0.171,-1.526,1.862,0.763,73.333,529.000,1.000,3.132,0.000
-27542.530,-26528.890,-72066.570,-69447.030,-19898.070,-22899.490,-23762.610,-24158.680,-0.148,0.984,-0.171,-1.465,1.984,0.916,73.333,530.000,1.000,0.010,0.000
-27659.180,-26633.760,-72451.430,-69798.110,-20008.610,-22986.260,-23836.380,-24240.440,-0.148,0.985,-0.174,-1.587,2.167,0.854,73.333,531.000,1.000,2.003,0.000
-27779.520,-26741.160,-72837.230,-70150.980,-20121.800,-23080.550,-23914.700,-24321.660,-0.148,0.983,-0.172,-1.617,2.258,0.793,73.333,532.000,1.000,8.697,0.000
-27900.570,-26848.770,-73222.330,-70501.210,-20235.710,-23176.730,-23993.910,-24401.700,-0.149,0.979,-0.175,-1.709,2.289,0.854,73.333,533.000,1.000,9.300,0.000
-28020.650,-26956.410,-73606.230,-70848.590,-20349.930,-23271.550,-24069.860,-24484.020,-0.151,0.974,-0.176,-1.740,2.167,0.885,73.333,534.000,1.000,0.009,0.000
-28139.540,-27065.250,-73988.900,-71195.910,-20464.790,-23365.950,-24143.740,-24567.820,-0.148,0.971,-0.176,-1.801,2.167,0.732,73.333,535.000,1.000,8.776,0.000
-28254.470,-27172.950,-74367.130,-71541.680,-20578.750,-23458.000,-24218.150,-24651.820,-0.147,0.969,-0.175,-1.831,2.075,0.671,73.333,536.000,1.000,0.010,0.000
-28363.850,-27275.760,-74738.500,-71881.630,-20689.660,-23544.590,-24290.330,-24732.750,-0.149,0.969,-0.178,-1.892,2.045,0.488,73.333,537.000,1.000,4.988,0.000
-28473.050,-27376.620,-75108.550,-72218.120,-20799.960,-23628.460,-24360.920,-24809.340,-0.148,0.972,-0.177,-1.923,1.892,0.366,73.333,538.000,1.000,0.008,0.000
-28586.940,-27479.670,-75482.440,-72555.730,-20912.180,-23715.260,-24433.520,-24885.400,-0.144,0.975,-0.177,-1.892,1.801,0.183,73.333,539.000,1.000,4.344,0.000
-28705.880,-27585.030,-75859.880,-72896.430,-21026.380,-23806.250,-24508.130,-24965.070,-0.143,0.975,-0.177,-2.014,1.587,0.122,73.333,540.000,1.000,5.039,0.000
-28828.300,-27692.300,-76238.760,-73239.780,-21142.340,-23897.120,-24583.760,-25047.960,-0.145,0.972,-0.181,-2.136,1.343,-0.061,73.333,541.000,1.000,2.523,0.000
-28943.380,-27792.460,-76608.630,-73575.300,-21251.430,-23977.950,-24652.280,-25123.250,-0.146,0.973,-0.181,-2.380,1.190,-0.214,73.333,542.000,1.000,8.745,0.000
-29045.270,-27881.470,-76964.170,-73897.090,-21348.930,-24049.100,-24709.640,-25185.490,-0.148,0.968,-0.180,-2.441,0.977,-0.336,73.333,543.000,1.000,5.579,0.000
-29144.510,-27971.740,-77316.500,-74215.380,-21445.930,-24123.910,-24767.260,-25247.650,-0.147,0.968,-0.178,-2.563,0.732,-0.580,73.333,544.000,1.000,0.008,0.000
-29246.130,-28067.430,-77671.340,-74536.230,-21548.430,-24205.060,-24830.780,-25317.540,-0.149,0.971,-0.179,-2.686,0.336,-0.671,73.333,545.000,1.000,1.927,0.000
-29349.100,-28164.760,-78026.800,-74858.770,-21654.080,-24287.710,-24897.200,-25390.990,-0.149,0.973,-0.179,-2.930,-0.092,-0.854,73.333,546.000,1.000,2.418,0.000
-29458.080,-28268.140,-78386.770,-75185.960,-21764.220,-24375.340,-24969.150,-25469.880,-0.147,0.974,-0.181,-3.052,-0.549,-1.038,73.333,547.000,1.000,3.800,0.000
-29573.400,-28377.180,-78751.860,-75517.440,-21877.280,-24467.040,-25043.450,-25554.010,-0.148,0.977,-0.176,-3.235,-0.916,-1.312,73.333,548.000,1.000,8.743,0.000
-29686.440,-28480.900,-79112.550,-75845.050,-21985.220,-24552.630,-25110.200,-25632.920,-0.150,0.979,-0.175,-3.418,-1.343,-1.526,73.333,549.000,1.000,3.118,0.000
-29791.780,-28574.860,-79462.520,-76164.090,-22085.260,-24632.290,-25175.490,-25702.250,-0.149,0.978,-0.172,-3.693,-1.648,-1.770,73.333,550.000,1.000,0.017,0.000
-29893.960,-28665.880,-79807.120,-76478.690,-22184.680,-24716.250,-25251.540,-25770.110,-0.153,0.972,-0.171,-3.906,-1.923,-1.923,73.333,551.000,1.000,28.179,0.000
-30000.400,-28761.060,-80154.090,-76795.450,-22289.580,-24804.320,-25331.740,-25844.570,-0.154,0.965,-0.176,-3.998,-2.197,-2.228,73.333,552.000,1.000,2.455,0.000
-30111.850,-28859.770,-80503.680,-77116.340,-22397.670,-24888.570,-25404.130,-25921.870,-0.152,0.960,-0.177,-3.754,-2.502,-2.289,73.333,553.000,1.000,2.471,0.000
-30225.190,-28959.410,-80853.580,-77437.950,-22506.390,-24973.400,-25474.200,-25995.880,-0.149,0.957,-0.176,-3.418,-2.808,-2.258,73.333,554.000,1.000,2.428,0.000
-30336.850,-29058.550,-81201.680,-77755.300,-22613.280,-25061.390,-25544.520,-26066.970,-0.147,0.957,-0.174,-3.174,-2.930,-2.228,73.333,555.000,1.000,2.600,0.000
-30444.690,-29155.270,-81546.060,-78067.370,-22715.380,-25142.190,-25605.660,-26136.920,-0.141,0.958,-0.170,-2.838,-3.021,-2.167,73.333,556.000,1.000,2.493,0.000
-30551.300,-29251.360,-81888.840,-78377.840,-22816.370,-25219.150,-25663.350,-26208.670,-0.141,0.963,-0.171,-2.777,-3.021,-2.136,73.333,557.000,1.000,2.501,0.000
-30655.200,-29346.260,-82229.150,-78686.240,-22918.160,-25301.930,-25727.780,-26282.520,-0.137,0.966,-0.175,-2.441,-2.838,-1.984,73.333,558.000,1.000,2.460,0.000
-30753.270,-29437.170,-82563.910,-78989.380,-23018.080,-25385.160,-25794.560,-26354.230,-0.137,0.969,-0.175,-2.319,-2.594,-1.892,73.333,559.000,1.000,2.532,0.000
-30849.280,-29525.520,-82894.230,-79287.290,-23115.750,-25461.720,-25856.650,-26421.170,-0.136,0.973,-0.173,-2.014,-2.319,-1.648,73.333,560.000,1.000,2.478,0.000
-30948.400,-29613.770,-83223.330,-79583.730,-23212.610,-25532.640,-25915.010,-26485.800,-0.136,0.975,-0.172,-1.862,-2.045,-1.587,73.333,561.000,1.000,2.547,0.000
-31052.130,-29704.260,-83554.130,-79882.950,-23310.450,-25604.980,-25975.310,-26551.390,-0.138,0.976,-0.170,-1.801,-1.648,-1.404,73.333,562.000,1.000,2.388,0.000
-31154.030,-29794.670,-83882.920,-80180.920,-23406.050,-25680.850,-26037.500,-26615.990,-0.137,0.975,-0.168,-1.709,-1.221,-1.221,73.333,563.000,1.000,3.164,0.000
-31249.160,-29880.600,-84205.550,-80473.200,-23496.350,-25754.000,-26096.910,-26679.020,-0.139,0.975,-0.169,-1.526,-0.824,-1.038,73.333,564.000,1.000,0.008,0.000
-31343.070,-29964.070,-84526.010,-80763.520,-23585.580,-25822.980,-26152.230,-26742.060,-0.140,0.975,-0.172,-1.495,-0.427,-0.732,73.333,565.000,1.000,16.227,0.000
-31438.590,-30047.500,-84845.690,-81052.840,-23674.880,-25890.750,-26204.380,-26802.110,-0.139,0.974,-0.173,-1.404,0.000,-0.519,73.333,566.000,1.000,0.012,0.000
-31534.290,-30132.520,-85163.800,-81341.370,-23764.650,-25961.380,-26258.620,-26861.910,-0.139,0.978,-0.175,-1.343,0.427,-0.275,73.333,567.000,1.000,2.426,0.000
-31634.300,-30223.770,-85486.040,-81635.870,-23861.930,-26040.620,-26323.290,-26931.790,-0.138,0.979,-0.171,-1.282,0.671,-0.153,73.333,568.000,1.000,0.008,0.000
-31737.510,-30318.350,-85811.190,-81934.210,-23965.550,-26124.290,-26393.730,-27008.700,-0.141,0.978,-0.168,-1.312,1.038,0.031,73.333,569.000,1.000,1.981,0.000
-31833.640,-30405.880,-86128.590,-82223.590,-24063.730,-26201.310,-26457.080,-27078.250,-0.142,0.979,-0.168,-1.404,1.434,0.153,73.333,570.000,1.000,2.482,0.000
-31922.960,-30487.380,-86438.570,-82503.870,-24154.600,-26271.250,-26513.490,-27140.010,-0.143,0.979,-0.172,-1.404,2.014,0.336,73.333,571.000,1.000,2.442,0.000
-32017.310,-30573.510,-86751.800,-82788.800,-24247.900,-26343.600,-26572.290,-27205.560,-0.144,0.980,-0.173,-1.617,2.411,0.427,73.333,572.000,1.000,3.867,0.000
-32117.120,-30662.930,-87068.540,-83079.160,-24344.970,-26420.420,-26635.080,-27275.870,-0.148,0.979,-0.171,-1.770,2.533,0.366,73.333,573.000,1.000,14.223,0.000
-32214.260,-30748.540,-87381.640,-83364.310,-24439.530,-26495.120,-26697.710,-27343.290,-0.150,0.979,-0.172,-1.770,2.747,0.366,73.333,574.000,1.000,0.008,0.000
-32307.450,-30832.150,-87689.900,-83643.060,-24530.510,-26565.500,-26757.690,-27407.010,-0.153,0.978,-0.170,-1.801,2.899,0.366,73.333,575.000,1.000,1.936,0.000
-32396.280,-30913.870,-87992.840,-83918.610,-24617.930,-26631.640,-26811.840,-27467.780,-0.153,0.976,-0.173,-1.953,2.960,0.183,73.333,576.000,1.000,4.982,0.000
-32480.220,-30990.690,-88289.410,-84190.350,-24701.000,-26693.370,-26858.990,-27521.430,-0.153,0.977,-0.175,-2.014,2.960,0.061,73.333,577.000,1.000,8.837,0.000
-32559.880,-31062.690,-88579.930,-84454.230,-24779.250,-26752.250,-26901.140,-27567.060,-0.153,0.980,-0.177,-2.075,3.082,-0.031,73.333,578.000,1.000,2.501,0.000
-32639.010,-31135.170,-88868.800,-84715.160,-24857.250,-26812.870,-26945.270,-27615.390,-0.154,0.978,-0.176,-2.411,2.838,0.031,73.333,579.000,1.000,5.543,0.000
-32724.760,-31214.470,-89162.230,-84984.450,-24942.830,-26879.920,-26998.160,-27675.370,-0.157,0.977,-0.177,-2.594,2.655,0.122,73.333,580.000,1.000,0.007,0.000
-32816.170,-31298.080,-89458.980,-85258.420,-25035.050,-26952.020,-27056.480,-27741.490,-0.159,0.972,-0.179,-2.808,2.350,0.153,73.333,581.000,1.000,1.915,0.000
-32906.320,-31380.080,-89754.100,-85525.630,-25127.100,-27023.920,-27114.540,-27805.300,-0.157,0.971,-0.177,-2.869,2.106,0.244,73.333,582.000,1.000,2.488,0.000
-32996.860,-31462.780,-90049.620,-85789.160,-25218.520,-27095.470,-27173.600,-27866.930,-0.156,0.971,-0.179,-3.021,1.801,0.122,73.333,583.000,1.000,2.475,0.000
-33091.680,-31549.100,-90348.010,-86056.640,-25310.540,-27168.450,-27233.250,-27927.710,-0.156,0.972,-0.177,-3.174,1.617,0.183,73.333,584.000,1.000,6.243,0.000
-33185.450,-31633.130,-90643.630,-86322.110,-25398.870,-27238.290,-27287.290,-27984.210,-0.156,0.973,-0.176,-3.204,1.251,0.061,73.333,585.000,1.000,3.083,0.000
-33274.860,-31711.880,-90934.460,-86581.440,-25483.730,-27303.170,-27337.410,-28038.600,-0.157,0.974,-0.177,-3.265,0.916,0.092,73.333,586.000,1.000,0.007,0.000
-33361.480,-31787.390,-91222.580,-86839.180,-25567.670,-27364.220,-27387.550,-28095.110,-0.159,0.974,-0.178,-3.510,0.610,-0.031,73.333,587.000,1.000,8.186,0.000
-33447.490,-31861.730,-91508.150,-87098.020,-25650.590,-27421.700,-27436.120,-28153.090,-0.158,0.973,-0.178,-3.540,0.183,0.031,73.333,588.000,1.000,2.438,0.000
-33532.820,-31936.580,-91791.210,-87356.750,-25732.700,-27479.920,-27481.970,-28209.400,-0.158,0.970,-0.178,-3.510,-0.275,-0.031,73.333,589.000,1.000,8.842,0.000
-33615.230,-32011.450,-92071.630,-87612.850,-25814.320,-27545.450,-27528.870,-28263.580,-0.155,0.966,-0.177,-3.448,-0.610,-0.153,73.333,590.000,1.000,2.999,0.000
-33697.780,-32087.220,-92350.950,-87866.960,-25897.480,-27618.980,-27585.160,-28321.180,-0.158,0.966,-0.178,-3.357,-1.007,-0.366,73.333,591.000,1.000,0.006,0.000
-33782.330,-32163.060,-92628.480,-88120.030,-25981.930,-27691.770,-27647.600,-28380.790,-0.156,0.966,-0.177,-3.296,-1.404,-0.549,73.333,592.000,1.000,1.887,0.000
-33864.820,-32235.770,-92901.200,-88370.460,-26064.470,-27758.050,-27705.900,-28435.870,-0.154,0.962,-0.177,-3.113,-1.770,-0.580,73.333,593.000,1.000,13.783,0.000
-33944.630,-32306.410,-93171.450,-88617.730,-26145.630,-27822.050,-27761.060,-28489.180,-0.155,0.962,-0.177,-2.930,-2.075,-0.641,73.333,594.000,1.000,2.517,0.000
-34028.310,-32380.630,-93445.840,-88864.680,-26230.390,-27888.370,-27816.230,-28546.160,-0.151,0.962,-0.176,-2.655,-2.411,-0.854,73.333,595.000,1.000,7.455,0.000
-34119.310,-32460.770,-93725.100,-89113.050,-26319.730,-27955.240,-27868.170,-28605.030,-0.152,0.965,-0.177,-2.502,-2.716,-0.824,73.333,596.000,1.000,2.566,0.000
-34211.520,-32542.080,-94002.770,-89360.460,-26407.660,-28020.060,-27916.500,-28661.630,-0.152,0.966,-0.175,-2.350,-2.960,-0.885,73.333,597.000,1.000,3.099,0.000
-34298.210,-32619.720,-94274.610,-89604.450,-26489.950,-28085.110,-27965.390,-28714.890,-0.152,0.967,-0.175,-2.167,-3.235,-0.885,73.333,598.000,1.000,0.007,0.000
-34378.960,-32692.040,-94541.410,-89845.400,-26567.980,-28149.210,-28014.560,-28765.540,-0.151,0.969,-0.175,-2.106,-3.448,-0.916,73.333,599.000,1.000,1.887,0.000
-34456.740,-32760.650,-94806.060,-90085.510,-26645.420,-28208.200,-28061.680,-28815.010,-0.148,0.968,-0.175,-2.045,-3.479,-0.916,73.333,600.000,1.000,3.775,0.000
-34532.290,-32828.700,-95068.900,-90324.680,-26723.180,-28264.680,-28107.280,-28863.990,-0.145,0.968,-0.171,-1.953,-3.632,-0.793,73.333,601.000,1.000,11.830,0.000
-34604.220,-32897.180,-95328.130,-90559.910,-26799.470,-28323.320,-28152.430,-28912.400,-0.144,0.968,-0.176,-1.801,-3.662,-0.793,73.333,602.000,1.000,0.014,0.000
-34675.870,-32967.680,-95585.840,-90793.070,-26875.890,-28384.810,-28198.660,-28962.310,-0.142,0.971,-0.174,-1.678,-3.571,-0.702,73.333,603.000,1.000,4.904,0.000
-34752.240,-33040.600,-95844.300,-91027.570,-26953.940,-28445.160,-28245.580,-29013.760,-0.142,0.972,-0.175,-1.678,-3.510,-0.641,73.333,604.000,1.000,0.006,0.000
-34832.780,-33112.530,-96101.980,-91261.540,-27030.980,-28501.840,-28291.750,-29064.860,-0.141,0.972,-0.177,-1.617,-3.326,-0.488,73.333,605.000,1.000,1.903,0.000
-34913.930,-33181.130,-96356.800,-91492.410,-27104.200,-28557.870,-28335.630,-29114.640,-0.141,0.973,-0.175,-1.495,-3.021,-0.397,73.333,606.000,1.000,6.348,0.000
-34992.310,-33246.040,-96607.070,-91717.210,-27172.370,-28613.200,-28375.320,-29160.950,-0.142,0.975,-0.173,-1.587,-2.777,-0.336,73.333,607.000,1.000,2.478,0.000
-35068.180,-33310.000,-96854.660,-91937.230,-27239.650,-28666.820,-28413.160,-29206.070,-0.138,0.977,-0.174,-1.587,-2.625,-0.244,73.333,608.000,1.000,2.495,0.000
-35145.990,-33377.870,-97104.800,-92160.660,-27313.490,-28722.440,-28453.270,-29255.260,-0.137,0.980,-0.174,-1.709,-2.258,-0.214,73.333,609.000,1.000,8.692,0.000
-35226.090,-33449.510,-97357.630,-92389.900,-27393.720,-28782.620,-28498.260,-29309.420,-0.135,0.981,-0.174,-1.801,-1.984,-0.092,73.333,610.000,1.000,3.107,0.000
-35303.290,-33519.050,-97607.690,-92619.030,-27473.400,-28844.250,-28546.870,-29364.410,-0.133,0.981,-0.175,-2.075,-1.495,0.092,73.333,611.000,1.000,0.006,0.000
-35376.390,-33584.030,-97853.550,-92845.770,-27550.720,-28903.040,-28595.060,-29417.650,-0.129,0.981,-0.172,-2.167,-1.068,0.153,73.333,612.000,1.000,1.957,0.000
-35448.320,-33648.150,-98098.270,-93070.470,-27627.580,-28959.210,-28641.560,-29469.780,-0.128,0.980,-0.174,-2.411,-0.519,0.183,73.333,613.000,1.000,16.828,0.000
-35519.070,-33713.450,-98342.490,-93291.090,-27703.490,-29015.520,-28688.170,-29521.260,-0.129,0.978,-0.170,-2.716,0.000,0.366,73.333,614.000,1.000,0.021,0.000
-35586.090,-33777.740,-98584.080,-93506.830,-27777.600,-29071.810,-28735.210,-29570.100,-0.130,0.979,-0.171,-2.838,0.519,0.549,73.333,615.000,1.000,1.937,0.000
-35649.680,-33839.790,-98821.450,-93719.260,-27848.490,-29126.060,-28778.770,-29613.400,-0.133,0.979,-0.172,-2.991,1.129,0.610,73.333,616.000,1.000,2.397,0.000
-35716.250,-33903.410,-99058.340,-93934.090,-27918.700,-29180.940,-28819.920,-29657.080,-0.134,0.981,-0.173,-3.052,1.465,0.702,73.333,617.000,1.000,2.546,0.000
-35790.520,-33970.730,-99298.430,-94154.920,-27992.940,-29238.020,-28864.290,-29706.890,-0.139,0.981,-0.173,-3.265,1.831,0.793,73.333,618.000,1.000,2.497,0.000
-35868.170,-34037.300,-99538.510,-94375.450,-28069.350,-29294.110,-28912.190,-29759.820,-0.142,0.981,-0.175,-3.448,2.136,0.793,73.333,619.000,1.000,14.998,0.000
-35944.650,-34100.650,-99775.810,-94590.950,-28144.230,-29347.900,-28959.570,-29811.640,-0.143,0.979,-0.173,-3.632,2.472,0.824,73.333,620.000,1.000,0.012,0.000
-36016.730,-34160.480,-100008.500,-94800.660,-28214.340,-29397.940,-29000.620,-29857.570,-0.145,0.978,-0.172,-3.845,2.747,0.732,73.333,621.000,1.000,0.004,0.000
-36082.720,-34217.500,-100236.100,-95005.310,-28279.350,-29444.050,-29033.930,-29897.150,-0.148,0.976,-0.169,-3.876,2.838,0.641,73.333,622.000,1.000,2.516,0.000
-36148.670,-34277.070,-100464.100,-95210.270,-28346.280,-29492.740,-29066.830,-29935.870,-0.148,0.973,-0.171,-3.967,2.960,0.488,73.333,623.000,1.000,2.464,0.000
-36219.160,-34342.110,-100695.400,-95416.620,-28419.480,-29549.440,-29108.060,-29978.950,-0.150,0.971,-0.171,-3.998,2.991,0.305,73.333,624.000,1.000,5.019,0.000
-36290.600,-34408.510,-100926.400,-95621.660,-28494.180,-29607.790,-29156.220,-30027.720,-0.149,0.969,-0.170,-3.937,3.052,0.122,73.333,625.000,1.000,2.450,0.000
-36358.230,-34471.000,-101153.300,-95825.200,-28564.440,-29659.130,-29201.060,-30076.000,-0.148,0.968,-0.171,-3.906,3.052,-0.031,73.333,626.000,1.000,6.306,0.000
-36422.410,-34529.090,-101376.700,-96026.970,-28630.600,-29708.180,-29239.200,-30118.770,-0.145,0.965,-0.170,-3.662,3.021,-0.153,73.333,627.000,1.000,9.274,0.000
-36483.490,-34582.750,-101596.200,-96222.910,-28693.280,-29757.410,-29271.470,-30155.050,-0.145,0.967,-0.173,-3.632,2.991,-0.183,73.333,628.000,1.000,0.011,0.000
-36542.760,-34634.700,-101811.600,-96413.430,-28752.550,-29801.450,-29298.590,-30186.190,-0.147,0.965,-0.168,-3.448,2.930,-0.183,73.333,629.000,1.000,1.897,0.000
-36604.100,-34689.750,-102025.600,-96605.040,-28812.450,-29843.230,-29327.600,-30218.750,-0.148,0.963,-0.169,-3.235,2.838,-0.122,73.333,630.000,1.000,3.782,0.000
-36667.530,-34745.760,-102238.400,-96799.690,-28876.220,-29887.890,-29363.370,-30258.160,-0.152,0.963,-0.168,-3.082,2.686,-0.183,73.333,631.000,1.000,11.773,0.000
-36733.260,-34801.370,-102450.900,-96996.110,-28944.770,-29935.470,-29404.290,-30303.670,-0.154,0.966,-0.166,-2.960,2.502,-0.305,73.333,632.000,1.000,0.023,0.000
-36802.280,-34859.610,-102666.000,-97192.500,-29016.400,-29985.580,-29448.020,-30350.700,-0.156,0.965,-0.169,-2.777,2.258,-0.275,73.333,633.000,1.000,10.042,0.000
-36870.010,-34917.370,-102880.600,-97385.420,-29084.260,-30034.760,-29488.070,-30393.600,-0.159,0.966,-0.172,-2.563,1.984,-0.183,73.333,634.000,1.000,0.013,0.000
-36933.220,-34971.100,-103090.200,-97574.090,-29144.680,-30079.950,-29519.820,-30431.540,-0.161,0.966,-0.172,-2.472,1.556,-0.305,73.333,635.000,1.000,1.852,0.000
-36996.250,-35027.410,-103298.900,-97762.640,-29205.100,-30127.150,-29551.680,-30469.630,-0.167,0.968,-0.173,-2.472,1.038,-0.427,73.333,636.000,1.000,2.514,0.000
-37059.680,-35088.160,-103508.500,-97950.450,-29269.000,-30177.720,-29587.840,-30508.090,-0.172,0.969,-0.174,-2.441,0.580,-0.488,73.333,637.000,1.000,2.530,0.000
-37120.540,-35146.700,-103714.900,-98134.520,-29331.880,-30225.340,-29623.070,-30546.180,-0.173,0.969,-0.173,-2.411,0.092,-0.671,73.333,638.000,1.000,2.505,0.000
-37180.750,-35202.040,-103918.900,-98317.720,-29393.530,-30271.450,-29659.160,-30586.010,-0.172,0.973,-0.171,-2.441,-0.519,-0.793,73.333,639.000,1.000,8.751,0.000
-37241.660,-35255.490,-104122.600,-98501.360,-29454.630,-30317.440,-29698.840,-30625.440,-0.174,0.979,-0.175,-2.502,-1.129,-0.916,73.333,640.000,1.000,3.064,0.000
-37303.410,-35308.720,-104327.600,-98684.660,-29516.280,-30362.780,-29741.570,-30664.640,-0.171,0.981,-0.173,-2.594,-1.740,-0.977,73.333,641.000,1.000,0.016,0.000
-37368.860,-35367.430,-104536.900,-98872.230,-29583.770,-30415.880,-29789.060,-30708.440,-0.166,0.980,-0.175,-2.686,-2.258,-0.946,73.333,642.000,1.000,10.658,0.000
-37437.700,-35430.410,-104749.000,-99065.270,-29656.650,-30476.440,-29835.880,-30755.450,-0.162,0.980,-0.172,-2.808,-2.655,-0.916,73.333,643.000,1.000,3.041,0.000
-37503.070,-35488.190,-104955.300,-99253.550,-29725.410,-30529.470,-29870.220,-30795.950,-0.156,0.978,-0.171,-2.808,-3.021,-0.854,73.333,644.000,1.000,0.010,0.000
-37562.230,-35539.460,-105152.900,-99430.910,-29785.990,-30571.660,-29895.130,-30828.030,-0.150,0.979,-0.169,-2.869,-3.113,-0.641,73.333,645.000,1.000,1.852,0.000
-37620.710,-35590.820,-105347.500,-99603.000,-29843.620,-30613.630,-29924.280,-30861.180,-0.143,0.978,-0.164,-2.991,-3.143,-0.366,73.333,646.000,1.000,10.095,0.000
-37680.660,-35642.880,-105541.000,-99774.220,-29900.900,-30657.140,-29958.560,-30898.400,-0.140,0.975,-0.163,-2.991,-3.174,-0.244,73.333,647.000,1.000,2.414,0.000
-37738.160,-35691.540,-105731.000,-99943.750,-29956.290,-30696.270,-29992.760,-30934.680,-0.137,0.972,-0.163,-2.960,-2.808,0.000,73.333,648.000,1.000,2.556,0.000
-37791.910,-35737.510,-105918.500,-100112.200,-30010.460,-30732.680,-30025.690,-30969.140,-0.135,0.969,-0.165,-2.960,-2.411,0.183,73.333,649.000,1.000,2.440,0.000
-37844.200,-35784.700,-106105.500,-100281.100,-30065.710,-30770.540,-30055.140,-31004.150,-0.135,0.969,-0.166,-2.838,-2.014,0.305,73.333,650.000,1.000,8.794,0.000
-37897.180,-35834.530,-106293.200,-100450.600,-30124.080,-30810.300,-30083.170,-31039.830,-0.134,0.969,-0.166,-2.686,-1.617,0.458,73.333,651.000,1.000,3.043,0.000
-37950.170,-35884.370,-106480.700,-100618.500,-30183.790,-30849.870,-30113.500,-31075.350,-0.135,0.971,-0.166,-2.502,-1.282,0.549,73.333,652.000,1.000,0.008,0.000
-38003.500,-35933.090,-106667.400,-100784.500,-30242.700,-30889.240,-30145.550,-31112.220,-0.136,0.972,-0.163,-2.350,-0.885,0.519,73.333,653.000,1.000,8.161,0.000
-38059.940,-35982.670,-106854.900,-100951.900,-30302.290,-30930.940,-30178.720,-31150.930,-0.136,0.973,-0.165,-2.258,-0.610,0.519,73.333,654.000,1.000,3.066,0.000
-38116.970,-36030.580,-107040.300,-101118.200,-30360.450,-30972.300,-30209.410,-31186.760,-0.136,0.972,-0.167,-2.136,-0.244,0.671,73.333,655.000,1.000,0.013,0.000
-38171.930,-36075.730,-107222.800,-101282.300,-30415.650,-31010.790,-30235.620,-31220.020,-0.136,0.972,-0.171,-1.984,0.122,0.549,73.333,656.000,1.000,1.900,0.000
-38226.450,-36122.210,-107404.900,-101445.000,-30470.480,-31048.900,-30262.060,-31254.480,-0.134,0.970,-0.171,-1.953,0.458,0.519,73.333,657.000,1.000,11.316,0.000
-38281.300,-36172.180,-107586.600,-101604.600,-30526.490,-31090.360,-30292.010,-31289.400,-0.136,0.969,-0.172,-1.892,0.610,0.580,73.333,658.000,1.000,3.074,0.000
-38335.810,-36223.860,-107766.600,-101763.000,-30583.620,-31136.040,-30324.050,-31324.730,-0.137,0.970,-0.174,-1.740,0.885,0.488,73.333,659.000,1.000,0.009,0.000
-38388.540,-36274.640,-107944.500,-101921.900,-30640.860,-31182.860,-30355.600,-31360.400,-0.139,0.972,-0.175,-1.678,1.099,0.458,73.333,660.000,1.000,1.870,0.000
-38439.780,-36324.400,-108121.100,-102080.000,-30698.250,-31228.850,-30386.780,-31395.640,-0.139,0.975,-0.176,-1.648,1.221,0.458,73.333,661.000,1.000,11.312,0.000
-38491.100,-36372.740,-108297.500,-102238.100,-30755.780,-31272.220,-30419.200,-31429.800,-0.141,0.979,-0.175,-1.740,1.343,0.305,73.333,662.000,1.000,5.561,0.000
-38542.430,-36418.150,-108471.800,-102395.100,-30811.240,-31309.460,-30450.610,-31461.110,-0.140,0.982,-0.173,-1.801,1.495,0.214,73.333,663.000,1.000,0.009,0.000
-38590.350,-36457.600,-108638.900,-102545.300,-30860.210,-31339.000,-30474.250,-31485.450,-0.140,0.985,-0.175,-1.923,1.526,0.031,73.333,664.000,1.000,1.795,0.000
-38632.440,-36489.600,-108797.700,-102687.400,-30901.200,-31363.190,-30489.430,-31501.700,-0.144,0.983,-0.177,-2.319,1.495,-0.122,73.333,665.000,1.000,11.298,0.000
-38673.410,-36520.570,-108955.500,-102827.100,-30940.360,-31387.400,-30504.480,-31518.500,-0.149,0.981,-0.175,-2.563,1.373,-0.092,73.333,666.000,1.000,2.591,0.000
-38717.890,-36556.420,-109117.600,-102966.800,-30983.510,-31415.690,-30523.840,-31542.640,-0.150,0.977,-0.180,-2.808,1.160,-0.244,73.333,667.000,1.000,2.577,0.000
-38765.020,-36595.850,-109282.200,-103106.700,-31030.590,-31447.670,-30546.440,-31571.420,-0.153,0.977,-0.177,-2.960,0.977,-0.305,73.333,668.000,1.000,2.374,0.000
-38816.950,-36640.970,-109450.300,-103253.800,-31083.570,-31484.570,-30576.110,-31605.350,-0.153,0.977,-0.178,-3.052,0.610,-0.458,73.333,669.000,1.000,2.446,0.000
-38873.380,-36691.790,-109621.100,-103408.000,-31141.970,-31525.270,-30611.940,-31643.460,-0.155,0.975,-0.182,-3.235,0.214,-0.610,73.333,670.000,1.000,9.337,0.000
-38924.610,-36736.070,-109785.300,-103555.800,-31195.840,-31560.740,-30640.800,-31674.000,-0.156,0.974,-0.177,-3.387,-0.244,-0.732,73.333,671.000,1.000,0.010,0.000
-38967.580,-36769.850,-109940.400,-103694.600,-31241.450,-31589.440,-30658.330,-31695.600,-0.154,0.972,-0.178,-3.510,-0.671,-0.824,73.333,672.000,1.000,3.459,0.000
-39008.950,-36801.730,-110092.800,-103832.900,-31283.680,-31614.770,-30670.000,-31718.890,-0.156,0.971,-0.177,-3.723,-1.099,-0.824,73.333,673.000,1.000,0.006,0.000
-39052.110,-36836.590,-110246.300,-103973.700,-31326.910,-31639.720,-30684.690,-31746.890,-0.158,0.968,-0.176,-3.815,-1.495,-1.038,73.333,674.000,1.000,4.759,0.000
-39098.500,-36877.660,-110404.900,-104117.300,-31377.690,-31675.400,-30714.730,-31779.800,-0.158,0.967,-0.171,-4.028,-1.801,-1.190,73.333,675.000,1.000,4.959,0.000
-39148.420,-36923.730,-110568.500,-104263.400,-31435.640,-31720.260,-30754.040,-31815.540,-0.159,0.963,-0.175,-4.181,-2.380,-1.404,73.333,676.000,1.000,3.720,0.000
-39198.700,-36968.460,-110730.100,-104406.800,-31491.610,-31759.980,-30788.220,-31846.790,-0.158,0.960,-0.171,-4.211,-2.686,-1.434,73.333,677.000,1.000,11.832,0.000
-39246.620,-37011.100,-110886.900,-104544.700,-31542.280,-31797.550,-30821.280,-31872.770,-0.156,0.959,-0.170,-4.120,-3.113,-1.526,73.333,678.000,1.000,0.015,0.000
-39293.040,-37054.910,-111041.700,-104679.800,-31591.840,-31842.040,-30857.150,-31898.860,-0.153,0.958,-0.172,-4.028,-3.296,-1.587,73.333,679.000,1.000,5.632,0.000
-39343.130,-37102.660,-111199.100,-104816.100,-31645.470,-31889.480,-30888.160,-31927.840,-0.150,0.959,-0.174,-3.754,-3.601,-1.465,73.333,680.000,1.000,2.453,0.000
-39396.460,-37152.130,-111358.100,-104953.100,-31701.410,-31931.110,-30911.960,-31957.080,-0.146,0.961,-0.171,-3.601,-3.876,-1.495,73.333,681.000,1.000,2.624,0.000
-39445.260,-37195.570,-111511.700,-105086.100,-31752.670,-31962.640,-30933.150,-31983.090,-0.143,0.964,-0.171,-3.357,-3.967,-1.373,73.333,682.000,1.000,2.473,0.000
-39486.990,-37230.480,-111657.100,-105214.400,-31797.440,-31986.950,-30953.800,-32006.590,-0.141,0.969,-0.171,-3.265,-3.876,-1.099,73.333,683.000,1.000,3.700,0.000
-39525.570,-37261.510,-111797.600,-105340.800,-31838.430,-32008.450,-30971.770,-32029.340,-0.138,0.971,-0.173,-3.174,-3.815,-0.977,73.333,684.000,1.000,8.809,0.000
-39564.210,-37291.990,-111936.400,-105468.400,-31878.030,-32029.290,-30986.160,-32051.380,-0.138,0.974,-0.170,-3.113,-3.693,-0.854,73.333,685.000,1.000,3.105,0.000
-39604.760,-37324.920,-112077.100,-105597.600,-31919.820,-32054.560,-31002.300,-32074.260,-0.136,0.973,-0.175,-3.143,-3.448,-0.641,73.333,686.000,1.000,0.008,0.000
-39647.290,-37361.810,-112220.400,-105727.400,-31965.740,-32086.660,-31024.240,-32099.740,-0.136,0.977,-0.174,-3.052,-3.082,-0.458,73.333,687.000,1.000,8.143,0.000
-39688.960,-37399.500,-112362.500,-105854.000,-32013.310,-32121.640,-31048.970,-32126.730,-0.135,0.977,-0.173,-3.052,-2.808,-0.336,73.333,688.000,1.000,3.078,0.000
-39726.490,-37433.840,-112499.600,-105973.700,-32058.190,-32154.710,-31071.150,-32151.620,-0.135,0.979,-0.172,-2.960,-2.411,-0.153,73.333,689.000,1.000,0.009,0.000
-39761.140,-37465.120,-112633.100,-106089.300,-32099.140,-32183.980,-31089.400,-32172.850,-0.136,0.981,-0.173,-3.082,-2.045,0.183,73.333,690.000,1.000,1.868,0.000
-39799.740,-37499.000,-112769.100,-106208.800,-32140.930,-32213.750,-31110.040,-32196.040,-0.137,0.982,-0.171,-3.143,-1.526,0.366,73.333,691.000,1.000,13.797,0.000
-39842.680,-37535.730,-112908.000,-106331.900,-32185.310,-32246.180,-31135.570,-32222.590,-0.136,0.984,-0.170,-3.235,-1.068,0.580,73.333,692.000,1.000,3.040,0.000
-39882.830,-37570.290,-113044.800,-106452.600,-32227.970,-32276.610,-31158.240,-32245.770,-0.135,0.986,-0.169,-3.387,-0.702,0.763,73.333,693.000,1.000,0.010,0.000
-39917.840,-37600.030,-113177.100,-106568.400,-32266.760,-32301.630,-31172.940,-32263.470,-0.134,0.986,-0.172,-3.510,-0.275,0.946,73.333,694.000,1.000,4.383,0.000
-39952.500,-37627.010,-113307.000,-106682.400,-32305.130,-32325.310,-31186.120,-32281.180,-0.138,0.984,-0.168,-3.693,0.153,1.190,73.333,695.000,1.000,2.510,0.000
-39990.920,-37660.160,-113438.200,-106799.200,-32347.360,-32352.860,-31206.370,-32304.840,-0.140,0.982,-0.169,-4.089,0.488,1.495,73.333,696.000,1.000,2.462,0.000
-40031.440,-37700.530,-113570.200,-106918.400,-32392.170,-32382.170,-31230.740,-32333.210,-0.142,0.980,-0.170,-4.120,0.610,1.740,73.333,697.000,1.000,6.313,0.000
-40071.690,-37738.830,-113700.000,-107036.800,-32437.190,-32410.890,-31253.200,-32361.140,-0.144,0.977,-0.171,-4.272,0.916,1.831,73.333,698.000,1.000,12.525,0.000
-40110.880,-37774.180,-113828.000,-107151.700,-32482.720,-32441.720,-31275.060,-32385.260,-0.145,0.978,-0.170,-4.395,1.160,1.923,73.333,699.000,1.000,8.072,0.000
-40149.260,-37811.040,-113955.900,-107263.900,-32529.220,-32478.230,-31299.010,-32407.400,-0.149,0.978,-0.169,-4.486,1.282,1.862,73.333,700.000,1.000,0.018,0.000
-40186.530,-37845.140,-114081.600,-107375.100,-32574.010,-32514.380,-31322.190,-32430.860,-0.150,0.977,-0.167,-4.578,1.190,1.831,73.333,701.000,1.000,1.874,0.000
-40219.790,-37870.800,-114200.500,-107481.900,-32612.040,-32539.060,-31339.260,-32452.810,-0.154,0.974,-0.168,-4.608,1.312,1.923,73.333,702.000,1.000,2.510,0.000
-40249.420,-37892.080,-114314.700,-107584.800,-32644.920,-32556.490,-31351.380,-32470.380,-0.157,0.972,-0.169,-4.791,1.160,1.862,73.333,703.000,1.000,2.498,0.000
-40279.010,-37914.660,-114429.200,-107688.500,-32677.830,-32575.140,-31361.940,-32484.660,-0.155,0.968,-0.167,-4.852,1.038,1.892,73.333,704.000,1.000,2.449,0.000
-40309.370,-37940.270,-114544.200,-107791.800,-32710.350,-32591.430,-31369.020,-32497.370,-0.152,0.969,-0.167,-4.852,0.916,1.648,73.333,705.000,1.000,3.740,0.000
-40340.090,-37967.250,-114658.800,-107893.700,-32742.810,-32607.990,-31380.320,-32510.960,-0.152,0.972,-0.162,-4.730,1.007,1.282,73.333,706.000,1.000,6.912,0.000
-40373.050,-37994.330,-114774.200,-107997.800,-32778.970,-32635.210,-31406.820,-32528.560,-0.152,0.974,-0.161,-4.700,0.977,1.129,73.333,707.000,1.000,0.009,0.000
-40409.580,-38025.440,-114891.700,-108104.400,-32818.730,-32670.470,-31438.040,-32550.170,-0.150,0.973,-0.163,-4.639,0.946,0.885,73.333,708.000,1.000,8.145,0.000
-40448.620,-38060.880,-115011.100,-108211.700,-32860.090,-32703.030,-31461.390,-32572.090,-0.148,0.973,-0.163,-4.547,0.885,0.641,73.333,709.000,1.000,5.670,0.000
-40487.270,-38095.320,-115129.400,-108317.600,-32901.200,-32729.170,-31478.190,-32591.440,-0.147,0.973,-0.164,-4.333,0.702,0.488,73.333,710.000,1.000,0.020,0.000
-40519.640,-38123.570,-115240.700,-108415.800,-32936.020,-32749.110,-31487.030,-32605.740,-0.147,0.972,-0.161,-4.242,0.580,0.397,73.333,711.000,1.000,24.347,0.000
-40545.020,-38144.820,-115344.200,-108505.900,-32962.360,-32762.600,-31487.220,-32614.840,-0.147,0.973,-0.160,-4.028,0.397,0.244,73.333,712.000,1.000,2.457,0.000
-40570.870,-38165.180,-115447.300,-108596.600,-32988.640,-32774.820,-31490.250,-32624.930,-0.148,0.974,-0.160,-3.876,0.214,0.122,73.333,713.000,1.000,2.505,0.000
-40599.910,-38189.120,-115553.100,-108690.600,-33020.410,-32791.950,-31504.030,-32641.470,-0.148,0.971,-0.158,-3.784,0.031,0.122,73.333,714.000,1.000,2.511,0.000
-40627.510,-38213.060,-115657.300,-108782.900,-33052.750,-32811.860,-31522.860,-32659.780,-0.148,0.971,-0.162,-3.601,-0.122,0.061,73.333,715.000,1.000,2.470,0.000
-40653.260,-38235.910,-115758.400,-108872.700,-33083.120,-32831.910,-31538.090,-32672.890,-0.148,0.968,-0.165,-3.479,-0.214,0.000,73.333,716.000,1.000,2.499,0.000
-40682.580,-38263.180,-115862.200,-108965.900,-33117.620,-32855.770,-31548.820,-32684.730,-0.149,0.969,-0.165,-3.235,-0.427,-0.031,73.333,717.000,1.000,3.037,0.000
-40716.410,-38295.140,-115971.200,-109062.300,-33158.120,-32884.690,-31561.020,-32700.510,-0.146,0.969,-0.166,-3.174,-0.519,0.031,73.333,718.000,1.000,0.011,0.000
-40750.930,-38327.000,-116079.800,-109156.100,-33198.070,-32912.670,-31578.030,-32719.990,-0.144,0.968,-0.167,-2.930,-0.702,-0.122,73.333,719.000,1.000,1.930,0.000
-40780.450,-38352.960,-116181.000,-109242.900,-33229.750,-32931.990,-31594.860,-32737.300,-0.142,0.970,-0.166,-2.716,-0.732,-0.214,73.333,720.000,1.000,4.986,0.000
-40799.360,-38367.000,-116270.500,-109320.000,-33249.780,-32939.370,-31599.710,-32742.860,-0.141,0.972,-0.163,-2.716,-0.763,-0.122,73.333,721.000,1.000,5.678,0.000
-40814.680,-38376.480,-116356.700,-109396.400,-33268.660,-32944.070,-31594.220,-32744.660,-0.139,0.972,-0.163,-2.716,-0.702,-0.153,73.333,722.000,1.000,0.009,0.000
-40840.810,-38397.090,-116455.300,-109486.600,-33302.340,-32962.730,-31599.580,-32759.710,-0.140,0.972,-0.167,-2.716,-0.732,-0.183,73.333,723.000,1.000,1.848,0.000
-40876.810,-38428.900,-116563.700,-109586.300,-33347.230,-32995.350,-31623.620,-32785.080,-0.140,0.973,-0.166,-2.808,-0.641,-0.275,73.333,724.000,1.000,2.488,0.000
-40911.700,-38462.890,-116668.200,-109681.000,-33389.160,-33026.300,-31650.910,-32810.250,-0.136,0.970,-0.167,-2.838,-0.458,-0.305,73.333,725.000,1.000,7.481,0.000
-40942.630,-38494.100,-116766.900,-109768.200,-33426.890,-33051.260,-31670.840,-32833.680,-0.133,0.970,-0.166,-2.747,-0.183,-0.336,73.333,726.000,1.000,3.134,0.000
-40970.850,-38521.560,-116863.200,-109851.800,-33462.370,-33074.910,-31685.700,-32852.380,-0.129,0.970,-0.166,-2.655,0.183,-0.427,73.333,727.000,1.000,0.006,0.000
-40993.400,-38543.910,-116953.700,-109931.100,-33490.430,-33092.320,-31696.450,-32863.090,-0.129,0.969,-0.168,-2.563,0.519,-0.488,73.333,728.000,1.000,1.930,0.000
-41010.950,-38558.570,-117038.700,-110007.100,-33512.790,-33101.500,-31703.950,-32872.230,-0.129,0.969,-0.167,-2.533,1.007,-0.458,73.333,729.000,1.000,4.979,0.000
-41032.300,-38572.320,-117127.000,-110087.900,-33540.540,-33116.410,-31715.620,-32888.610,-0.131,0.970,-0.167,-2.563,1.434,-0.458,73.333,730.000,1.000,4.321,0.000
-41061.920,-38595.640,-117223.300,-110176.700,-33577.870,-33145.070,-31734.740,-32912.990,-0.134,0.971,-0.166,-2.502,1.831,-0.488,73.333,731.000,1.000,0.005,0.000
-41092.550,-38625.080,-117319.000,-110261.800,-33615.880,-33174.970,-31751.700,-32935.270,-0.137,0.972,-0.167,-2.502,2.258,-0.488,73.333,732.000,1.000,10.630,0.000
-41116.140,-38647.750,-117404.300,-110333.100,-33645.140,-33192.350,-31757.530,-32945.820,-0.141,0.974,-0.167,-2.441,2.563,-0.397,73.333,733.000,1.000,4.332,0.000
-41132.110,-38660.880,-117480.500,-110394.900,-33665.040,-33197.120,-31753.210,-32946.670,-0.144,0.975,-0.169,-2.350,2.838,-0.458,73.333,734.000,1.000,0.009,0.000
-41143.350,-38668.950,-117552.800,-110454.700,-33680.200,-33196.770,-31744.880,-32943.500,-0.144,0.975,-0.163,-2.411,3.052,-0.488,73.333,735.000,1.000,3.726,0.000
-41154.230,-38674.350,-117625.000,-110515.500,-33696.160,-33198.730,-31739.950,-32940.700,-0.147,0.979,-0.164,-2.441,3.052,-0.610,73.333,736.000,1.000,0.007,0.000
-41169.740,-38684.280,-117700.800,-110579.300,-33717.540,-33208.050,-31743.020,-32942.130,-0.147,0.979,-0.164,-2.380,3.143,-0.671,73.333,737.000,1.000,15.604,0.000
-41192.820,-38704.110,-117782.800,-110649.900,-33745.500,-33223.780,-31753.830,-32950.400,-0.149,0.981,-0.163,-2.441,3.143,-0.824,73.333,738.000,1.000,3.186,0.000
-41221.450,-38729.400,-117868.500,-110726.800,-33777.430,-33242.210,-31768.720,-32967.320,-0.151,0.982,-0.165,-2.563,3.021,-0.793,73.333,739.000,1.000,0.006,0.000
-41249.520,-38752.000,-117953.000,-110803.600,-33809.680,-33263.050,-31784.240,-32987.710,-0.155,0.981,-0.163,-2.777,2.930,-0.763,73.333,740.000,1.000,2.419,0.000
-41271.190,-38766.480,-118030.900,-110872.400,-33836.610,-33281.860,-31794.650,-32999.580,-0.155,0.982,-0.164,-2.991,2.747,-0.763,73.333,741.000,1.000,0.005,0.000
-41287.050,-38778.780,-118102.600,-110932.100,-33857.660,-33296.520,-31797.930,-33002.500,-0.159,0.979,-0.170,-2.930,2.441,-0.793,73.333,742.000,1.000,15.700,0.000
-41302.000,-38795.940,-118173.000,-110989.500,-33878.070,-33309.800,-31798.880,-33005.190,-0.161,0.979,-0.170,-3.021,2.075,-0.732,73.333,743.000,1.000,3.664,0.000
-41318.430,-38813.090,-118244.800,-111049.100,-33900.680,-33321.910,-31801.110,-33009.060,-0.163,0.977,-0.167,-3.143,1.709,-0.671,73.333,744.000,1.000,0.015,0.000
-41339.050,-38828.950,-118321.400,-111112.700,-33929.820,-33337.970,-31811.030,-33017.400,-0.164,0.975,-0.168,-3.082,1.282,-0.702,73.333,745.000,1.000,0.007,0.000
-41366.460,-38850.100,-118403.800,-111182.400,-33966.590,-33360.020,-31830.590,-33034.800,-0.164,0.976,-0.165,-3.052,0.763,-0.732,73.333,746.000,1.000,2.622,0.000
-41396.330,-38873.740,-118485.000,-111253.900,-34003.020,-33379.890,-31849.190,-33054.380,-0.165,0.975,-0.165,-3.052,0.214,-0.702,73.333,747.000,1.000,2.470,0.000
-41418.790,-38889.090,-118556.000,-111317.600,-34029.340,-33389.820,-31856.380,-33064.730,-0.167,0.974,-0.167,-3.082,-0.397,-0.580,73.333,748.000,1.000,8.770,0.000
-41433.380,-38896.670,-118618.500,-111372.500,-34047.050,-33394.760,-31854.020,-33065.270,-0.166,0.973,-0.167,-3.235,-0.977,-0.488,73.333,749.000,1.000,13.067,0.000
-41447.900,-38905.010,-118680.800,-111425.700,-34064.660,-33403.400,-31849.230,-33062.540,-0.164,0.972,-0.168,-3.204,-1.709,-0.427,73.333,750.000,1.000,0.010,0.000
-41465.800,-38918.540,-118746.100,-111483.700,-34085.080,-33414.180,-31847.280,-33062.070,-0.163,0.970,-0.169,-3.235,-2.380,-0.397,73.333,751.000,1.000,2.474,0.000
-41485.310,-38935.380,-118813.800,-111547.200,-34107.480,-33423.340,-31852.250,-33068.810,-0.163,0.971,-0.169,-3.296,-2.991,-0.366,73.333,752.000,1.000,0.006,0.000
-41500.710,-38947.150,-118877.500,-111605.400,-34127.500,-33427.800,-31858.690,-33079.950,-0.163,0.972,-0.171,-3.418,-3.571,-0.275,73.333,753.000,1.000,7.484,0.000
-41514.090,-38955.570,-118938.100,-111656.400,-34145.180,-33431.590,-31862.760,-33090.750,-0.161,0.975,-0.168,-3.235,-4.150,-0.366,73.333,754.000,1.000,0.017,0.000
-41532.630,-38968.870,-119003.300,-111710.900,-34166.500,-33442.770,-31869.590,-33102.260,-0.161,0.976,-0.170,-3.510,-4.639,-0.366,73.333,755.000,1.000,13.750,0.000
-41556.140,-38989.290,-119073.500,-111769.800,-34193.650,-33460.680,-31878.470,-33114.770,-0.156,0.975,-0.166,-3.540,-5.066,-0.397,73.333,756.000,1.000,0.007,0.000
-41582.140,-39014.830,-119145.400,-111827.600,-34225.070,-33479.790,-31883.630,-33124.940,-0.150,0.975,-0.165,-3.540,-5.493,-0.519,73.333,757.000,1.000,2.403,0.000
-41604.750,-39034.440,-119211.600,-111878.700,-34253.250,-33496.510,-31886.470,-33128.910,-0.146,0.972,-0.165,-3.418,-5.737,-0.549,73.333,758.000,1.000,0.013,0.000
-41618.300,-39041.700,-119265.600,-111920.700,-34269.900,-33508.390,-31890.780,-33126.350,-0.141,0.969,-0.166,-3.387,-5.798,-0.580,73.333,759.000,1.000,2.543,0.000
