EEG 1, EEG 2, EEG 3, EEG 4, EEG 5, EEG 6, EEG 7, EEG 8, ACC X, ACC Y, ACC Z, GYR X, GYR Y, GYR Z, BAT, CNT, VALID, DT, TRIG
33319.200,31702.530,39808.430,123975.000,39678.020,38584.830,34777.780,37583.470,-0.184,0.898,-0.293,0.000,0.000,0.000,66.667,1.000,1.000,0.000,0.000
113660.100,108148.300,135764.900,420884.900,135373.100,131631.400,118652.200,128241.100,-0.184,0.926,-0.311,0.000,0.000,0.000,66.667,2.000,1.000,18.173,0.000
174691.200,166227.900,208584.700,641633.300,208121.200,202338.300,182408.200,197188.000,-0.188,0.935,-0.315,-0.031,0.000,-0.031,66.667,3.000,1.000,2.269,0.000
187810.100,178723.500,224131.400,682069.800,223768.500,217527.800,196125.100,212050.000,-0.189,0.940,-0.322,-4.547,6.287,-6.805,66.667,4.000,1.000,2.610,0.000
187024.800,177987.300,223086.000,671959.400,222657.800,216483.500,195187.100,211025.000,-0.184,0.945,-0.322,-0.946,0.610,-0.977,66.667,5.000,1.000,3.706,0.000
179234.700,170582.400,213696.400,637374.800,213076.500,207238.200,186839.100,201977.700,-0.177,0.944,-0.327,-0.854,-0.549,-0.183,66.667,6.000,1.000,3.708,0.000
159821.300,152115.700,190445.300,561260.900,189786.500,184619.700,166443.500,179951.200,-0.172,0.947,-0.330,-1.068,-1.251,0.000,66.667,7.000,1.000,13.872,0.000
148515.500,141362.100,176910.100,517368.300,176378.700,171550.800,154670.800,167273.500,-0.165,0.947,-0.329,-1.434,-1.587,0.153,66.667,8.000,1.000,2.977,0.000
153980.900,146565.700,183424.900,536774.900,182996.900,177950.400,160448.800,173543.700,-0.163,0.952,-0.329,-1.831,-1.862,0.336,66.667,9.000,1.000,0.015,0.000
164020.500,156122.200,195397.000,572711.600,194926.100,189556.900,170910.300,184839.700,-0.161,0.950,-0.329,-2.228,-2.045,0.244,66.667,10.000,1.000,1.943,0.000
163274.100,155416.500,194472.900,567929.000,193899.400,188591.800,170035.600,183878.500,-0.154,0.947,-0.338,-2.808,-2.075,0.305,66.667,11.000,1.000,2.447,0.000
148073.200,140953.800,176281.800,509752.400,175710.700,170919.500,154105.300,166668.500,-0.156,0.942,-0.337,-2.899,-2.136,0.458,66.667,12.000,1.000,3.751,0.000
138294.000,131642.000,164584.400,473014.800,164096.200,159608.700,143912.600,155672.500,-0.152,0.938,-0.339,-3.265,-2.167,0.305,66.667,13.000,1.000,14.384,0.000
142396.300,135534.500,169481.800,488491.300,169045.500,164400.900,148237.000,160355.800,-0.153,0.937,-0.334,-3.296,-1.984,0.458,66.667,14.000,1.000,0.016,0.000
150527.000,143263.300,179186.900,518437.300,178725.800,173815.400,156725.800,169522.000,-0.154,0.927,-0.335,-3.479,-2.045,0.549,66.667,15.000,1.000,2.397,0.000
150259.800,143006.800,178850.000,516517.200,178346.900,173461.700,156406.500,169164.300,-0.159,0.920,-0.336,-3.540,-1.831,0.671,66.667,16.000,1.000,0.008,0.000
138635.700,131947.200,164948.700,472495.600,164465.200,159969.000,144247.300,156022.000,-0.168,0.913,-0.333,-3.296,-1.923,0.824,66.667,17.000,1.000,16.426,0.000
131042.500,124723.400,155879.000,444323.100,155439.000,151186.400,136336.700,147478.700,-0.172,0.906,-0.334,-3.418,-2.106,0.610,66.667,18.000,1.000,0.012,0.000
134059.200,127594.200,159492.200,455977.900,159065.200,154705.300,139511.500,150912.800,-0.179,0.904,-0.335,-2.930,-2.167,0.641,66.667,19.000,1.000,1.705,0.000
140192.300,133430.300,166822.000,478816.400,166381.000,161814.900,145919.100,157834.800,-0.182,0.898,-0.338,-2.808,-2.502,0.519,66.667,20.000,1.000,3.259,0.000
140044.700,133293.700,166639.800,477803.100,166198.200,161635.500,145753.900,157653.900,-0.188,0.897,-0.337,-2.502,-2.655,0.610,66.667,21.000,1.000,0.013,0.000
131389.300,125065.400,156295.000,445211.900,155886.300,151607.100,136709.200,147883.900,-0.189,0.898,-0.336,-2.197,-3.235,0.397,66.667,22.000,1.000,1.788,0.000
125606.400,119569.900,149393.100,423911.200,149003.800,144913.700,130670.300,141364.000,-0.188,0.903,-0.337,-1.953,-3.601,0.397,66.667,23.000,1.000,3.777,0.000
127591.000,121464.700,151773.000,431721.800,151375.600,147220.700,132747.900,143609.300,-0.191,0.907,-0.336,-1.556,-3.998,0.458,66.667,24.000,1.000,9.377,0.000
131912.900,125582.800,156937.300,447894.100,156539.400,152241.400,137276.600,148500.800,-0.187,0.914,-0.335,-1.617,-4.364,0.336,66.667,25.000,1.000,0.019,0.000
131768.300,125447.000,156760.700,447134.700,156390.300,152091.900,137147.100,148362.100,-0.189,0.919,-0.331,-1.343,-4.791,0.488,66.667,26.000,1.000,8.067,0.000
125558.100,119534.200,149340.200,423873.100,149003.300,144905.200,130672.700,141365.800,-0.184,0.920,-0.333,-1.678,-5.096,0.427,66.667,27.000,1.000,2.491,0.000
121279.400,115455.400,144232.400,408166.400,143888.700,139935.000,126193.100,136518.300,-0.185,0.927,-0.328,-1.740,-5.341,0.671,66.667,28.000,1.000,2.526,0.000
122361.200,116477.900,145529.000,412547.300,145154.300,141170.800,127306.200,137715.000,-0.182,0.931,-0.325,-2.014,-5.615,0.488,66.667,29.000,1.000,2.563,0.000
125085.200,119067.200,148784.400,422868.400,148411.900,144336.000,130161.400,140801.700,-0.181,0.941,-0.323,-2.319,-5.676,0.641,66.667,30.000,1.000,3.677,0.000
124872.900,118865.900,148528.600,422050.700,148200.100,144122.600,129974.500,140603.200,-0.181,0.946,-0.320,-2.808,-5.920,0.580,66.667,31.000,1.000,6.889,0.000
120669.100,114868.100,143502.000,406347.800,143208.800,139269.800,125603.100,135876.500,-0.173,0.947,-0.317,-3.632,-6.042,0.488,66.667,32.000,1.000,0.024,0.000
117643.200,111991.500,139883.500,395203.800,139570.200,135744.800,122423.200,132431.400,-0.172,0.948,-0.315,-4.150,-6.012,0.488,66.667,33.000,1.000,8.092,0.000
118004.700,112335.200,140313.800,396764.900,139958.300,136133.100,122769.400,132802.700,-0.164,0.943,-0.317,-5.005,-5.920,0.366,66.667,34.000,1.000,4.993,0.000
119436.400,113695.400,142024.900,402260.300,141672.000,137794.600,124266.900,134429.400,-0.164,0.944,-0.316,-5.310,-5.615,0.549,66.667,35.000,1.000,2.446,0.000
119149.100,113422.600,141684.100,401265.300,141379.900,137499.700,124002.200,134152.800,-0.152,0.941,-0.319,-5.829,-5.280,0.366,66.667,36.000,1.000,2.554,0.000
116504.100,110907.700,138528.700,391492.600,138256.700,134462.300,121261.100,131189.100,-0.149,0.938,-0.316,-6.256,-4.883,0.488,66.667,37.000,1.000,3.702,0.000
114420.700,108925.700,136046.800,383925.300,135748.800,132036.500,119068.300,128807.400,-0.144,0.929,-0.313,-6.592,-4.303,0.549,66.667,38.000,1.000,11.922,0.000
114174.100,108690.400,135757.600,383238.400,135419.100,131727.800,118786.800,128495.800,-0.138,0.923,-0.314,-7.019,-3.754,0.732,66.667,39.000,1.000,0.014,0.000
114569.200,109063.300,136230.400,384894.600,135902.800,132190.200,119206.900,128960.300,-0.138,0.917,-0.309,-6.958,-3.113,0.977,66.667,40.000,1.000,1.791,0.000
114205.700,108711.900,135793.400,383676.100,135519.200,131795.500,118857.900,128599.100,-0.139,0.910,-0.309,-7.141,-2.319,0.977,66.667,41.000,1.000,2.527,0.000
112769.500,107342.000,134076.600,378445.700,133828.500,130143.600,117368.300,126989.300,-0.146,0.907,-0.307,-6.927,-1.678,1.038,66.667,42.000,1.000,8.786,0.000
111460.900,106097.400,132515.400,373692.000,132231.900,128605.100,115969.400,125465.800,-0.145,0.903,-0.309,-7.080,-1.068,1.007,66.667,43.000,1.000,2.471,0.000
110818.400,105489.500,131749.300,371398.300,131421.000,127831.700,115261.100,124694.300,-0.147,0.904,-0.304,-6.927,-0.336,1.099,66.667,44.000,1.000,3.017,0.000
110464.100,105158.600,131326.500,370185.600,131009.400,127431.800,114899.100,124307.500,-0.147,0.906,-0.303,-7.141,0.244,0.946,66.667,45.000,1.000,0.007,0.000
110037.800,104758.700,130820.500,368763.400,130558.400,126984.500,114499.000,123880.300,-0.151,0.912,-0.299,-7.141,0.854,1.068,66.667,46.000,1.000,1.927,0.000
109486.600,104236.700,130166.800,366884.100,129933.900,126377.100,113951.500,123283.700,-0.152,0.919,-0.299,-7.233,1.312,1.068,66.667,47.000,1.000,7.590,0.000
108748.500,103535.700,129287.200,364244.300,129027.300,125509.200,113165.500,122420.000,-0.153,0.933,-0.298,-7.446,1.862,1.251,66.667,48.000,1.000,6.878,0.000
107798.300,102632.700,128152.800,360809.600,127857.100,124384.000,112148.100,121311.600,-0.159,0.943,-0.295,-7.599,2.197,1.312,66.667,49.000,1.000,0.020,0.000
106855.200,101733.200,127028.400,357481.900,126746.300,123301.100,111173.800,120264.300,-0.153,0.951,-0.299,-8.331,2.716,1.312,66.667,50.000,1.000,1.819,0.000
106363.200,101258.700,126441.100,355857.900,126207.000,122764.100,110697.300,119760.200,-0.152,0.957,-0.298,-8.545,3.326,1.495,66.667,51.000,1.000,11.253,0.000
106460.100,101344.200,126553.200,356340.200,126337.600,122885.800,110817.700,119889.500,-0.144,0.953,-0.298,-9.125,3.510,1.434,66.667,52.000,1.000,6.876,0.000
106156.600,101052.400,126187.100,355245.800,125941.400,122511.500,110486.200,119516.100,-0.137,0.957,-0.301,-9.430,4.211,1.587,66.667,53.000,1.000,0.085,0.000
105031.500,99982.010,124843.400,351125.600,124564.000,121184.400,109285.900,118208.600,-0.132,0.953,-0.299,-9.644,4.730,1.556,66.667,54.000,1.000,6.639,0.000
103717.800,98730.360,123276.000,346416.100,123007.500,119663.800,107909.600,116729.500,-0.122,0.950,-0.296,-9.888,5.554,1.495,66.667,55.000,1.000,2.600,0.000
103173.800,98207.430,122627.000,344637.600,122401.200,119055.000,107361.600,116150.000,-0.118,0.947,-0.288,-9.766,6.439,1.587,66.667,56.000,1.000,2.461,0.000
103661.400,98665.520,123209.300,346626.300,122992.500,119622.400,107877.500,116709.100,-0.112,0.947,-0.286,-9.827,7.324,1.526,66.667,57.000,1.000,2.521,0.000
103631.700,98633.400,123173.500,346555.000,122915.900,119556.800,107818.500,116640.400,-0.115,0.948,-0.279,-9.644,8.453,1.587,66.667,58.000,1.000,2.522,0.000
102414.300,97474.590,121722.100,342081.200,121435.300,118125.400,106523.200,115238.100,-0.114,0.946,-0.279,-9.888,9.460,1.587,66.667,59.000,1.000,8.732,0.000
100883.000,96020.880,119898.500,336566.300,119637.500,116372.200,104939.400,113530.100,-0.117,0.945,-0.278,-9.979,10.590,1.434,66.667,60.000,1.000,3.075,0.000
100315.600,95487.220,119225.700,334696.600,119014.000,115755.000,104382.700,112932.800,-0.124,0.944,-0.274,-9.827,11.475,1.373,66.667,61.000,1.000,0.012,0.000
101035.500,96178.990,120090.900,337568.600,119898.900,116612.000,105153.400,113761.700,-0.124,0.948,-0.282,-9.949,12.360,1.251,66.667,62.000,1.000,3.165,0.000
101170.400,96312.290,120257.000,338152.200,120046.000,116760.200,105283.400,113892.800,-0.134,0.954,-0.278,-9.766,13.214,1.312,66.667,63.000,1.000,14.349,0.000
99932.010,95136.270,118781.300,333596.900,118546.200,115307.500,103972.600,112472.300,-0.137,0.957,-0.279,-9.766,13.824,1.038,66.667,64.000,1.000,0.016,0.000
98311.210,93594.110,116847.800,327713.400,116622.300,113435.600,102286.400,110654.200,-0.147,0.960,-0.281,-9.888,14.343,0.885,66.667,65.000,1.000,1.842,0.000
97735.830,93045.090,116161.000,325780.000,115969.300,112793.800,101710.500,110034.700,-0.156,0.956,-0.282,-9.949,14.740,0.671,66.667,66.000,1.000,2.476,0.000
98579.250,93845.670,117165.700,329047.600,116988.800,113782.100,102604.400,110995.000,-0.161,0.948,-0.282,-9.979,15.045,0.519,66.667,67.000,1.000,2.468,0.000
98822.130,94073.950,117454.200,329993.300,117260.200,114051.800,102847.500,111249.600,-0.169,0.936,-0.281,-9.613,15.137,0.336,66.667,68.000,1.000,11.353,0.000
97605.660,92912.590,116003.200,325544.300,115788.200,112627.900,101561.900,109859.100,-0.173,0.926,-0.281,-9.491,15.167,0.000,66.667,69.000,1.000,8.020,0.000
95989.050,91373.210,114072.200,319650.100,113864.500,110757.700,99877.520,108044.100,-0.190,0.921,-0.282,-8.728,15.015,-0.153,66.667,70.000,1.000,0.009,0.000
95444.120,90857.800,113417.400,317732.300,113235.400,110140.600,99326.980,107452.500,-0.197,0.917,-0.280,-8.179,14.465,-0.549,66.667,71.000,1.000,1.940,0.000
96311.030,91686.220,114449.200,321035.400,114275.800,111150.700,100241.600,108435.800,-0.207,0.918,-0.282,-7.568,14.038,-0.488,66.667,72.000,1.000,2.516,0.000
96599.730,91960.880,114788.300,322115.000,114599.600,111472.600,100531.200,108738.400,-0.214,0.917,-0.282,-6.927,13.092,-0.549,66.667,73.000,1.000,2.445,0.000
95485.570,90896.730,113447.900,317944.700,113242.300,110159.800,99346.340,107452.700,-0.216,0.920,-0.280,-6.531,12.085,-0.580,66.667,74.000,1.000,2.531,0.000
93937.480,89418.910,111594.000,312272.500,111392.500,108357.900,97722.040,105703.200,-0.220,0.923,-0.275,-5.798,11.108,-0.549,66.667,75.000,1.000,2.462,0.000
93331.170,88837.520,110876.200,310291.600,110693.300,107667.600,97099.140,105040.700,-0.216,0.928,-0.278,-5.524,10.040,-0.336,66.667,76.000,1.000,3.724,0.000
94052.600,89519.450,111746.400,313273.000,111571.600,108517.400,97861.930,105868.900,-0.216,0.935,-0.281,-5.127,8.942,0.122,66.667,77.000,1.000,19.408,0.000
94294.680,89748.240,112036.000,314281.600,111853.900,108798.500,98110.980,106135.200,-0.207,0.939,-0.289,-5.005,7.843,0.244,66.667,78.000,1.000,0.015,0.000
93257.600,88764.520,110794.000,310434.000,110604.900,107591.000,97020.140,104955.600,-0.201,0.945,-0.287,-4.822,6.927,0.732,66.667,79.000,1.000,1.904,0.000
91803.160,87384.730,109057.900,305134.300,108877.500,105910.800,95504.840,103322.400,-0.190,0.943,-0.291,-4.852,5.890,1.160,66.667,80.000,1.000,4.985,0.000
91217.720,86829.390,108365.500,303198.800,108201.800,105250.700,94907.330,102683.600,-0.184,0.947,-0.291,-4.852,5.249,1.709,66.667,81.000,1.000,2.496,0.000
91853.100,87436.150,109133.300,305804.800,108975.100,106003.800,95581.880,103414.500,-0.177,0.942,-0.294,-4.700,4.486,2.136,66.667,82.000,1.000,2.450,0.000
92055.460,87634.390,109381.100,306666.800,109217.500,106242.900,95796.560,103639.300,-0.172,0.941,-0.300,-4.822,3.998,2.625,66.667,83.000,1.000,2.530,0.000
91103.840,86734.370,108247.800,303173.700,108078.700,105138.100,94803.480,102557.800,-0.165,0.941,-0.303,-4.669,3.448,3.204,66.667,84.000,1.000,2.492,0.000
89774.300,85471.300,106662.800,298337.700,106494.500,103600.700,93418.600,101056.700,-0.156,0.942,-0.306,-4.700,3.082,3.540,66.667,85.000,1.000,3.043,0.000
89222.380,84946.790,106005.900,296462.400,105842.500,102970.500,92848.790,100437.200,-0.154,0.948,-0.305,-4.547,2.838,3.967,66.667,86.000,1.000,0.007,0.000
89757.520,85456.370,106644.500,298603.900,106482.200,103595.400,93410.460,101041.800,-0.146,0.955,-0.310,-4.791,2.533,4.242,66.667,87.000,1.000,1.882,0.000
89919.520,85608.580,106833.600,299264.800,106668.100,103777.400,93573.840,101219.800,-0.147,0.962,-0.306,-4.791,2.502,4.578,66.667,88.000,1.000,8.770,0.000
89070.160,84795.790,105814.900,296152.400,105644.800,102783.700,92677.120,100252.900,-0.144,0.963,-0.305,-5.280,2.502,4.578,66.667,89.000,1.000,5.073,0.000
87871.820,83650.220,104383.300,291825.200,104210.400,101389.400,91420.990,98896.590,-0.149,0.961,-0.304,-5.524,2.380,4.456,66.667,90.000,1.000,2.422,0.000
87325.140,83126.490,103734.000,289995.800,103561.800,100755.700,90853.950,98282.210,-0.147,0.956,-0.307,-5.829,2.411,4.272,66.667,91.000,1.000,3.763,0.000
87704.200,83485.950,104191.400,291593.500,104021.100,101199.300,91257.670,98712.770,-0.155,0.951,-0.309,-6.042,2.380,4.028,66.667,92.000,1.000,9.386,0.000
87782.520,83559.880,104288.100,291988.800,104120.200,101298.100,91346.240,98802.110,-0.155,0.946,-0.312,-5.951,2.411,3.418,66.667,93.000,1.000,0.017,0.000
87032.300,82845.820,103393.600,289253.100,103229.600,100434.900,90566.660,97958.160,-0.154,0.941,-0.313,-5.981,2.380,2.655,66.667,94.000,1.000,1.819,0.000
85996.200,81859.980,102157.300,285482.900,102000.100,99236.530,89487.700,96795.440,-0.153,0.935,-0.310,-5.615,2.289,1.953,66.667,95.000,1.000,3.804,0.000
85483.360,81370.510,101548.000,283745.400,101395.900,98646.140,88955.900,96223.200,-0.149,0.932,-0.313,-5.646,2.289,1.190,66.667,96.000,1.000,21.792,0.000
85705.950,81578.340,101819.700,284803.800,101667.100,98909.920,89190.560,96478.910,-0.156,0.935,-0.310,-5.249,2.380,0.732,66.667,97.000,1.000,0.018,0.000
85669.640,81538.930,101783.000,284889.800,101630.900,98872.930,89153.680,96445.040,-0.159,0.934,-0.312,-5.219,2.258,0.183,66.667,98.000,1.000,3.103,0.000
84962.380,80863.530,100943.800,282444.100,100795.800,98057.450,88416.530,95655.840,-0.167,0.935,-0.314,-5.005,2.228,-0.092,66.667,99.000,1.000,0.008,0.000
84045.470,79993.910,99849.950,279157.300,99705.150,96997.260,87460.070,94625.270,-0.166,0.935,-0.313,-4.822,2.014,-0.549,66.667,100.000,1.000,0.003,0.000
83600.610,79578.590,99314.200,277540.200,99168.410,96480.300,86996.080,94120.070,-0.166,0.933,-0.313,-4.822,1.740,-0.854,66.667,101.000,1.000,2.532,0.000
83780.860,79759.880,99523.220,278200.800,99375.040,96685.960,87186.630,94318.650,-0.166,0.936,-0.310,-4.333,1.556,-1.038,66.667,102.000,1.000,2.508,0.000
83748.320,79736.420,99482.500,278107.600,99336.010,96649.680,87157.940,94282.290,-0.166,0.938,-0.313,-4.242,1.526,-1.404,66.667,103.000,1.000,2.562,0.000
83149.570,79170.230,98771.190,275992.200,98627.710,95963.270,86538.200,93609.990,-0.170,0.950,-0.312,-4.089,1.434,-1.556,66.667,104.000,1.000,25.029,0.000
82334.770,78394.230,97803.950,273139.700,97658.480,95024.700,85688.010,92690.770,-0.167,0.954,-0.314,-3.967,1.221,-1.648,66.667,105.000,1.000,5.504,0.000
81845.130,77923.240,97223.790,271525.300,97071.410,94454.440,85171.650,92134.590,-0.169,0.959,-0.313,-4.150,1.038,-1.617,66.667,106.000,1.000,0.009,0.000
81839.320,77911.250,97217.770,271673.700,97061.730,94441.300,85161.170,92125.280,-0.164,0.957,-0.308,-4.242,0.641,-1.617,66.667,107.000,1.000,3.707,0.000
81720.630,77794.520,97073.700,271323.400,96922.970,94300.990,85038.810,91992.910,-0.160,0.953,-0.309,-4.486,0.458,-1.526,66.667,108.000,1.000,0.012,0.000
81212.890,77309.660,96465.830,269495.600,96321.740,93713.460,84512.880,91420.930,-0.166,0.955,-0.310,-4.547,0.305,-1.404,66.667,109.000,1.000,0.003,0.000
80538.770,76666.660,95662.700,267087.300,95517.690,92933.300,83808.450,90655.520,-0.171,0.952,-0.312,-4.669,0.153,-1.343,66.667,110.000,1.000,0.003,0.000
80092.030,76241.000,95133.580,265571.900,94982.180,92414.270,83334.880,90144.160,-0.175,0.954,-0.308,-4.730,-0.183,-1.190,66.667,111.000,1.000,2.515,0.000
79988.950,76143.350,95016.130,265350.500,94861.890,92295.230,83221.730,90026.590,-0.180,0.954,-0.310,-4.913,-0.702,-1.068,66.667,112.000,1.000,0.010,0.000
79799.770,75963.660,94794.680,264781.100,94645.430,92081.260,83027.750,89821.380,-0.177,0.957,-0.309,-5.127,-1.160,-1.129,66.667,113.000,1.000,1.892,0.000
79339.160,75525.710,94245.580,263159.800,94102.040,91551.730,82555.030,89310.130,-0.172,0.963,-0.309,-5.280,-1.617,-1.251,66.667,114.000,1.000,2.501,0.000
78759.130,74973.590,93552.770,261101.300,93408.340,90880.650,81952.920,88654.340,-0.167,0.966,-0.309,-5.676,-2.075,-1.190,66.667,115.000,1.000,3.797,0.000
78330.490,74563.380,93041.910,259653.600,92892.750,90385.050,81502.090,88163.160,-0.168,0.974,-0.307,-6.134,-2.319,-1.099,66.667,116.000,1.000,13.725,0.000
78144.300,74382.020,92819.470,259115.900,92669.090,90169.660,81303.340,87949.980,-0.167,0.972,-0.302,-6.775,-2.563,-1.007,66.667,117.000,1.000,3.622,0.000
77916.250,74160.750,92543.620,258375.700,92397.880,89902.580,81063.690,87694.950,-0.170,0.968,-0.299,-7.568,-2.838,-0.671,66.667,118.000,1.000,0.012,0.000
77501.780,73761.620,92044.910,256929.400,91903.030,89415.480,80626.730,87226.250,-0.168,0.959,-0.289,-8.209,-3.113,-0.366,66.667,119.000,1.000,0.005,0.000
76982.860,73262.550,91426.120,255146.200,91279.750,88805.300,80071.280,86632.330,-0.166,0.945,-0.288,-8.881,-3.296,-0.244,66.667,120.000,1.000,2.641,0.000
76562.290,72860.660,90927.870,253750.600,90772.570,88313.330,79619.020,86148.330,-0.172,0.933,-0.281,-9.155,-3.418,-0.122,66.667,121.000,1.000,3.742,0.000
76317.810,72632.450,90638.370,252966.600,90481.370,88032.630,79364.080,85870.980,-0.176,0.919,-0.286,-9.216,-3.571,-0.153,66.667,122.000,1.000,8.671,0.000
76061.200,72394.520,90331.230,252092.800,90182.440,87738.070,79102.410,85586.550,-0.181,0.911,-0.291,-9.064,-3.693,-0.214,66.667,123.000,1.000,2.558,0.000
75703.790,72058.200,89900.270,250809.400,89759.140,87319.310,78729.320,85182.590,-0.183,0.909,-0.289,-8.759,-4.242,-0.458,66.667,124.000,1.000,3.767,0.000
75294.650,71670.300,89405.900,249314.200,89263.000,86835.290,78295.590,84708.890,-0.182,0.910,-0.291,-8.209,-4.578,-0.580,66.667,125.000,1.000,9.414,0.000
74925.030,71317.950,88962.270,248015.400,88811.740,86398.430,77900.750,84279.950,-0.180,0.918,-0.291,-7.507,-4.852,-0.580,66.667,126.000,1.000,0.014,0.000
74619.930,71026.380,88601.610,247032.100,88447.340,86042.260,77578.200,83936.410,-0.175,0.931,-0.288,-7.080,-5.219,-0.488,66.667,127.000,1.000,1.808,0.000
74298.840,70721.160,88224.130,246015.200,88074.450,85675.590,77249.880,83584.220,-0.172,0.946,-0.283,-6.775,-5.371,-0.244,66.667,128.000,1.000,8.778,0.000
73928.580,70369.290,87785.410,244802.200,87643.210,85255.130,76875.330,83174.110,-0.161,0.954,-0.284,-6.653,-5.585,0.000,66.667,129.000,1.000,3.053,0.000
73535.420,69995.530,87315.050,243463.400,87175.180,84803.570,76472.130,82729.550,-0.153,0.954,-0.284,-6.897,-5.493,0.549,66.667,130.000,1.000,0.009,0.000
73175.990,69654.380,86882.730,242211.600,86740.950,84384.610,76097.450,82319.360,-0.144,0.951,-0.278,-6.775,-5.310,0.824,66.667,131.000,1.000,1.900,0.000
72850.060,69342.320,86492.080,241098.900,86350.420,84001.470,75755.820,81952.230,-0.139,0.949,-0.281,-6.622,-5.035,1.160,66.667,132.000,1.000,11.205,0.000
72516.840,69021.430,86096.740,240002.900,85957.880,83613.090,75408.450,81582.790,-0.143,0.954,-0.280,-6.409,-4.547,1.556,66.667,133.000,1.000,3.201,0.000
72165.060,68684.970,85683.070,238867.700,85545.540,83209.380,75042.350,81191.810,-0.144,0.956,-0.280,-6.470,-4.242,1.801,66.667,134.000,1.000,0.009,0.000
71800.020,68337.430,85253.600,237669.800,85114.170,82792.250,74661.630,80780.020,-0.149,0.954,-0.276,-6.409,-4.059,2.197,66.667,135.000,1.000,1.817,0.000
71439.160,67994.050,84826.440,236454.200,84684.110,82377.270,74284.780,80368.210,-0.149,0.946,-0.276,-6.348,-3.784,2.380,66.667,136.000,1.000,8.767,0.000
71076.480,67648.760,84396.410,235233.400,84252.030,81959.230,73905.740,79957.190,-0.142,0.936,-0.279,-6.134,-3.693,2.441,66.667,137.000,1.000,4.448,0.000
70731.280,67320.690,83987.560,234083.200,83842.230,81563.090,73545.650,79572.000,-0.139,0.932,-0.280,-5.585,-3.357,2.686,66.667,138.000,1.000,0.010,0.000
70410.880,67018.070,83609.730,233023.500,83464.950,81197.630,73215.120,79218.280,-0.136,0.929,-0.285,-5.157,-3.143,2.716,66.667,139.000,1.000,8.057,0.000
70085.810,66712.480,83227.610,231946.800,83085.450,80829.200,72886.110,78861.380,-0.141,0.935,-0.282,-4.608,-2.808,2.930,66.667,140.000,1.000,2.445,0.000
69747.110,66394.180,82826.340,230785.000,82688.380,80445.590,72544.240,78486.730,-0.141,0.940,-0.281,-4.150,-2.594,2.808,66.667,141.000,1.000,3.729,0.000
69385.380,66052.630,82395.650,229520.500,82260.560,80031.050,72170.560,78079.000,-0.140,0.944,-0.284,-3.967,-2.441,2.899,66.667,142.000,1.000,8.825,0.000
69032.340,65717.460,81978.180,228331.700,81842.450,79621.670,71798.770,77677.560,-0.135,0.951,-0.283,-3.571,-2.197,3.021,66.667,143.000,1.000,3.129,0.000
68721.760,65423.480,81611.960,227308.100,81474.270,79260.640,71472.410,77325.300,-0.128,0.959,-0.285,-3.448,-1.953,2.960,66.667,144.000,1.000,0.030,0.000
68428.010,65147.020,81263.400,226319.300,81127.280,78921.590,71170.190,76995.990,-0.126,0.969,-0.282,-3.296,-1.801,2.899,66.667,145.000,1.000,1.748,0.000
68084.620,64822.340,80856.550,225181.300,80726.430,78528.020,70820.480,76617.670,-0.117,0.979,-0.281,-3.876,-1.495,2.747,66.667,146.000,1.000,13.825,0.000
67673.950,64432.570,80371.490,223845.300,80245.480,78054.730,70397.640,76165.000,-0.115,0.981,-0.274,-4.181,-1.129,2.991,66.667,147.000,1.000,3.095,0.000
67301.800,64079.150,79929.410,222617.700,79801.290,77620.860,70010.340,75747.440,-0.109,0.981,-0.273,-4.852,-0.641,3.113,66.667,148.000,1.000,0.010,0.000
67017.270,63809.360,79586.880,221633.300,79455.450,77288.450,69714.640,75421.670,-0.109,0.977,-0.276,-5.280,-0.031,3.204,66.667,149.000,1.000,1.793,0.000
66749.330,63555.270,79265.100,220703.400,79134.940,76979.610,69440.170,75118.060,-0.110,0.973,-0.279,-5.676,0.275,3.143,66.667,150.000,1.000,2.582,0.000
66418.900,63242.070,78873.540,219593.600,78747.440,76601.210,69103.030,74751.530,-0.115,0.966,-0.281,-6.012,0.671,2.838,66.667,151.000,1.000,8.746,0.000
66019.490,62861.800,78401.060,218258.300,78276.980,76144.500,68689.530,74306.350,-0.117,0.960,-0.275,-6.073,0.885,2.716,66.667,152.000,1.000,4.371,0.000
65645.770,62501.180,77957.480,217023.300,77832.080,75714.750,68294.380,73881.430,-0.117,0.956,-0.275,-6.287,1.160,2.350,66.667,153.000,1.000,0.082,0.000
65339.530,62205.460,77593.240,216026.600,77466.590,75357.770,67967.710,73530.510,-0.125,0.957,-0.272,-6.226,1.373,1.984,66.667,154.000,1.000,8.618,0.000
65058.100,61937.910,77259.530,215105.500,77135.420,75032.370,67674.140,73217.270,-0.127,0.959,-0.271,-6.622,1.526,1.587,66.667,155.000,1.000,0.019,0.000
64737.610,61633.400,76880.640,214026.200,76760.770,74667.910,67347.500,72869.430,-0.135,0.961,-0.268,-6.470,1.617,1.190,66.667,156.000,1.000,1.886,0.000
64371.180,61285.170,76444.250,212734.000,76325.090,74245.590,66970.140,72461.550,-0.133,0.960,-0.269,-6.805,1.617,0.732,66.667,157.000,1.000,2.500,0.000
64035.910,60967.140,76042.550,211546.700,75920.500,73849.760,66614.960,72072.670,-0.135,0.961,-0.266,-7.080,1.495,0.488,66.667,158.000,1.000,8.572,0.000
63736.530,60680.720,75688.730,210570.600,75565.190,73497.070,66296.210,71726.090,-0.131,0.957,-0.262,-7.355,1.373,0.244,66.667,159.000,1.000,9.491,0.000
63436.900,60391.870,75338.950,209647.400,75217.800,73152.730,65985.450,71391.650,-0.132,0.954,-0.264,-7.538,1.495,0.000,66.667,160.000,1.000,0.011,0.000
63098.590,60065.100,74939.880,208561.200,74822.300,72766.550,65637.080,71017.270,-0.130,0.949,-0.265,-7.263,1.587,-0.397,66.667,161.000,1.000,1.942,0.000
62708.740,59688.980,74474.830,207254.800,74358.860,72318.520,65232.610,70581.670,-0.125,0.945,-0.267,-7.477,1.709,-0.610,66.667,162.000,1.000,2.465,0.000
62352.650,59347.170,74048.340,206049.300,73931.430,71907.210,64863.140,70182.260,-0.125,0.936,-0.262,-7.355,1.740,-0.458,66.667,163.000,1.000,2.512,0.000
62074.570,59081.370,73712.020,205088.400,73593.820,71584.070,64573.570,69867.980,-0.120,0.928,-0.264,-7.568,1.862,-0.549,66.667,164.000,1.000,6.220,0.000
61830.590,58848.840,73413.560,204220.400,73296.340,71299.200,64315.460,69588.790,-0.126,0.923,-0.260,-7.263,2.167,-0.397,66.667,165.000,1.000,4.347,0.000
61534.040,58567.730,73055.210,203190.100,72940.300,70954.360,63999.670,69250.100,-0.130,0.919,-0.261,-7.080,2.441,-0.519,66.667,166.000,1.000,0.010,0.000
61160.760,58215.050,72610.170,201924.400,72496.020,70521.230,63605.070,68825.490,-0.138,0.924,-0.260,-6.714,2.563,-0.671,66.667,167.000,1.000,8.120,0.000
60807.590,57881.520,72190.620,200735.900,72074.740,70110.410,63235.550,68424.770,-0.142,0.926,-0.260,-6.683,2.563,-0.946,66.667,168.000,1.000,4.343,0.000
60509.480,57597.830,71836.840,199753.300,71718.360,69763.670,62924.740,68088.030,-0.147,0.931,-0.264,-6.653,2.869,-1.160,66.667,169.000,1.000,0.007,0.000
60232.240,57332.050,71506.410,198847.100,71387.210,69441.030,62633.880,67774.050,-0.152,0.930,-0.268,-6.470,2.716,-1.373,66.667,170.000,1.000,5.645,0.000
59938.540,57051.240,71151.600,197828.700,71034.980,69098.590,62325.620,67440.380,-0.155,0.922,-0.277,-6.409,2.441,-1.801,66.667,171.000,1.000,3.805,0.000
59598.000,56726.170,70740.410,196625.500,70627.250,68703.880,61970.380,67056.580,-0.159,0.921,-0.279,-5.768,2.136,-1.984,66.667,172.000,1.000,14.292,0.000
59251.480,56395.410,70328.180,195465.100,70217.110,68304.580,61612.020,66669.420,-0.160,0.926,-0.282,-5.310,1.770,-2.441,66.667,173.000,1.000,0.065,0.000
58938.650,56097.380,69960.520,194469.500,69851.690,67945.830,61290.840,66321.360,-0.165,0.940,-0.278,-4.639,1.465,-2.930,66.667,174.000,1.000,1.892,0.000
58642.390,55814.310,69613.340,193544.900,69507.760,67608.480,60984.760,65992.130,-0.161,0.948,-0.276,-4.517,0.946,-3.387,66.667,175.000,1.000,2.437,0.000
58314.430,55498.540,69227.410,192503.800,69125.070,67234.150,60642.600,65624.530,-0.161,0.953,-0.277,-4.791,0.641,-3.479,66.667,176.000,1.000,2.516,0.000
57956.000,55154.520,68801.900,191305.400,68701.930,66822.920,60269.810,65216.990,-0.162,0.950,-0.279,-5.219,0.397,-3.479,66.667,177.000,1.000,3.710,0.000
57628.550,54844.680,68411.590,190179.200,68312.410,66451.730,59933.220,64843.920,-0.160,0.950,-0.283,-5.585,0.061,-3.418,66.667,178.000,1.000,11.337,0.000
57336.210,54569.640,68064.930,189204.000,67966.080,66127.040,59634.820,64516.800,-0.158,0.954,-0.285,-5.615,-0.244,-3.662,66.667,179.000,1.000,3.034,0.000
57051.250,54298.420,67728.050,188285.500,67631.030,65806.700,59342.450,64202.930,-0.160,0.959,-0.282,-5.798,-0.702,-4.028,66.667,180.000,1.000,0.010,0.000
56751.260,54011.650,67371.200,187281.900,67276.980,65457.870,59032.290,63868.290,-0.163,0.962,-0.282,-5.890,-0.885,-4.517,66.667,181.000,1.000,1.917,0.000
56435.630,53712.210,66992.340,186156.900,66899.390,65087.180,58704.340,63507.980,-0.160,0.961,-0.283,-6.134,-1.282,-4.974,66.667,182.000,1.000,2.476,0.000
56134.040,53427.180,66630.290,185077.800,66536.060,64740.040,58389.450,63162.630,-0.157,0.959,-0.281,-6.378,-1.587,-5.341,66.667,183.000,1.000,8.795,0.000
55840.760,53147.990,66282.600,184100.800,66187.940,64409.280,58081.720,62833.190,-0.154,0.954,-0.276,-6.714,-1.709,-5.402,66.667,184.000,1.000,11.458,0.000
55545.920,52864.930,65935.730,183164.600,65845.020,64073.500,57772.530,62506.770,-0.157,0.951,-0.271,-6.897,-1.984,-5.615,66.667,185.000,1.000,0.012,0.000
55232.180,52564.430,65566.780,182154.000,65482.850,63713.070,57447.750,62158.950,-0.164,0.944,-0.270,-6.958,-2.258,-5.676,66.667,186.000,1.000,2.234,0.000
54886.470,52236.570,65160.890,181025.100,65081.390,63318.580,57092.880,61772.460,-0.170,0.937,-0.270,-6.958,-2.350,-5.829,66.667,187.000,1.000,3.116,0.000
54556.330,51926.880,64771.760,179935.300,64691.880,62940.020,56749.840,61397.020,-0.175,0.934,-0.273,-6.927,-2.655,-5.920,66.667,188.000,1.000,0.011,0.000
54268.820,51659.060,64429.420,178964.200,64348.570,62605.550,56447.490,61065.980,-0.175,0.933,-0.273,-6.866,-3.082,-5.890,66.667,189.000,1.000,5.638,0.000
53995.860,51403.750,64103.880,178046.400,64026.040,62288.540,56163.500,60757.450,-0.175,0.935,-0.271,-6.683,-3.448,-5.951,66.667,190.000,1.000,4.337,0.000
53698.710,51124.430,63751.680,177060.600,63678.280,61947.130,55857.040,60427.170,-0.177,0.935,-0.271,-6.470,-3.723,-5.646,66.667,191.000,1.000,0.012,0.000
53373.140,50818.270,63367.560,175976.800,63293.970,61573.400,55519.310,60063.190,-0.185,0.937,-0.267,-6.592,-3.845,-5.341,66.667,192.000,1.000,10.612,0.000
53054.210,50518.140,62991.610,174918.000,62913.810,61206.770,55186.410,59705.130,-0.190,0.944,-0.263,-6.622,-4.089,-4.791,66.667,193.000,1.000,3.136,0.000
52760.250,50241.120,62642.820,173943.200,62563.160,60870.430,54880.660,59376.170,-0.182,0.950,-0.264,-6.836,-4.456,-4.456,66.667,194.000,1.000,0.007,0.000
52482.200,49978.490,62310.600,173016.200,62233.710,60554.020,54595.040,59066.660,-0.165,0.956,-0.267,-6.805,-4.547,-4.211,66.667,195.000,1.000,1.881,0.000
52191.790,49701.870,61964.770,172045.800,61891.500,60224.730,54298.990,58743.540,-0.169,0.956,-0.265,-6.561,-4.456,-4.639,66.667,196.000,1.000,8.803,0.000
51877.220,49400.290,61592.940,170997.100,61519.090,59869.320,53976.530,58391.230,-0.169,0.962,-0.269,-6.409,-4.242,-4.578,66.667,197.000,1.000,3.141,0.000
51566.690,49102.340,61226.220,169961.700,61147.020,59515.390,53655.220,58042.140,-0.171,0.968,-0.266,-6.958,-4.242,-3.662,66.667,198.000,1.000,0.012,0.000
51278.630,48825.270,60883.890,168992.400,60799.750,59180.040,53354.390,57718.270,-0.163,0.963,-0.269,-7.843,-4.303,-2.686,66.667,199.000,1.000,1.852,0.000
51004.000,48562.910,60556.550,168063.800,60473.340,58860.320,53066.740,57409.090,-0.160,0.962,-0.267,-7.965,-4.333,-2.014,66.667,200.000,1.000,21.888,0.000
50718.720,48294.290,60218.040,167102.900,60140.870,58532.320,52770.370,57087.610,-0.156,0.962,-0.264,-7.965,-4.120,-1.831,66.667,201.000,1.000,0.020,0.000
50410.860,48003.320,59854.610,166080.100,59781.500,58173.230,52448.660,56741.230,-0.153,0.963,-0.255,-8.240,-3.540,-1.556,66.667,202.000,1.000,2.360,0.000
50097.060,47704.150,59485.680,165058.100,59410.950,57802.910,52114.880,56388.690,-0.151,0.951,-0.259,-8.362,-3.326,-1.099,66.667,203.000,1.000,0.010,0.000
49792.410,47413.370,59129.070,164076.600,59051.270,57446.490,51792.020,56048.690,-0.149,0.954,-0.261,-8.484,-2.777,-0.854,66.667,204.000,1.000,2.539,0.000
49492.430,47125.930,58778.870,163120.900,58700.460,57100.210,51480.070,55716.900,-0.161,0.961,-0.257,-8.057,-2.319,-0.702,66.667,205.000,1.000,0.009,0.000
49185.380,46831.140,58418.550,162144.200,58340.630,56749.290,51161.690,55376.070,-0.162,0.971,-0.257,-7.935,-1.984,-1.221,66.667,206.000,1.000,1.883,0.000
48885.210,46544.860,58061.360,161147.800,57983.320,56405.630,50849.050,55039.020,-0.159,0.988,-0.254,-7.782,-1.587,-1.526,66.667,207.000,1.000,14.328,0.000
48613.600,46288.680,57732.880,160183.300,57653.940,56091.620,50566.160,54729.110,-0.149,0.991,-0.247,-8.026,-1.282,-1.831,66.667,208.000,1.000,0.010,0.000
48362.290,46053.510,57426.360,159258.800,57346.750,55798.590,50305.580,54438.870,-0.142,0.985,-0.245,-8.118,-0.763,-2.075,66.667,209.000,1.000,8.769,0.000
48121.840,45828.690,57131.900,158360.300,57054.740,55517.370,50059.440,54163.910,-0.146,0.974,-0.239,-7.813,0.122,-2.625,66.667,210.000,1.000,0.008,0.000
47875.140,45596.940,56831.000,157447.500,56758.240,55231.770,49808.390,53886.930,-0.144,0.963,-0.243,-7.660,0.702,-3.296,66.667,211.000,1.000,12.442,0.000
47590.010,45326.020,56490.720,156481.200,56419.410,54906.550,49514.970,53568.170,-0.151,0.955,-0.248,-7.477,1.465,-3.265,66.667,212.000,1.000,0.011,0.000
47270.190,45019.210,56115.470,155482.400,56042.650,54542.830,49182.190,53210.300,-0.156,0.956,-0.249,-7.629,1.709,-3.052,66.667,213.000,1.000,2.504,0.000
46953.640,44715.600,55743.910,154496.600,55669.910,54181.480,48850.500,52856.140,-0.151,0.957,-0.245,-7.599,2.075,-2.930,66.667,214.000,1.000,0.005,0.000
46659.180,44435.260,55395.480,153543.700,55321.600,53845.430,48541.210,52525.820,-0.152,0.957,-0.245,-7.355,2.472,-3.204,66.667,215.000,1.000,6.339,0.000
46378.640,44169.240,55061.020,152604.900,54988.380,53523.800,48246.600,52210.140,-0.153,0.949,-0.245,-7.111,2.838,-3.479,66.667,216.000,1.000,0.007,0.000
46101.200,43904.920,54729.180,151663.400,54658.580,53201.350,47956.390,51897.630,-0.159,0.946,-0.251,-6.927,3.143,-3.754,66.667,217.000,1.000,13.709,0.000
45820.190,43635.250,54394.980,150718.500,54326.690,52873.400,47666.310,51581.070,-0.158,0.945,-0.249,-6.592,3.448,-4.211,66.667,218.000,1.000,0.021,0.000
45543.750,43370.390,54066.830,149781.800,53999.800,52550.380,47379.980,51267.230,-0.156,0.945,-0.248,-6.226,3.784,-4.578,66.667,219.000,1.000,2.473,0.000
45268.890,43108.760,53740.340,148852.300,53673.020,52228.890,47089.710,50953.540,-0.161,0.946,-0.252,-5.920,3.998,-5.096,66.667,220.000,1.000,0.015,0.000
44980.790,42834.720,53400.320,147912.300,53332.910,51896.050,46785.720,50629.820,-0.163,0.945,-0.254,-5.676,4.181,-5.463,66.667,221.000,1.000,1.861,0.000
44689.800,42558.080,53057.460,146970.100,52992.200,51563.560,46482.730,50307.690,-0.167,0.939,-0.253,-5.585,4.303,-5.920,66.667,222.000,1.000,8.728,0.000
44404.580,42287.030,52720.200,146034.100,52659.200,51237.130,46187.680,49992.130,-0.174,0.932,-0.257,-5.310,4.211,-6.531,66.667,223.000,1.000,3.193,0.000
44120.130,42016.610,52384.110,145100.900,52327.480,50911.160,45893.940,49676.570,-0.178,0.927,-0.253,-4.883,4.028,-6.836,66.667,224.000,1.000,0.009,0.000
43836.340,41747.820,52049.790,144173.700,51996.230,50587.070,45601.950,49361.360,-0.181,0.922,-0.258,-4.700,3.906,-6.927,66.667,225.000,1.000,5.566,0.000
43563.660,41490.640,51727.100,143259.700,51674.370,50274.020,45321.160,49057.540,-0.186,0.922,-0.256,-4.730,3.571,-6.897,66.667,226.000,1.000,9.406,0.000
43307.880,41249.220,51421.410,142363.100,51367.590,49978.670,45056.380,48770.700,-0.189,0.922,-0.255,-4.730,3.113,-6.805,66.667,227.000,1.000,0.008,0.000
43047.110,41001.980,51110.580,141459.500,51055.940,49681.000,44787.210,48477.620,-0.191,0.926,-0.258,-4.761,2.594,-6.744,66.667,228.000,1.000,2.368,0.000
42765.800,40734.650,50779.180,140534.000,50725.030,49364.410,44498.930,48163.570,-0.196,0.927,-0.259,-4.761,2.167,-6.775,66.667,229.000,1.000,0.005,0.000
42477.210,40460.620,50440.080,139604.400,50386.640,49038.620,44202.570,47841.230,-0.199,0.929,-0.255,-5.066,1.587,-6.775,66.667,230.000,1.000,10.743,0.000
42191.140,40189.680,50102.710,138682.200,50050.280,48712.630,43907.940,47520.040,-0.204,0.928,-0.254,-5.402,1.068,-6.531,66.667,231.000,1.000,2.417,0.000
41911.090,39926.120,49772.140,137772.500,49722.930,48395.710,43621.530,47206.350,-0.207,0.924,-0.259,-5.890,0.427,-6.073,66.667,232.000,1.000,2.469,0.000
41643.560,39675.370,49454.800,136874.300,49410.260,48095.660,43347.290,46904.800,-0.210,0.919,-0.263,-6.287,-0.183,-5.585,66.667,233.000,1.000,8.825,0.000
41379.480,39425.470,49139.180,135972.200,49096.700,47793.760,43069.290,46602.020,-0.207,0.924,-0.266,-6.653,-0.793,-5.066,66.667,234.000,1.000,3.106,0.000
41104.410,39160.780,48810.990,135056.200,48766.600,47469.150,42773.610,46285.430,-0.204,0.934,-0.271,-6.775,-1.251,-4.395,66.667,235.000,1.000,0.010,0.000
40827.590,38892.590,48482.220,134145.400,48436.070,47139.200,42477.990,45970.510,-0.198,0.938,-0.275,-7.019,-1.740,-3.906,66.667,236.000,1.000,1.861,0.000
40562.230,38636.380,48165.800,133256.500,48120.960,46823.240,42196.780,45670.450,-0.195,0.938,-0.273,-6.805,-1.953,-3.387,66.667,237.000,1.000,15.645,0.000
40298.040,38381.790,47849.030,132367.700,47806.000,46508.140,41916.290,45371.070,-0.196,0.936,-0.271,-6.744,-2.075,-2.930,66.667,238.000,1.000,0.018,0.000
40022.800,38117.070,47520.180,131460.400,47477.670,46183.540,41628.470,45059.380,-0.191,0.936,-0.279,-6.775,-2.441,-1.526,66.667,239.000,1.000,1.900,0.000
39750.430,37857.020,47194.680,130552.100,47152.000,45865.000,41349.160,44750.400,-0.189,0.927,-0.284,-7.324,-2.686,0.244,66.667,240.000,1.000,2.448,0.000
39495.950,37615.250,46888.490,129667.400,46845.270,45565.150,41088.470,44460.950,-0.191,0.915,-0.277,-7.080,-2.808,1.495,66.667,241.000,1.000,4.347,0.000
39243.110,37374.490,46585.720,128796.700,46543.550,45267.930,40828.340,44173.570,-0.192,0.912,-0.271,-6.104,-2.777,1.801,66.667,242.000,1.000,0.008,0.000
38970.520,37113.420,46263.200,127910.200,46226.620,44952.720,40548.320,43863.830,-0.191,0.916,-0.269,-5.066,-2.625,2.228,66.667,243.000,1.000,8.172,0.000
38685.560,36840.100,45927.350,127008.200,45900.090,44628.000,40256.570,43539.650,-0.194,0.925,-0.271,-4.364,-2.502,2.808,66.667,244.000,1.000,3.062,0.000
38411.810,36578.770,45603.020,126113.900,45583.610,44315.120,39977.640,43228.040,-0.189,0.938,-0.263,-4.089,-2.411,3.662,66.667,245.000,1.000,0.007,0.000
38154.970,36333.890,45296.470,125238.400,45280.720,44015.080,39715.160,42936.790,-0.176,0.953,-0.259,-3.937,-2.441,4.822,66.667,246.000,1.000,8.175,0.000
37891.070,36081.420,44983.960,124364.000,44971.260,43706.960,39445.240,42644.730,-0.158,0.969,-0.257,-4.242,-2.411,5.829,66.667,247.000,1.000,2.467,0.000
37617.360,35820.760,44662.410,123482.800,44654.890,43391.810,39168.480,42349.160,-0.152,0.981,-0.247,-4.028,-2.106,5.829,66.667,248.000,1.000,3.751,0.000
37366.130,35584.830,44363.160,122622.900,44358.520,43099.830,38914.980,42073.330,-0.153,0.984,-0.239,-3.845,-1.038,4.547,66.667,249.000,1.000,9.323,0.000
37134.000,35369.040,44083.120,121780.200,44074.470,42827.070,38674.790,41806.630,-0.155,0.990,-0.247,-3.052,-0.031,3.784,66.667,250.000,1.000,0.012,0.000
36888.350,35138.230,43789.880,120926.700,43772.820,42541.770,38413.370,41520.100,-0.166,0.988,-0.237,-2.960,0.732,2.991,66.667,251.000,1.000,1.871,0.000
36625.070,34886.240,43477.990,120064.200,43454.280,42240.450,38132.840,41218.090,-0.172,0.974,-0.231,-3.204,1.190,2.411,66.667,252.000,1.000,11.361,0.000
36365.100,34636.320,43167.840,119203.700,43141.850,41944.920,37859.480,40923.890,-0.177,0.952,-0.241,-3.326,1.709,2.197,66.667,253.000,1.000,3.056,0.000
36117.160,34400.180,42870.100,118346.700,42843.290,41660.650,37600.950,40643.190,-0.171,0.943,-0.251,-2.991,1.770,2.289,66.667,254.000,1.000,0.009,0.000
35865.630,34161.290,42570.180,117483.600,42542.110,41369.020,37339.700,40356.550,-0.169,0.953,-0.249,-2.502,1.526,2.441,66.667,255.000,1.000,1.829,0.000
35603.960,33911.850,42260.570,116619.300,42232.270,41066.040,37068.600,40056.320,-0.164,0.965,-0.235,-2.716,1.617,2.045,66.667,256.000,1.000,9.416,0.000
35346.870,33666.540,41956.010,115774.200,41929.380,40769.770,36804.140,39764.270,-0.164,0.963,-0.226,-2.441,1.953,1.831,66.667,257.000,1.000,0.023,0.000
35100.500,33431.990,41663.020,114943.500,41639.530,40488.370,36553.990,39491.270,-0.141,0.970,-0.239,-2.594,2.228,1.892,66.667,258.000,1.000,1.893,0.000
34852.820,33196.300,41368.520,114103.500,41346.980,40207.790,36300.860,39218.880,-0.141,0.968,-0.237,-2.625,2.625,1.556,66.667,259.000,1.000,3.666,0.000
34592.500,32947.490,41060.040,113244.600,41036.860,39913.080,36028.820,38930.130,-0.149,0.958,-0.244,-2.380,2.930,1.190,66.667,260.000,1.000,14.427,0.000
34324.320,32691.390,40743.200,112384.000,40717.680,39609.460,35746.950,38630.570,-0.168,0.937,-0.230,-2.625,3.540,0.885,66.667,261.000,1.000,0.020,0.000
34067.250,32448.730,40438.470,111547.500,40414.070,39319.000,35480.180,38340.630,-0.150,0.936,-0.240,-3.082,3.632,1.831,66.667,262.000,1.000,1.777,0.000
33823.690,32220.270,40148.270,110728.700,40128.380,39043.130,35230.610,38066.500,-0.136,0.943,-0.255,-2.014,3.632,2.136,66.667,263.000,1.000,25.173,0.000
33577.070,31986.150,39855.240,109902.200,39840.140,38759.800,34976.000,37793.140,-0.108,0.973,-0.279,-0.610,3.113,1.495,66.667,264.000,1.000,3.625,0.000
33330.450,31748.640,39561.680,109069.500,39548.710,38472.360,34717.520,37518.700,-0.138,0.974,-0.253,-0.061,3.937,0.031,66.667,265.000,1.000,3.090,0.000
33089.580,31516.980,39273.640,108244.500,39260.070,38194.010,34465.880,37246.480,-0.151,0.961,-0.218,-1.099,4.578,-0.122,66.667,266.000,1.000,0.012,0.000
32841.400,31281.460,38979.060,107420.100,38964.070,37914.640,34210.570,36967.310,-0.167,0.939,-0.215,-1.953,5.157,0.824,66.667,267.000,1.000,3.046,0.000
32581.450,31035.200,38673.590,106586.800,38657.830,37622.090,33945.130,36680.220,-0.167,0.930,-0.241,-1.801,5.371,0.916,66.667,268.000,1.000,0.009,0.000
32318.340,30784.240,38364.960,105748.500,38350.540,37321.410,33677.230,36392.860,-0.176,0.935,-0.248,-1.007,5.035,0.183,66.667,269.000,1.000,0.003,0.000
32061.060,30539.950,38061.720,104915.700,38050.460,37027.890,33414.070,36110.600,-0.177,0.939,-0.242,-1.099,4.944,-0.366,66.667,270.000,1.000,3.113,0.000
31816.840,30310.430,37771.400,104101.100,37762.000,36747.230,33159.880,35835.770,-0.176,0.946,-0.241,-1.373,4.883,-0.244,66.667,271.000,1.000,0.007,0.000
31582.800,30089.370,37490.690,103302.400,37481.370,36471.250,32912.930,35566.240,-0.174,0.941,-0.252,-1.190,4.700,-0.549,66.667,272.000,1.000,2.571,0.000
31346.190,29862.600,37206.400,102500.000,37197.930,36191.710,32663.430,35295.680,-0.171,0.947,-0.257,-0.946,4.242,-1.160,66.667,273.000,1.000,0.005,0.000
31104.050,29629.240,36916.500,101687.800,36909.890,35910.520,32409.210,35023.760,-0.170,0.952,-0.259,-0.122,3.723,-1.801,66.667,274.000,1.000,1.816,0.000
30855.930,29390.730,36621.130,100867.900,36615.450,35625.860,32149.090,34745.130,-0.162,0.961,-0.253,-0.214,3.265,-2.319,66.667,275.000,1.000,13.821,0.000
30595.890,29141.710,36314.110,100040.700,36308.120,35330.890,31877.730,34451.930,-0.162,0.970,-0.247,-0.031,3.082,-2.716,66.667,276.000,1.000,4.264,0.000
30338.370,28896.060,36009.520,99223.100,36004.400,35041.750,31611.900,34163.340,-0.157,0.973,-0.248,-0.244,3.021,-3.082,66.667,277.000,1.000,0.010,0.000
30100.150,28669.440,35724.110,98426.710,35722.010,34772.600,31367.710,33896.710,-0.158,0.977,-0.257,-0.580,2.899,-3.265,66.667,278.000,1.000,7.599,0.000
29875.810,28455.170,35453.200,97643.450,35453.810,34513.070,31137.120,33644.710,-0.157,0.974,-0.257,-0.702,2.808,-3.296,66.667,279.000,1.000,0.009,0.000
29657.110,28245.750,35189.040,96866.490,35188.880,34255.740,30910.070,33399.420,-0.154,0.975,-0.259,-0.702,2.563,-3.632,66.667,280.000,1.000,8.655,0.000
29441.490,28040.360,34928.850,96098.180,34925.040,34000.820,30682.800,33158.350,-0.152,0.979,-0.255,-0.763,2.441,-3.967,66.667,281.000,1.000,0.009,0.000
29223.090,27832.000,34665.860,95333.440,34659.960,33744.230,30451.410,32913.480,-0.147,0.976,-0.250,-1.190,2.563,-4.120,66.667,282.000,1.000,2.567,0.000
28987.720,27606.160,34385.030,94551.030,34380.040,33474.130,30204.290,32646.020,-0.156,0.973,-0.250,-1.404,3.082,-4.059,66.667,283.000,1.000,0.006,0.000
28730.290,27359.640,34081.980,93744.360,34078.730,33184.700,29936.920,32352.340,-0.171,0.959,-0.247,-1.953,3.235,-4.303,66.667,284.000,1.000,10.636,0.000
28469.680,27110.140,33775.960,92935.800,33773.780,32890.650,29666.300,32060.140,-0.181,0.950,-0.247,-1.892,3.265,-4.730,66.667,285.000,1.000,3.048,0.000
28226.770,26876.810,33487.100,92147.910,33486.000,32612.560,29412.200,31793.370,-0.186,0.947,-0.251,-1.862,3.113,-5.035,66.667,286.000,1.000,0.010,0.000
28002.210,26661.510,33216.780,91382.340,33219.410,32354.180,29180.540,31547.560,-0.189,0.952,-0.249,-2.014,2.716,-4.761,66.667,287.000,1.000,5.682,0.000
27780.920,26450.700,32950.810,90623.090,32959.350,32101.080,28957.810,31301.060,-0.179,0.953,-0.249,-2.014,2.258,-4.822,66.667,288.000,1.000,4.336,0.000
27549.130,26231.840,32674.860,89853.420,32687.150,31838.100,28723.080,31037.130,-0.174,0.960,-0.248,-1.801,2.380,-5.432,66.667,289.000,1.000,0.016,0.000
27308.520,26005.830,32390.720,89073.190,32402.820,31563.810,28474.580,30761.180,-0.169,0.966,-0.250,-1.282,2.411,-6.378,66.667,290.000,1.000,1.931,0.000
27066.960,25778.630,32107.600,88291.880,32117.460,31285.530,28224.280,30488.550,-0.163,0.963,-0.258,-1.038,2.808,-7.538,66.667,291.000,1.000,7.481,0.000
26826.720,25551.870,31827.140,87515.520,31835.770,31009.800,27976.630,30223.640,-0.165,0.953,-0.259,-0.305,3.082,-8.606,66.667,292.000,1.000,2.489,0.000
26585.700,25322.740,31544.600,86744.800,31554.290,30735.020,27726.540,29959.310,-0.158,0.940,-0.262,0.183,3.357,-9.888,66.667,293.000,1.000,8.712,0.000
26339.330,25088.450,31254.930,85972.450,31266.010,30456.510,27469.640,29687.410,-0.152,0.939,-0.257,1.038,3.510,-10.437,66.667,294.000,1.000,3.053,0.000
26091.050,24855.180,30963.850,85195.150,30975.630,30180.680,27212.980,29413.570,-0.149,0.935,-0.261,0.977,3.540,-9.949,66.667,295.000,1.000,0.006,0.000
25852.700,24631.450,30684.210,84422.240,30697.830,29916.560,26968.660,29150.830,-0.168,0.926,-0.270,0.763,3.784,-9.155,66.667,296.000,1.000,4.363,0.000
25636.260,24426.220,30426.370,83669.100,30443.450,29668.980,26742.190,28908.760,-0.189,0.910,-0.281,1.129,3.632,-8.911,66.667,297.000,1.000,2.559,0.000
25446.620,24247.180,30194.760,82944.810,30215.340,29442.360,26534.780,28692.430,-0.198,0.902,-0.280,2.228,3.479,-9.430,66.667,298.000,1.000,8.704,0.000
25253.920,24066.080,29961.200,82221.220,29984.990,29212.830,26325.530,28472.620,-0.215,0.887,-0.274,3.418,3.143,-9.949,66.667,299.000,1.000,2.478,0.000
25022.790,23846.500,29689.730,81461.270,29715.010,28945.200,26082.340,28209.810,-0.213,0.881,-0.271,4.547,2.502,-10.132,66.667,300.000,1.000,8.769,0.000
24769.460,23603.040,29393.850,80680.130,29416.820,28652.220,25813.760,27919.600,-0.212,0.891,-0.260,5.951,1.923,-10.132,66.667,301.000,1.000,3.057,0.000
24532.840,23374.950,29112.580,79918.500,29131.880,28377.020,25560.290,27649.380,-0.208,0.904,-0.252,6.622,1.434,-9.979,66.667,302.000,1.000,0.015,0.000
24328.250,23180.500,28863.420,79190.230,28881.440,28141.060,25344.560,27420.010,-0.210,0.927,-0.251,6.958,0.977,-9.308,66.667,303.000,1.000,8.238,0.000
24133.640,22997.820,28624.670,78471.680,28642.670,27919.040,25142.360,27204.850,-0.213,0.943,-0.254,6.805,0.580,-8.850,66.667,304.000,1.000,3.032,0.000
23922.010,22797.250,28369.470,77741.770,28386.120,27678.080,24922.780,26971.480,-0.209,0.959,-0.252,6.714,0.397,-8.148,66.667,305.000,1.000,0.007,0.000
23700.770,22585.080,28106.260,77010.230,28121.050,27424.240,24694.040,26724.450,-0.203,0.962,-0.256,5.676,-0.092,-6.775,66.667,306.000,1.000,1.902,0.000
23470.790,22364.440,27835.720,76270.930,27849.160,27158.230,24454.810,26463.050,-0.203,0.960,-0.263,3.876,-0.732,-4.456,66.667,307.000,1.000,13.856,0.000
23219.060,22124.660,27544.290,75510.660,27557.350,26872.210,24191.510,26178.300,-0.201,0.959,-0.266,2.258,-1.404,-1.892,66.667,308.000,1.000,2.972,0.000
22974.980,21893.460,27260.700,74761.040,27274.460,26597.690,23936.040,25905.000,-0.196,0.953,-0.273,0.458,-2.167,0.824,66.667,309.000,1.000,0.014,0.000
22764.470,21693.290,27009.040,74040.010,27021.570,26349.350,23711.180,25665.540,-0.194,0.951,-0.270,-0.793,-2.747,3.326,66.667,310.000,1.000,1.950,0.000
22561.940,21498.850,26763.030,73319.210,26770.970,26099.140,23487.960,25428.710,-0.196,0.943,-0.272,-2.014,-3.235,5.157,66.667,311.000,1.000,2.493,0.000
22349.930,21294.900,26507.130,72590.840,26510.010,25841.420,23253.650,25180.890,-0.197,0.935,-0.274,-2.777,-3.723,6.927,66.667,312.000,1.000,8.773,0.000
22136.060,21088.720,26250.640,71870.610,26251.370,25588.800,23024.950,24937.730,-0.196,0.934,-0.281,-3.479,-4.364,8.606,66.667,313.000,1.000,6.843,0.000
21921.420,20880.810,25993.770,71154.550,25995.460,25339.780,22803.950,24699.680,-0.191,0.942,-0.283,-3.967,-5.035,9.979,66.667,314.000,1.000,0.007,0.000
21704.360,20671.320,25733.570,70431.430,25735.590,25085.960,22578.780,24453.620,-0.182,0.961,-0.287,-5.096,-5.890,11.963,66.667,315.000,1.000,1.849,0.000
21490.230,20468.240,25476.560,69707.210,25475.180,24827.240,22350.250,24199.680,-0.167,0.972,-0.290,-6.531,-6.653,13.550,66.667,316.000,1.000,2.525,0.000
21277.240,20268.650,25222.800,68985.950,25217.510,24569.280,22126.400,23946.460,-0.162,0.978,-0.291,-7.385,-7.019,14.191,66.667,317.000,1.000,9.983,0.000
21056.870,20059.100,24963.170,68263.040,24958.470,24309.570,21904.190,23694.230,-0.159,0.977,-0.288,-7.721,-7.050,13.824,66.667,318.000,1.000,3.135,0.000
20833.410,19843.340,24700.070,67550.780,24699.490,24048.040,21683.050,23445.640,-0.166,0.966,-0.286,-7.782,-6.866,13.153,66.667,319.000,1.000,0.004,0.000
20619.140,19636.990,24444.640,66862.460,24447.430,23794.760,21467.370,23204.640,-0.178,0.944,-0.290,-7.599,-6.836,11.963,66.667,320.000,1.000,10.637,0.000
20415.450,19441.920,24198.580,66181.730,24202.560,23551.030,21249.430,22967.100,-0.184,0.926,-0.285,-7.080,-6.744,11.139,66.667,321.000,1.000,3.159,0.000
20209.920,19244.390,23950.940,65481.160,23956.530,23304.790,21021.270,22726.830,-0.181,0.918,-0.276,-6.470,-6.836,10.529,66.667,322.000,1.000,0.016,0.000
19990.670,19032.720,23690.480,64753.250,23700.270,23049.290,20783.960,22476.860,-0.167,0.929,-0.268,-5.829,-6.897,9.949,66.667,323.000,1.000,1.836,0.000
19766.700,18816.290,23426.020,64017.610,23440.540,22794.630,20547.150,22222.920,-0.143,0.961,-0.257,-5.157,-6.775,8.972,66.667,324.000,1.000,11.783,0.000
19560.800,18618.940,23180.850,63301.870,23198.200,22555.820,20331.490,21986.950,-0.127,0.977,-0.241,-4.456,-5.768,7.050,66.667,325.000,1.000,0.012,0.000
19369.190,18439.470,22952.080,62608.880,22970.910,22327.170,20136.640,21767.400,-0.117,0.990,-0.236,-3.540,-4.333,4.730,66.667,326.000,1.000,1.918,0.000
19168.030,18254.150,22715.790,61919.610,22734.990,22088.630,19934.780,21540.210,-0.130,0.983,-0.239,-3.448,-2.686,3.021,66.667,327.000,1.000,5.035,0.000
18954.510,18056.090,22466.760,61223.780,22484.450,21836.460,19715.070,21301.700,-0.143,0.964,-0.242,-3.937,-1.617,2.594,66.667,328.000,1.000,2.501,0.000
18741.530,17853.970,22215.140,60521.790,22229.910,21583.640,19489.090,21063.850,-0.138,0.952,-0.251,-4.425,-0.977,3.052,66.667,329.000,1.000,2.470,0.000
18535.690,17655.400,21967.720,59817.110,21980.530,21340.440,19268.370,20832.710,-0.140,0.956,-0.252,-4.303,-0.549,3.662,66.667,330.000,1.000,11.283,0.000
18332.330,17458.380,21720.940,59114.200,21734.520,21101.960,19054.150,20604.900,-0.133,0.959,-0.244,-4.303,-0.061,3.265,66.667,331.000,1.000,3.074,0.000
18125.490,17256.790,21469.240,58416.570,21484.180,20857.040,18838.130,20371.700,-0.119,0.970,-0.246,-3.754,0.854,3.143,66.667,332.000,1.000,0.013,0.000
17918.500,17055.240,21218.420,57730.280,21232.320,20609.500,18619.730,20131.210,-0.143,0.963,-0.235,-3.296,2.045,2.228,66.667,333.000,1.000,8.139,0.000
17715.580,16859.730,20975.030,57055.000,20986.240,20368.530,18405.730,19888.980,-0.132,0.958,-0.243,-3.357,2.991,1.648,66.667,334.000,1.000,2.414,0.000
17515.310,16668.800,20737.110,56382.510,20746.780,20136.800,18199.300,19655.700,-0.160,0.952,-0.254,-2.655,3.723,1.984,66.667,335.000,1.000,2.576,0.000
17316.730,16480.760,20501.420,55710.150,20511.790,19915.380,18000.840,19436.890,-0.166,0.939,-0.252,-2.563,3.937,1.129,66.667,336.000,1.000,2.422,0.000
17116.760,16289.460,20262.210,55036.100,20274.430,19693.480,17801.720,19220.800,-0.189,0.917,-0.247,-2.136,4.242,1.343,66.667,337.000,1.000,13.872,0.000
16913.230,16092.440,20017.780,54358.900,20032.690,19461.050,17595.550,18998.130,-0.162,0.934,-0.271,-1.801,4.028,2.655,66.667,338.000,1.000,2.990,0.000
16712.410,15899.580,19777.210,53686.050,19796.310,19226.530,17389.530,18773.270,-0.140,0.976,-0.293,-0.793,3.113,3.052,66.667,339.000,1.000,0.013,0.000
16511.560,15707.780,19538.790,53016.490,19562.660,18994.090,17183.160,18546.410,-0.127,1.015,-0.261,0.854,2.808,0.092,66.667,340.000,1.000,1.938,0.000
16305.730,15510.200,19296.870,52345.510,19323.710,18763.130,16973.600,18316.400,-0.161,0.999,-0.220,0.824,3.540,-2.716,66.667,341.000,1.000,2.545,0.000
16107.810,15320.710,19062.460,51685.450,19089.190,18542.500,16771.600,18091.550,-0.184,0.950,-0.216,-1.251,4.700,-1.923,66.667,342.000,1.000,11.865,0.000
15921.700,15144.460,18839.330,51039.870,18863.950,18330.580,16578.410,17877.230,-0.175,0.910,-0.263,-2.869,4.974,0.305,66.667,343.000,1.000,0.017,0.000
15732.170,14967.060,18614.690,50391.420,18638.340,18114.270,16380.780,17667.140,-0.159,0.921,-0.304,-1.282,3.906,0.427,66.667,344.000,1.000,4.864,0.000
15531.890,14781.020,18381.350,49731.840,18407.540,17890.940,16175.560,17450.620,-0.135,0.973,-0.301,1.434,2.686,-2.136,66.667,345.000,1.000,0.008,0.000
15325.780,14587.990,18142.640,49068.870,18174.340,17664.930,15970.610,17225.410,-0.143,1.008,-0.264,2.167,2.625,-4.089,66.667,346.000,1.000,2.583,0.000
15117.410,14389.920,17901.170,48410.840,17939.370,17436.280,15765.940,16996.670,-0.168,0.993,-0.231,0.122,3.326,-4.395,66.667,347.000,1.000,0.013,0.000
14910.910,14193.180,17659.630,47759.800,17702.050,17205.860,15557.750,16771.820,-0.192,0.941,-0.223,-2.380,4.059,-3.265,66.667,348.000,1.000,13.070,0.000
14717.430,14009.850,17429.110,47114.780,17471.180,16984.930,15356.690,16562.050,-0.190,0.929,-0.253,-2.991,3.632,-2.289,66.667,349.000,1.000,3.068,0.000
14535.170,13837.130,17209.770,46472.620,17249.460,16775.660,15166.570,16362.080,-0.188,0.923,-0.281,-2.380,3.357,-2.991,66.667,350.000,1.000,0.009,0.000
14340.100,13650.390,16978.360,45821.170,17017.610,16552.420,14964.290,16144.710,-0.179,0.936,-0.281,-1.282,2.655,-3.540,66.667,351.000,1.000,1.878,0.000
14126.950,13446.150,16729.100,45160.120,16769.460,16307.490,14742.280,15904.640,-0.177,0.940,-0.262,-1.495,2.319,-3.815,66.667,352.000,1.000,14.413,0.000
13915.130,13244.930,16481.130,44505.760,16521.580,16064.540,14520.840,15665.390,-0.179,0.918,-0.249,-2.167,2.319,-3.143,66.667,353.000,1.000,0.010,0.000
13711.630,13052.170,16241.550,43859.520,16279.950,15830.840,14307.910,15438.220,-0.181,0.908,-0.258,-2.258,2.258,-2.350,66.667,354.000,1.000,2.491,0.000
13511.690,12863.050,16005.870,43211.370,16039.880,15599.070,14097.920,15217.500,-0.193,0.911,-0.272,-1.312,2.258,-2.350,66.667,355.000,1.000,0.007,0.000
13316.560,12679.630,15775.060,42565.120,15804.500,15374.220,13893.750,15001.310,-0.191,0.926,-0.275,-0.580,1.892,-2.563,66.667,356.000,1.000,8.377,0.000
13129.830,12504.790,15552.240,41932.370,15581.030,15164.000,13700.320,14790.990,-0.188,0.939,-0.269,-0.458,1.526,-2.411,66.667,357.000,1.000,23.547,0.000
12942.530,12327.910,15328.000,41305.370,15361.140,14957.000,13508.090,14577.470,-0.189,0.952,-0.268,-0.549,1.160,-1.801,66.667,358.000,1.000,0.024,0.000
12740.140,12132.790,15087.810,40665.660,15125.740,14730.670,13300.000,14348.220,-0.192,0.960,-0.263,-0.427,1.007,-2.014,66.667,359.000,1.000,0.009,0.000
12530.200,11927.890,14840.800,40019.160,14878.900,14489.380,13081.690,14113.400,-0.194,0.966,-0.259,-0.458,0.977,-2.350,66.667,360.000,1.000,4.987,0.000
12336.340,11740.920,14612.040,39387.770,14646.070,14264.260,12879.270,13898.530,-0.195,0.970,-0.261,-0.580,0.885,-2.563,66.667,361.000,1.000,3.570,0.000
12165.000,11579.780,14406.920,38777.070,14436.990,14067.570,12701.740,13709.350,-0.192,0.978,-0.263,-0.885,0.702,-2.655,66.667,362.000,1.000,0.007,0.000
12008.920,11434.130,14216.380,38183.530,14246.740,13888.590,12542.450,13534.110,-0.187,0.980,-0.263,-1.373,0.488,-2.441,66.667,363.000,1.000,0.003,0.000
11851.960,11285.680,14024.320,37596.100,14058.890,13706.870,12383.470,13353.040,-0.181,0.976,-0.265,-2.045,0.366,-2.014,66.667,364.000,1.000,2.625,0.000
11672.790,11114.270,13810.460,36994.260,13848.540,13498.980,12198.190,13146.030,-0.178,0.969,-0.261,-2.686,0.366,-1.801,66.667,365.000,1.000,2.433,0.000
11465.450,10916.160,13569.460,36366.500,13607.830,13257.190,11978.300,12914.280,-0.174,0.966,-0.263,-3.143,0.488,-1.648,66.667,366.000,1.000,2.561,0.000
11234.630,10696.300,13306.270,35712.270,13345.640,12992.690,11738.490,12667.890,-0.171,0.959,-0.264,-3.448,0.580,-1.434,66.667,367.000,1.000,2.516,0.000
11003.120,10475.860,13042.880,35056.140,13087.190,12737.060,11507.900,12421.150,-0.172,0.948,-0.260,-3.540,0.702,-1.343,66.667,368.000,1.000,2.523,0.000
10816.800,10300.700,12823.910,34447.090,12873.520,12531.930,11323.270,12211.680,-0.175,0.934,-0.259,-3.418,0.916,-1.495,66.667,369.000,1.000,11.240,0.000
10689.460,10184.260,12662.560,33897.430,12714.650,12385.150,11193.860,12057.350,-0.183,0.926,-0.260,-2.899,1.129,-2.014,66.667,370.000,1.000,3.006,0.000
10573.050,10076.140,12510.470,33358.100,12562.910,12248.540,11072.710,11913.940,-0.188,0.919,-0.267,-2.502,1.160,-2.563,66.667,371.000,1.000,0.009,0.000
10422.200,9930.509,12322.890,32785.920,12374.430,12072.880,10911.910,11738.040,-0.187,0.920,-0.268,-2.014,0.885,-2.777,66.667,372.000,1.000,1.983,0.000
10233.790,9747.724,12098.760,32179.230,12148.530,11853.290,10708.770,11528.940,-0.184,0.924,-0.266,-1.373,0.854,-3.082,66.667,373.000,1.000,6.174,0.000
10024.890,9547.847,11856.000,31554.930,11903.440,11611.400,10484.300,11300.370,-0.184,0.933,-0.263,-0.885,0.854,-3.784,66.667,374.000,1.000,3.136,0.000
9811.604,9345.522,11609.700,30928.400,11653.080,11365.000,10256.600,11064.020,-0.176,0.942,-0.264,-0.031,1.038,-4.883,66.667,375.000,1.000,0.010,0.000
9607.404,9152.487,11372.710,30313.420,11410.400,11126.360,10038.550,10837.720,-0.169,0.953,-0.261,0.549,1.068,-5.920,66.667,376.000,1.000,13.177,0.000
9424.868,8982.048,11157.820,29721.400,11190.750,10909.600,9842.525,10637.600,-0.172,0.958,-0.265,0.580,1.190,-6.348,66.667,377.000,1.000,3.124,0.000
9260.129,8828.646,10960.770,29145.460,10991.120,10712.680,9664.836,10454.620,-0.181,0.945,-0.265,0.336,1.160,-6.775,66.667,378.000,1.000,0.009,0.000
9093.616,8670.025,10761.640,28567.600,10790.580,10515.890,9484.959,10266.840,-0.195,0.934,-0.265,0.458,0.946,-6.622,66.667,379.000,1.000,1.852,0.000
8916.236,8499.555,10551.600,27980.460,10578.270,10310.600,9292.711,10067.340,-0.203,0.917,-0.263,0.061,0.458,-6.104,66.667,380.000,1.000,2.485,0.000
8735.722,8327.580,10338.390,27388.640,10363.370,10107.380,9099.722,9866.127,-0.223,0.897,-0.270,-0.244,-0.275,-4.669,66.667,381.000,1.000,3.683,0.000
8553.849,8154.047,10123.730,26794.350,10150.390,9906.151,8909.979,9664.152,-0.228,0.891,-0.286,-0.214,-1.282,-3.815,66.667,382.000,1.000,13.832,0.000
8371.016,7979.489,9908.049,26202.300,9937.847,9701.042,8719.395,9459.054,-0.226,0.899,-0.286,1.404,-2.258,-4.120,66.667,383.000,1.000,3.123,0.000
8195.836,7814.869,9700.386,25620.430,9732.234,9502.459,8540.136,9261.097,-0.219,0.917,-0.275,3.174,-3.052,-5.157,66.667,384.000,1.000,0.012,0.000
8026.343,7656.252,9498.224,25045.230,9531.151,9311.225,8373.649,9068.918,-0.202,0.949,-0.256,4.486,-3.540,-6.378,66.667,385.000,1.000,1.818,0.000
7855.649,7493.705,9293.170,24471.950,9324.775,9115.556,8201.627,8873.350,-0.183,0.983,-0.234,4.822,-3.723,-6.958,66.667,386.000,1.000,2.535,0.000
7691.880,7336.726,9094.519,23908.950,9120.599,8921.756,8024.493,8684.727,-0.177,0.996,-0.224,3.418,-3.754,-6.531,66.667,387.000,1.000,3.679,0.000
7529.800,7182.547,8899.683,23350.270,8919.476,8729.207,7845.157,8502.486,-0.182,0.986,-0.236,0.977,-3.540,-4.974,66.667,388.000,1.000,14.406,0.000
7342.146,7002.863,8680.795,22766.870,8697.981,8511.007,7644.055,8297.525,-0.189,0.971,-0.249,-1.526,-3.510,-2.350,66.667,389.000,1.000,0.012,0.000
7139.514,6808.103,8446.284,22161.830,8463.663,8272.261,7430.203,8074.044,-0.187,0.960,-0.260,-3.571,-3.906,0.061,66.667,390.000,1.000,1.917,0.000
6960.115,6638.655,8234.384,21571.610,8253.080,8053.943,7239.371,7867.523,-0.180,0.958,-0.260,-4.913,-4.242,1.923,66.667,391.000,1.000,2.500,0.000
6802.222,6492.293,8045.068,21004.770,8065.991,7866.845,7073.257,7680.367,-0.173,0.963,-0.258,-5.493,-4.303,3.235,66.667,392.000,1.000,2.580,0.000
6644.369,6346.406,7857.426,20446.340,7879.959,7690.227,6911.960,7495.716,-0.162,0.972,-0.258,-5.737,-4.059,4.150,66.667,393.000,1.000,11.136,0.000
6480.656,6192.929,7663.622,19890.440,7686.084,7504.899,6742.009,7306.294,-0.150,0.973,-0.256,-6.134,-3.479,5.066,66.667,394.000,1.000,2.909,0.000
6306.876,6025.034,7458.220,19331.410,7478.813,7302.258,6555.589,7107.794,-0.141,0.966,-0.253,-6.805,-2.869,6.104,66.667,395.000,1.000,0.008,0.000
6126.403,5849.159,7245.592,18766.200,7262.643,7092.672,6361.735,6905.342,-0.134,0.953,-0.252,-7.874,-2.228,7.568,66.667,396.000,1.000,5.913,0.000
5954.788,5684.421,7042.203,18206.860,7055.386,6894.024,6180.220,6716.210,-0.126,0.935,-0.255,-8.881,-1.343,8.942,66.667,397.000,1.000,2.413,0.000
5792.918,5530.675,6848.728,17657.980,6859.475,6704.968,6011.139,6540.118,-0.127,0.920,-0.264,-9.552,-0.580,10.437,66.667,398.000,1.000,2.531,0.000
5629.989,5376.307,6653.161,17108.400,6663.424,6515.426,5840.862,6355.606,-0.127,0.903,-0.278,-9.857,0.153,11.932,66.667,399.000,1.000,6.824,0.000
5470.208,5222.989,6459.004,16560.630,6470.705,6327.866,5672.355,6162.616,-0.130,0.887,-0.289,-9.308,0.824,12.604,66.667,400.000,1.000,0.008,0.000
5315.575,5070.308,6269.648,16020.480,6283.893,6143.050,5508.760,5972.479,-0.115,0.882,-0.292,-7.904,1.282,12.604,66.667,401.000,1.000,4.449,0.000
5154.802,4911.394,6075.293,15479.670,6092.745,5953.111,5339.550,5781.232,-0.119,0.874,-0.294,-6.134,1.801,12.329,66.667,402.000,1.000,3.667,0.000
4992.272,4753.875,5880.775,14940.250,5903.577,5763.290,5172.000,5595.893,-0.139,0.871,-0.287,-4.547,2.991,12.299,66.667,403.000,1.000,9.424,0.000
4831.274,4600.296,5689.525,14398.020,5718.657,5577.321,5010.142,5415.726,-0.159,0.876,-0.285,-3.296,3.448,12.177,66.667,404.000,1.000,0.020,0.000
4659.628,4438.607,5488.929,13840.560,5523.148,5381.173,4837.203,5223.320,-0.173,0.902,-0.285,-1.740,3.632,11.719,66.667,405.000,1.000,1.795,0.000
4482.612,4271.645,5283.741,13282.210,5322.500,5172.861,4659.675,5027.889,-0.186,0.942,-0.273,-0.275,3.601,9.674,66.667,406.000,1.000,3.825,0.000
4312.126,4108.808,5085.006,12733.460,5126.506,4964.933,4491.000,4839.163,-0.183,0.976,-0.254,0.977,3.510,7.141,66.667,407.000,1.000,10.613,0.000
4151.628,3955.307,4895.009,12192.320,4936.013,4768.767,4329.099,4653.813,-0.181,1.004,-0.263,1.068,3.632,5.310,66.667,408.000,1.000,0.011,0.000
3999.218,3810.741,4711.538,11661.330,4751.067,4585.359,4169.662,4474.695,-0.198,1.007,-0.271,0.732,3.479,3.723,66.667,409.000,1.000,1.776,0.000
3842.352,3662.368,4523.511,11128.340,4561.584,4403.102,4003.021,4296.813,-0.198,0.989,-0.281,0.031,2.869,2.258,66.667,410.000,1.000,3.740,0.000
3680.137,3509.485,4331.746,10588.350,4367.745,4221.071,3831.572,4118.240,-0.198,0.987,-0.292,0.275,2.045,1.526,66.667,411.000,1.000,9.436,0.000
3522.055,3360.927,4144.823,10051.870,4178.379,4042.308,3664.653,3941.475,-0.216,0.973,-0.264,0.183,1.587,0.122,66.667,412.000,1.000,0.010,0.000
3364.605,3211.999,3958.059,9519.002,3988.805,3858.043,3498.289,3762.416,-0.201,0.960,-0.254,-0.580,1.007,0.183,66.667,413.000,1.000,1.887,0.000
3205.980,3060.994,3770.455,8991.172,3799.803,3671.184,3335.434,3586.789,-0.197,0.969,-0.273,-1.068,0.366,1.556,66.667,414.000,1.000,8.708,0.000
3049.374,2912.009,3585.894,8470.766,3617.811,3492.363,3180.203,3418.654,-0.193,0.986,-0.268,-1.556,-0.397,1.343,66.667,415.000,1.000,3.048,0.000
2891.060,2762.260,3401.008,7951.978,3438.119,3318.507,3023.764,3245.095,-0.167,1.006,-0.272,-2.014,-1.099,0.854,66.667,416.000,1.000,0.006,0.000
2728.809,2609.167,3213.473,7430.932,3254.879,3142.020,2860.703,3060.563,-0.171,1.018,-0.281,-2.350,-1.251,0.641,66.667,417.000,1.000,1.941,0.000
2567.025,2455.377,3025.099,6907.146,3067.108,2961.937,2693.523,2875.903,-0.170,1.018,-0.264,-3.510,-1.282,-0.336,66.667,418.000,1.000,8.793,0.000
2412.022,2307.101,2840.079,6387.591,2879.458,2784.405,2531.108,2701.700,-0.155,1.000,-0.262,-4.791,-1.312,-0.519,66.667,419.000,1.000,2.437,0.000
2261.988,2164.726,2658.915,5878.473,2696.601,2613.642,2378.584,2536.209,-0.157,0.973,-0.265,-5.707,-0.793,-0.214,66.667,420.000,1.000,3.761,0.000
2108.478,2019.173,2475.124,5370.375,2512.998,2442.592,2223.541,2366.296,-0.141,0.959,-0.272,-6.409,-0.458,-0.366,66.667,421.000,1.000,26.858,0.000
1949.939,1866.643,2286.052,4853.499,2322.886,2263.736,2057.430,2185.533,-0.110,0.966,-0.289,-6.012,-0.153,-0.305,66.667,422.000,1.000,0.013,0.000
1791.825,1713.245,2096.527,4332.455,2131.251,2080.046,1886.995,2002.054,-0.118,0.972,-0.280,-5.005,0.183,-1.678,66.667,423.000,1.000,13.792,0.000
1638.913,1563.104,1911.970,3819.119,1945.298,1895.158,1716.302,1823.287,-0.132,0.936,-0.249,-5.890,1.160,-3.571,66.667,424.000,1.000,0.009,0.000
1485.416,1410.899,1727.409,3312.728,1759.948,1707.624,1544.818,1643.168,-0.130,0.894,-0.232,-7.141,2.441,-2.380,66.667,425.000,1.000,2.417,0.000
1323.212,1253.086,1534.783,2799.801,1567.261,1517.250,1371.540,1456.084,-0.125,0.868,-0.259,-7.355,3.876,-0.793,66.667,426.000,1.000,0.011,0.000
1156.034,1095.352,1338.655,2278.374,1371.570,1326.424,1198.333,1270.989,-0.107,0.894,-0.305,-4.517,4.364,-1.099,66.667,427.000,1.000,4.447,0.000
993.236,944.971,1149.740,1761.417,1183.543,1144.823,1034.902,1096.436,-0.114,0.935,-0.306,-1.831,4.608,-3.693,66.667,428.000,1.000,5.032,0.000
846.899,812.112,978.982,1266.879,1016.055,988.812,896.027,938.404,-0.151,0.943,-0.250,-0.977,5.402,-5.219,66.667,429.000,1.000,2.467,0.000
721.302,699.255,827.637,801.031,870.020,855.093,779.636,799.027,-0.161,0.921,-0.215,-2.533,6.500,-4.211,66.667,430.000,1.000,2.471,0.000
608.476,596.444,686.518,351.312,732.525,725.870,669.419,671.672,-0.177,0.920,-0.235,-2.472,6.897,-2.869,66.667,431.000,1.000,2.532,0.000
496.725,491.922,545.274,-102.259,592.319,592.285,554.092,545.659,-0.207,0.921,-0.256,-0.702,7.355,-4.120,66.667,432.000,1.000,2.491,0.000
367.000,367.479,386.094,-581.113,432.673,439.327,417.818,400.308,-0.222,0.916,-0.247,0.244,6.927,-5.127,66.667,433.000,1.000,2.503,0.000
210.515,216.109,200.573,-1085.110,246.480,259.275,253.230,225.730,-0.219,0.921,-0.231,0.000,6.348,-4.303,66.667,434.000,1.000,2.466,0.000
43.762,56.216,5.641,-1587.772,52.553,69.648,75.793,38.204,-0.221,0.930,-0.230,0.061,5.737,-2.991,66.667,435.000,1.000,2.542,0.000
-117.777,-97.309,-182.263,-2076.159,-133.240,-115.068,-95.714,-143.590,-0.221,0.935,-0.244,0.488,4.852,-2.289,66.667,436.000,1.000,2.403,0.000
-271.732,-243.926,-361.286,-2559.112,-310.478,-292.145,-253.861,-312.274,-0.215,0.947,-0.249,1.129,3.906,-2.106,66.667,437.000,1.000,3.181,0.000
-418.172,-383.958,-533.517,-3043.803,-482.802,-462.670,-403.024,-472.809,-0.207,0.958,-0.246,1.556,3.235,-1.984,66.667,438.000,1.000,0.010,0.000
-560.021,-519.084,-702.607,-3527.177,-654.180,-629.129,-550.726,-632.584,-0.199,0.967,-0.248,1.770,2.869,-1.801,66.667,439.000,1.000,1.808,0.000
-698.650,-651.049,-870.210,-4001.228,-822.283,-787.864,-696.744,-789.417,-0.194,0.977,-0.252,1.740,2.319,-1.495,66.667,440.000,1.000,8.813,0.000
-839.803,-786.999,-1042.096,-4473.281,-990.408,-945.280,-843.930,-950.274,-0.189,0.980,-0.246,1.587,1.801,-1.404,66.667,441.000,1.000,3.129,0.000
-989.940,-933.195,-1223.588,-4954.869,-1166.828,-1114.056,-998.117,-1123.027,-0.184,0.980,-0.244,1.526,1.404,-1.221,66.667,442.000,1.000,0.008,0.000
-1132.977,-1071.634,-1397.393,-5428.141,-1336.514,-1279.473,-1145.265,-1285.556,-0.180,0.976,-0.246,1.129,1.068,-1.038,66.667,443.000,1.000,1.823,0.000
-1261.039,-1192.868,-1554.360,-5881.889,-1489.744,-1429.443,-1277.951,-1426.258,-0.174,0.973,-0.250,0.793,0.824,-0.854,66.667,444.000,1.000,8.826,0.000
-1397.843,-1322.123,-1717.251,-6342.709,-1649.130,-1584.295,-1417.782,-1573.501,-0.167,0.971,-0.247,0.458,0.610,-0.732,66.667,445.000,1.000,11.816,0.000
-1550.360,-1467.540,-1893.798,-6820.339,-1822.707,-1752.259,-1569.319,-1739.751,-0.159,0.971,-0.253,0.092,0.397,-0.671,66.667,446.000,1.000,0.017,0.000
-1699.250,-1608.993,-2067.128,-7291.663,-1993.785,-1918.546,-1715.332,-1905.412,-0.158,0.971,-0.257,-0.183,0.549,-0.793,66.667,447.000,1.000,1.820,0.000
-1848.189,-1750.764,-2242.173,-7757.321,-2167.473,-2088.348,-1864.670,-2070.040,-0.159,0.973,-0.261,-0.214,0.671,-1.343,66.667,448.000,1.000,7.518,0.000
-2005.271,-1901.052,-2425.537,-8229.929,-2351.836,-2268.436,-2027.463,-2239.274,-0.162,0.973,-0.268,0.000,1.007,-2.777,66.667,449.000,1.000,2.505,0.000
-2154.609,-2043.925,-2601.260,-8698.882,-2531.561,-2443.943,-2187.177,-2401.015,-0.164,0.987,-0.271,0.732,1.312,-4.669,66.667,450.000,1.000,2.500,0.000
-2289.919,-2173.859,-2764.651,-9154.525,-2698.400,-2607.365,-2333.938,-2551.542,-0.153,0.989,-0.270,0.916,1.526,-6.195,66.667,451.000,1.000,5.002,0.000
-2418.436,-2297.238,-2922.044,-9596.891,-2855.714,-2761.344,-2471.821,-2697.120,-0.137,0.979,-0.274,0.336,1.526,-6.927,66.667,452.000,1.000,2.522,0.000
-2549.429,-2421.809,-3080.041,-10035.390,-3012.351,-2912.178,-2611.508,-2847.148,-0.133,0.956,-0.272,-0.366,1.617,-6.805,66.667,453.000,1.000,3.099,0.000
-2692.053,-2556.958,-3246.854,-10488.040,-3180.219,-3070.485,-2763.148,-3007.577,-0.135,0.928,-0.275,-1.465,1.587,-5.676,66.667,454.000,1.000,0.010,0.000
-2843.085,-2701.146,-3421.165,-10956.410,-3358.507,-3242.142,-2924.897,-3173.434,-0.155,0.898,-0.280,-2.289,1.556,-3.845,66.667,455.000,1.000,1.891,0.000
-2992.344,-2844.501,-3595.146,-11425.250,-3537.489,-3421.092,-3090.075,-3337.758,-0.175,0.892,-0.284,-2.777,1.404,-2.808,66.667,456.000,1.000,11.301,0.000
-3138.466,-2985.341,-3767.643,-11886.260,-3713.571,-3595.270,-3254.273,-3500.469,-0.187,0.897,-0.288,-2.167,1.373,-2.686,66.667,457.000,1.000,3.096,0.000
-3283.992,-3125.739,-3939.830,-12339.990,-3887.216,-3760.925,-3412.814,-3664.275,-0.190,0.910,-0.284,-1.434,1.038,-3.418,66.667,458.000,1.000,0.022,0.000
-3424.869,-3260.233,-4106.648,-12788.080,-4055.629,-3920.504,-3561.795,-3825.752,-0.184,0.921,-0.277,-0.916,0.946,-3.815,66.667,459.000,1.000,1.838,0.000
-3560.996,-3388.953,-4268.169,-13237.120,-4221.158,-4076.663,-3706.656,-3983.074,-0.190,0.926,-0.269,-0.885,0.732,-3.815,66.667,460.000,1.000,8.760,0.000
-3700.733,-3520.955,-4433.684,-13694.170,-4392.815,-4235.862,-3858.663,-4143.951,-0.197,0.928,-0.272,-0.793,0.610,-4.181,66.667,461.000,1.000,4.323,0.000
-3833.588,-3645.989,-4592.095,-14142.120,-4556.524,-4389.300,-4004.379,-4298.827,-0.198,0.933,-0.269,-0.824,0.427,-4.303,66.667,462.000,1.000,0.008,0.000
-3938.365,-3744.661,-4720.733,-14556.740,-4686.781,-4517.018,-4115.889,-4422.510,-0.196,0.941,-0.267,-1.038,0.153,-3.784,66.667,463.000,1.000,13.140,0.000
-4031.624,-3832.206,-4836.591,-14955.660,-4800.805,-4633.068,-4209.309,-4529.033,-0.197,0.954,-0.267,-1.648,-0.122,-3.082,66.667,464.000,1.000,4.923,0.000
-4145.386,-3936.298,-4972.245,-15371.750,-4932.621,-4762.803,-4322.013,-4653.767,-0.195,0.964,-0.262,-2.289,-0.366,-2.319,66.667,465.000,1.000,0.011,0.000
-4280.797,-4059.200,-5129.204,-15807.070,-5085.555,-4905.597,-4457.243,-4799.426,-0.192,0.972,-0.264,-2.960,-0.580,-1.465,66.667,466.000,1.000,0.006,0.000
-4427.896,-4195.580,-5299.184,-16254.400,-5253.336,-5061.453,-4605.848,-4958.007,-0.195,0.974,-0.265,-3.845,-0.763,-0.763,66.667,467.000,1.000,3.142,0.000
-4581.265,-4340.689,-5477.125,-16710.640,-5431.590,-5232.090,-4763.976,-5128.070,-0.198,0.971,-0.267,-4.517,-0.885,0.275,66.667,468.000,1.000,0.007,0.000
-4729.112,-4480.773,-5649.552,-17163.020,-5607.091,-5402.502,-4919.998,-5298.040,-0.195,0.964,-0.268,-5.157,-1.068,1.160,66.667,469.000,1.000,10.680,0.000
-4862.449,-4606.568,-5806.580,-17600.290,-5769.316,-5559.287,-5062.684,-5454.326,-0.189,0.958,-0.274,-5.402,-1.343,1.984,66.667,470.000,1.000,9.320,0.000
-4988.325,-4726.492,-5955.942,-18027.320,-5922.582,-5707.869,-5195.451,-5598.854,-0.186,0.954,-0.269,-5.219,-1.526,2.350,66.667,471.000,1.000,0.008,0.000
-5119.290,-4852.898,-6111.242,-18455.470,-6078.063,-5861.424,-5330.743,-5744.993,-0.187,0.949,-0.266,-5.035,-1.556,2.533,66.667,472.000,1.000,8.752,0.000
-5258.345,-4987.010,-6275.808,-18889.600,-6242.200,-6024.590,-5477.265,-5902.377,-0.184,0.948,-0.265,-4.852,-1.617,2.899,66.667,473.000,1.000,0.013,0.000
-5393.601,-5117.555,-6437.626,-19321.830,-6406.031,-6185.531,-5624.579,-6060.305,-0.179,0.942,-0.267,-4.730,-1.801,3.265,66.667,474.000,1.000,2.531,0.000
-5514.004,-5234.475,-6585.518,-19741.860,-6556.761,-6332.577,-5756.441,-6201.785,-0.172,0.935,-0.262,-4.547,-1.862,3.754,66.667,475.000,1.000,0.018,0.000
-5626.173,-5343.054,-6724.613,-20150.570,-6697.513,-6470.497,-5878.119,-6332.435,-0.164,0.931,-0.259,-4.700,-1.617,4.150,66.667,476.000,1.000,10.017,0.000
-5742.411,-5453.999,-6864.712,-20555.730,-6838.894,-6608.581,-6002.782,-6466.334,-0.155,0.929,-0.258,-4.730,-1.373,4.639,66.667,477.000,1.000,0.013,0.000
-5864.845,-5569.720,-7008.628,-20964.360,-6985.185,-6748.689,-6131.892,-6604.958,-0.147,0.927,-0.259,-4.761,-0.885,5.157,66.667,478.000,1.000,21.805,0.000
-5988.997,-5687.527,-7155.658,-21379.750,-7134.188,-6889.660,-6262.509,-6744.396,-0.142,0.927,-0.261,-4.944,-0.336,5.707,66.667,479.000,1.000,0.021,0.000
-6112.093,-5804.273,-7303.321,-21797.090,-7281.116,-7030.985,-6393.339,-6884.663,-0.135,0.929,-0.264,-4.944,0.336,6.348,66.667,480.000,1.000,0.011,0.000
-6228.620,-5913.777,-7443.330,-22203.440,-7418.108,-7165.461,-6516.203,-7021.127,-0.135,0.930,-0.264,-5.066,1.068,6.348,66.667,481.000,1.000,2.504,0.000
-6340.488,-6019.037,-7579.172,-22601.720,-7550.646,-7297.208,-6631.763,-7153.135,-0.133,0.928,-0.264,-5.188,1.709,6.470,66.667,482.000,1.000,3.606,0.000
-6462.873,-6137.404,-7729.557,-23011.240,-7698.407,-7446.592,-6758.364,-7297.040,-0.130,0.918,-0.266,-5.310,2.502,6.653,66.667,483.000,1.000,0.008,0.000
-6597.788,-6273.155,-7894.066,-23431.300,-7859.406,-7613.364,-6898.491,-7453.407,-0.131,0.905,-0.273,-5.096,3.296,6.897,66.667,484.000,1.000,0.003,0.000
-6728.194,-6406.408,-8050.632,-23841.700,-8009.324,-7774.806,-7031.106,-7598.819,-0.138,0.891,-0.281,-4.730,3.845,7.263,66.667,485.000,1.000,2.598,0.000
-6847.925,-6525.493,-8193.153,-24241.050,-8142.769,-7921.847,-7148.870,-7730.563,-0.153,0.892,-0.283,-4.059,4.303,7.843,66.667,486.000,1.000,2.491,0.000
-6966.978,-6640.034,-8334.769,-24644.370,-8276.279,-8064.242,-7265.292,-7867.327,-0.164,0.914,-0.285,-3.265,4.364,8.148,66.667,487.000,1.000,3.685,0.000
-7089.350,-6756.412,-8479.841,-25050.600,-8415.561,-8208.165,-7386.489,-8011.574,-0.176,0.943,-0.286,-2.502,4.211,7.507,66.667,488.000,1.000,9.416,0.000
-7212.326,-6872.182,-8624.691,-25453.400,-8555.310,-8351.455,-7508.272,-8152.601,-0.180,0.963,-0.272,-2.045,3.906,6.073,66.667,489.000,1.000,0.008,0.000
-7332.591,-6984.504,-8766.665,-25851.950,-8693.206,-8487.854,-7625.529,-8285.061,-0.176,0.974,-0.275,-1.465,3.937,4.364,66.667,490.000,1.000,1.872,0.000
-7453.636,-7098.391,-8909.975,-26249.920,-8836.677,-8620.917,-7744.555,-8418.199,-0.182,0.988,-0.282,-0.580,3.723,2.625,66.667,491.000,1.000,8.708,0.000
-7585.853,-7223.879,-9064.286,-26659.180,-8997.242,-8765.838,-7878.903,-8567.020,-0.175,1.011,-0.284,0.427,3.113,0.397,66.667,492.000,1.000,4.410,0.000
-7727.390,-7356.786,-9226.364,-27079.200,-9168.759,-8921.436,-8023.912,-8724.435,-0.172,1.033,-0.273,0.732,2.716,-2.045,66.667,493.000,1.000,0.010,0.000
-7854.231,-7473.248,-9372.590,-27481.670,-9321.533,-9058.430,-8150.688,-8860.103,-0.181,1.035,-0.251,0.183,2.472,-3.479,66.667,494.000,1.000,13.103,0.000
-7947.038,-7554.726,-9485.682,-27844.160,-9435.347,-9157.634,-8239.075,-8958.270,-0.167,0.995,-0.243,-2.502,2.472,-3.326,66.667,495.000,1.000,8.143,0.000
-8029.542,-7625.553,-9589.527,-28192.070,-9536.554,-9249.248,-8317.806,-9048.532,-0.173,0.994,-0.281,-2.594,2.167,-1.923,66.667,496.000,1.000,0.013,0.000
-8134.136,-7721.802,-9714.141,-28561.120,-9658.188,-9364.956,-8422.054,-9163.415,-0.194,0.973,-0.286,-2.838,1.923,-3.235,66.667,497.000,1.000,1.879,0.000
-8255.712,-7836.513,-9853.284,-28947.180,-9794.196,-9492.779,-8541.893,-9293.512,-0.185,0.977,-0.272,-2.441,0.763,-3.479,66.667,498.000,1.000,2.420,0.000
-8384.406,-7955.068,-9999.178,-29338.000,-9936.019,-9622.274,-8665.771,-9430.731,-0.184,0.944,-0.237,-4.547,1.007,-3.021,66.667,499.000,1.000,2.565,0.000
-8524.585,-8087.198,-10158.430,-29738.390,-10091.460,-9771.237,-8807.801,-9585.387,-0.161,0.935,-0.238,-5.157,0.671,-0.946,66.667,500.000,1.000,2.437,0.000
-8666.017,-8227.165,-10319.920,-30139.200,-10252.420,-9942.385,-8962.239,-9741.890,-0.177,0.938,-0.248,-4.974,1.099,-0.549,66.667,501.000,1.000,2.554,0.000
-8788.971,-8348.592,-10462.100,-30521.170,-10398.330,-10102.340,-9099.298,-9873.653,-0.182,0.932,-0.268,-4.669,0.824,-0.854,66.667,502.000,1.000,10.549,0.000
-8894.429,-8447.916,-10586.010,-30888.420,-10526.610,-10231.470,-9213.062,-9985.733,-0.180,0.929,-0.266,-4.822,0.671,-0.671,66.667,503.000,1.000,0.011,0.000
-9002.811,-8547.953,-10712.940,-31259.120,-10653.710,-10352.330,-9326.036,-10105.140,-0.172,0.936,-0.276,-4.395,0.336,-0.519,66.667,504.000,1.000,1.883,0.000
-9124.681,-8662.386,-10854.030,-31636.700,-10789.700,-10483.310,-9447.628,-10240.230,-0.176,0.946,-0.281,-2.869,0.122,-1.495,66.667,505.000,1.000,2.572,0.000
-9246.607,-8778.189,-10996.860,-32010.750,-10926.170,-10611.510,-9563.363,-10372.660,-0.171,0.948,-0.272,-1.892,-0.031,-2.380,66.667,506.000,1.000,8.774,0.000
-9355.952,-8879.616,-11128.860,-32378.690,-11055.860,-10727.900,-9669.679,-10494.640,-0.168,0.936,-0.250,-1.923,0.000,-2.655,66.667,507.000,1.000,6.864,0.000
-9459.346,-8974.693,-11255.590,-32747.010,-11184.840,-10845.630,-9779.867,-10616.930,-0.156,0.927,-0.241,-2.258,0.153,-1.953,66.667,508.000,1.000,0.081,0.000
-9567.204,-9074.499,-11385.960,-33115.950,-11318.990,-10974.680,-9899.194,-10744.140,-0.158,0.936,-0.253,-1.831,0.519,-1.556,66.667,509.000,1.000,1.739,0.000
-9683.895,-9183.036,-11523.370,-33484.640,-11458.100,-11110.890,-10022.740,-10874.970,-0.161,0.934,-0.260,-1.556,0.793,-1.587,66.667,510.000,1.000,2.449,0.000
-9803.476,-9300.982,-11663.790,-33855.400,-11597.940,-11246.210,-10142.470,-11006.150,-0.162,0.931,-0.264,-1.556,0.824,-1.038,66.667,511.000,1.000,14.530,0.000
-9914.305,-9414.125,-11796.560,-34223.250,-11732.960,-11376.690,-10255.100,-11130.380,-0.161,0.936,-0.261,-1.465,0.854,-0.916,66.667,512.000,1.000,0.013,0.000
-10016.470,-9515.220,-11920.360,-34582.470,-11862.910,-11505.010,-10366.570,-11249.310,-0.166,0.944,-0.259,-0.763,1.068,-1.312,66.667,513.000,1.000,1.762,0.000
-10117.760,-9613.129,-12042.420,-34936.770,-11989.770,-11633.920,-10479.340,-11369.270,-0.170,0.953,-0.258,-0.427,1.251,-1.587,66.667,514.000,1.000,2.502,0.000
-10222.010,-9711.158,-12166.320,-35293.040,-12114.850,-11761.840,-10590.220,-11490.020,-0.174,0.959,-0.256,-0.519,1.251,-1.465,66.667,515.000,1.000,2.486,0.000
-10328.840,-9807.131,-12291.750,-35652.390,-12238.440,-11885.590,-10698.730,-11610.640,-0.174,0.960,-0.256,-0.916,1.221,-1.282,66.667,516.000,1.000,3.744,0.000
-10434.490,-9902.251,-12415.510,-36006.540,-12357.790,-12004.410,-10804.500,-11727.030,-0.176,0.958,-0.259,-0.824,1.282,-1.282,66.667,517.000,1.000,9.440,0.000
-10536.670,-9999.861,-12535.870,-36351.420,-12473.130,-12120.740,-10907.920,-11838.070,-0.174,0.958,-0.265,-0.977,1.160,-1.373,66.667,518.000,1.000,0.010,0.000
-10640.660,-10104.450,-12658.630,-36696.510,-12591.360,-12240.630,-11014.010,-11952.240,-0.171,0.955,-0.266,-1.221,1.007,-1.251,66.667,519.000,1.000,1.764,0.000
-10751.140,-10214.140,-12788.160,-37047.140,-12715.710,-12367.230,-11124.570,-12072.100,-0.171,0.950,-0.266,-1.373,0.854,-0.977,66.667,520.000,1.000,3.801,0.000
-10863.590,-10319.000,-12919.020,-37398.860,-12841.330,-12493.260,-11234.630,-12192.640,-0.169,0.951,-0.268,-1.282,0.977,-0.732,66.667,521.000,1.000,11.859,0.000
-10973.600,-10418.080,-13046.650,-37751.680,-12967.870,-12614.990,-11342.910,-12313.700,-0.176,0.960,-0.273,-1.007,1.007,-0.885,66.667,522.000,1.000,0.017,0.000
-11083.390,-10518.490,-13173.610,-38107.940,-13099.270,-12736.850,-11452.680,-12438.490,-0.177,0.970,-0.273,-0.732,0.946,-1.190,66.667,523.000,1.000,1.848,0.000
-11193.610,-10621.890,-13301.160,-38459.330,-13228.860,-12856.630,-11562.020,-12562.090,-0.179,0.971,-0.267,-0.641,0.824,-1.648,66.667,524.000,1.000,3.733,0.000
-11303.680,-10728.700,-13429.960,-38799.340,-13348.020,-12969.890,-11668.220,-12676.460,-0.177,0.960,-0.261,-1.099,0.763,-1.801,66.667,525.000,1.000,6.895,0.000
-11412.730,-10833.480,-13558.590,-39133.640,-13460.400,-13077.200,-11771.330,-12783.710,-0.176,0.955,-0.258,-1.343,0.854,-1.770,66.667,526.000,1.000,0.012,0.000
-11520.200,-10929.200,-13684.540,-39473.700,-13578.170,-13183.720,-11873.720,-12895.610,-0.174,0.956,-0.258,-1.404,0.885,-1.984,66.667,527.000,1.000,13.657,0.000
-11627.960,-11022.480,-13810.420,-39824.770,-13708.630,-13298.080,-11982.460,-13019.020,-0.168,0.950,-0.264,-1.556,0.793,-2.014,66.667,528.000,1.000,0.016,0.000
-11733.110,-11117.270,-13935.610,-40171.490,-13841.500,-13419.750,-12096.250,-13141.800,-0.164,0.944,-0.266,-1.892,0.977,-1.831,66.667,529.000,1.000,4.990,0.000
-11832.800,-11211.040,-14057.540,-40501.190,-13963.020,-13537.610,-12203.410,-13249.760,-0.161,0.938,-0.262,-2.045,1.129,-1.648,66.667,530.000,1.000,0.011,0.000
-11931.120,-11305.750,-14178.640,-40826.200,-14076.460,-13649.450,-12302.750,-13350.320,-0.164,0.940,-0.251,-1.892,1.526,-1.556,66.667,531.000,1.000,1.883,0.000
-12031.960,-11402.100,-14300.660,-41160.150,-14193.500,-13762.640,-12403.790,-13460.180,-0.158,0.945,-0.252,-1.984,1.862,-1.709,66.667,532.000,1.000,2.483,0.000
-12134.100,-11497.370,-14421.330,-41500.660,-14316.970,-13878.040,-12509.750,-13580.540,-0.155,0.944,-0.251,-2.319,2.258,-1.617,66.667,533.000,1.000,11.241,0.000
-12234.750,-11590.610,-14538.610,-41837.110,-14440.680,-13995.210,-12616.310,-13699.820,-0.154,0.938,-0.253,-2.563,2.625,-1.312,66.667,534.000,1.000,3.706,0.000
-12334.080,-11683.130,-14654.110,-42161.420,-14559.560,-14115.950,-12720.310,-13811.840,-0.156,0.936,-0.260,-2.502,3.021,-0.977,66.667,535.000,1.000,0.006,0.000
-12434.510,-11777.140,-14771.490,-42481.020,-14675.340,-14236.640,-12824.140,-13921.220,-0.160,0.938,-0.258,-2.380,3.479,-0.916,66.667,536.000,1.000,0.010,0.000
-12533.910,-11873.270,-14889.960,-42806.900,-14790.650,-14354.490,-12929.880,-14033.680,-0.162,0.936,-0.259,-2.136,4.028,-0.671,66.667,537.000,1.000,10.061,0.000
-12628.180,-11966.290,-15004.720,-43135.260,-14904.990,-14471.000,-13034.870,-14147.290,-0.167,0.935,-0.261,-2.014,4.242,-0.427,66.667,538.000,1.000,5.214,0.000
-12720.340,-12052.610,-15116.370,-43461.310,-15019.520,-14586.940,-13138.230,-14259.280,-0.169,0.934,-0.257,-1.770,4.639,-0.397,66.667,539.000,1.000,2.305,0.000
-12812.540,-12132.840,-15226.080,-43783.610,-15133.680,-14699.150,-13239.880,-14368.580,-0.172,0.938,-0.254,-1.495,4.730,-0.458,66.667,540.000,1.000,2.576,0.000
-12903.840,-12215.230,-15333.540,-44097.800,-15244.580,-14805.670,-13338.490,-14472.710,-0.173,0.940,-0.258,-1.373,4.852,-0.549,66.667,541.000,1.000,6.143,0.000
-12996.430,-12307.790,-15441.850,-44403.570,-15353.730,-14912.150,-13436.720,-14573.470,-0.172,0.946,-0.257,-1.343,4.974,-0.580,66.667,542.000,1.000,2.511,0.000
-13092.130,-12403.660,-15553.710,-44710.800,-15466.030,-15024.430,-13537.990,-14678.070,-0.170,0.952,-0.256,-1.343,5.219,-0.397,66.667,543.000,1.000,2.488,0.000
-13193.450,-12500.860,-15672.160,-45032.130,-15584.760,-15141.190,-13641.250,-14791.050,-0.167,0.959,-0.258,-1.312,5.371,-0.366,66.667,544.000,1.000,2.529,0.000
-13299.300,-12601.870,-15795.930,-45365.290,-15707.460,-15258.140,-13745.590,-14910.560,-0.164,0.965,-0.260,-1.373,5.524,-0.305,66.667,545.000,1.000,9.350,0.000
-13404.080,-12701.150,-15918.470,-45693.450,-15829.380,-15374.160,-13852.620,-15030.730,-0.159,0.970,-0.260,-1.495,5.646,-0.122,66.667,546.000,1.000,0.013,0.000
-13504.120,-12793.330,-16035.250,-46006.290,-15945.000,-15485.910,-13957.280,-15142.560,-0.156,0.974,-0.263,-1.953,5.707,0.031,66.667,547.000,1.000,13.805,0.000
-13599.200,-12878.760,-16147.600,-46312.390,-16053.790,-15593.100,-14054.650,-15245.590,-0.155,0.970,-0.263,-2.228,5.890,0.305,66.667,548.000,1.000,0.025,0.000
-13690.660,-12964.010,-16258.590,-46621.580,-16161.960,-15700.550,-14149.330,-15346.950,-0.160,0.964,-0.259,-2.594,6.073,0.580,66.667,549.000,1.000,8.014,0.000
-13773.660,-13045.450,-16361.720,-46925.490,-16266.210,-15800.820,-14239.870,-15443.340,-0.164,0.955,-0.262,-2.777,6.348,0.977,66.667,550.000,1.000,0.014,0.000
-13844.000,-13111.650,-16451.190,-47213.960,-16358.490,-15886.200,-14319.510,-15529.200,-0.169,0.950,-0.262,-2.777,6.256,1.099,66.667,551.000,1.000,0.006,0.000
-13913.800,-13174.880,-16540.600,-47498.140,-16448.010,-15969.070,-14396.410,-15614.760,-0.175,0.945,-0.261,-2.594,6.256,1.190,66.667,552.000,1.000,2.510,0.000
-13996.130,-13253.800,-16643.680,-47792.060,-16547.430,-16062.660,-14482.350,-15710.340,-0.180,0.943,-0.263,-2.350,6.195,1.282,66.667,553.000,1.000,3.749,0.000
-14089.110,-13346.790,-16756.550,-48093.220,-16655.540,-16166.680,-14576.710,-15813.280,-0.181,0.943,-0.268,-2.106,5.920,1.251,66.667,554.000,1.000,4.963,0.000
-14188.390,-13444.020,-16873.650,-48400.140,-16770.970,-16278.810,-14677.540,-15922.170,-0.183,0.939,-0.265,-1.801,5.615,1.404,66.667,555.000,1.000,2.544,0.000
-14290.290,-13538.730,-16992.440,-48711.710,-16891.780,-16395.680,-14782.680,-16034.650,-0.182,0.936,-0.265,-1.495,5.249,1.556,66.667,556.000,1.000,9.324,0.000
-14389.680,-13632.280,-17109.220,-49017.830,-17009.640,-16511.750,-14885.780,-16141.960,-0.181,0.933,-0.266,-1.038,5.005,1.770,66.667,557.000,1.000,0.016,0.000
-14484.190,-13722.940,-17220.870,-49314.630,-17119.400,-16621.780,-14982.410,-16242.160,-0.179,0.930,-0.271,-0.763,4.730,1.801,66.667,558.000,1.000,8.782,0.000
-14574.810,-13806.630,-17326.790,-49607.800,-17224.490,-16724.100,-15074.420,-16342.130,-0.179,0.929,-0.271,-0.519,4.578,1.953,66.667,559.000,1.000,0.011,0.000
-14665.970,-13892.670,-17432.340,-49903.300,-17333.470,-16826.800,-15169.130,-16446.170,-0.178,0.929,-0.279,-0.214,4.242,1.953,66.667,560.000,1.000,6.183,0.000
-14759.010,-13983.860,-17540.370,-50203.460,-17447.730,-16933.630,-15268.170,-16554.170,-0.177,0.926,-0.281,0.244,4.089,1.923,66.667,561.000,1.000,0.013,0.000
-14847.920,-14067.400,-17644.680,-50499.910,-17556.130,-17035.060,-15362.420,-16659.660,-0.177,0.927,-0.280,0.641,3.937,2.014,66.667,562.000,1.000,8.772,0.000
-14929.230,-14143.670,-17741.860,-50780.850,-17651.240,-17126.110,-15445.360,-16751.690,-0.175,0.938,-0.279,0.885,3.662,1.923,66.667,563.000,1.000,0.009,0.000
-15006.100,-14219.190,-17835.780,-51053.180,-17740.970,-17213.740,-15523.890,-16834.800,-0.176,0.943,-0.279,0.854,3.540,1.984,66.667,564.000,1.000,8.712,0.000
-15086.300,-14294.930,-17933.070,-51335.530,-17838.350,-17308.410,-15609.530,-16927.340,-0.176,0.952,-0.277,0.885,3.326,1.923,66.667,565.000,1.000,0.012,0.000
-15176.810,-14377.130,-18038.340,-51629.140,-17946.410,-17413.630,-15704.460,-17032.520,-0.177,0.956,-0.276,0.793,3.174,1.862,66.667,566.000,1.000,2.440,0.000
-15273.050,-14465.690,-18147.880,-51920.500,-18055.770,-17521.080,-15801.480,-17137.940,-0.178,0.963,-0.282,0.519,3.113,1.862,66.667,567.000,1.000,0.006,0.000
-15364.370,-14551.050,-18253.340,-52202.310,-18156.270,-17620.600,-15891.570,-17235.290,-0.180,0.970,-0.280,0.275,2.869,1.709,66.667,568.000,1.000,4.367,0.000
-15449.260,-14629.910,-18353.520,-52479.270,-18250.960,-17715.770,-15975.700,-17327.830,-0.181,0.978,-0.281,0.000,2.777,1.526,66.667,569.000,1.000,3.765,0.000
-15533.060,-14705.850,-18453.520,-52760.270,-18350.540,-17817.560,-16065.390,-17423.500,-0.182,0.982,-0.280,-0.275,2.594,1.282,66.667,570.000,1.000,8.755,0.000
-15618.090,-14785.840,-18556.540,-53046.320,-18457.450,-17927.390,-16166.310,-17524.060,-0.179,0.984,-0.277,-0.610,2.380,1.221,66.667,571.000,1.000,3.123,0.000
-15704.610,-14874.460,-18662.550,-53331.000,-18565.220,-18037.470,-16268.900,-17623.660,-0.175,0.973,-0.277,-1.373,2.380,1.007,66.667,572.000,1.000,0.012,0.000
-15790.550,-14963.420,-18766.360,-53607.220,-18665.540,-18140.030,-16359.220,-17714.430,-0.173,0.966,-0.280,-1.495,2.411,0.946,66.667,573.000,1.000,10.585,0.000
-15873.480,-15043.780,-18864.220,-53876.370,-18759.970,-18234.660,-16439.010,-17798.540,-0.168,0.961,-0.277,-1.495,2.411,0.885,66.667,574.000,1.000,3.125,0.000
-15955.450,-15119.590,-18960.220,-54147.570,-18857.570,-18325.640,-16517.350,-17886.050,-0.161,0.958,-0.274,-1.495,2.441,0.854,66.667,575.000,1.000,0.008,0.000
-16037.600,-15195.330,-19057.280,-54422.200,-18957.630,-18415.470,-16595.260,-17978.100,-0.155,0.957,-0.275,-1.495,2.563,1.007,66.667,576.000,1.000,1.831,0.000
-16122.850,-15274.650,-19158.970,-54698.660,-19058.260,-18509.240,-16679.450,-18073.770,-0.150,0.952,-0.273,-1.587,2.747,0.977,66.667,577.000,1.000,11.478,0.000
-16211.980,-15360.560,-19265.770,-54974.290,-19160.070,-18607.710,-16773.690,-18172.780,-0.143,0.946,-0.273,-1.770,3.082,0.946,66.667,578.000,1.000,4.810,0.000
-16297.120,-15445.580,-19368.240,-55243.580,-19259.530,-18704.290,-16867.260,-18269.750,-0.137,0.940,-0.267,-1.648,3.632,0.977,66.667,579.000,1.000,2.424,0.000
-16377.250,-15524.760,-19464.670,-55512.730,-19360.100,-18801.000,-16957.430,-18366.200,-0.130,0.938,-0.265,-1.556,4.303,0.946,66.667,580.000,1.000,2.538,0.000
-16456.530,-15601.080,-19559.510,-55783.700,-19462.650,-18898.900,-17045.300,-18463.030,-0.125,0.939,-0.264,-1.434,4.761,0.885,66.667,581.000,1.000,2.467,0.000
-16533.000,-15674.250,-19650.320,-56045.250,-19557.340,-18989.610,-17125.650,-18553.310,-0.119,0.943,-0.261,-1.373,5.402,0.793,66.667,582.000,1.000,6.417,0.000
-16603.550,-15738.680,-19734.390,-56295.700,-19640.030,-19068.940,-17199.510,-18635.320,-0.115,0.947,-0.255,-1.465,6.134,0.702,66.667,583.000,1.000,25.529,0.000
-16673.220,-15800.620,-19818.000,-56546.630,-19719.960,-19144.500,-17274.760,-18716.210,-0.115,0.948,-0.257,-1.648,6.866,0.580,66.667,584.000,1.000,0.027,0.000
-16747.390,-15872.450,-19906.620,-56804.650,-19806.090,-19226.970,-17355.330,-18802.900,-0.119,0.942,-0.259,-1.740,7.660,0.336,66.667,585.000,1.000,1.879,0.000
-16822.150,-15946.960,-19996.010,-57064.130,-19895.880,-19317.340,-17437.750,-18892.470,-0.129,0.932,-0.266,-1.953,8.392,0.244,66.667,586.000,1.000,2.447,0.000
-16897.150,-16015.360,-20085.000,-57319.780,-19984.820,-19410.080,-17518.290,-18978.460,-0.138,0.918,-0.273,-1.801,8.911,0.031,66.667,587.000,1.000,2.512,0.000
-16978.830,-16088.480,-20179.250,-57574.680,-20074.850,-19502.640,-17598.230,-19061.740,-0.153,0.910,-0.276,-1.312,9.094,-0.366,66.667,588.000,1.000,2.515,0.000
-17067.200,-16171.820,-20279.290,-57833.300,-20169.290,-19596.580,-17680.300,-19148.150,-0.167,0.909,-0.278,-0.671,9.125,-0.763,66.667,589.000,1.000,2.473,0.000
-17153.380,-16252.180,-20376.680,-58091.150,-20264.750,-19690.760,-17762.060,-19237.410,-0.181,0.909,-0.277,0.031,8.911,-1.190,66.667,590.000,1.000,2.488,0.000
-17233.730,-16323.860,-20467.500,-58343.360,-20356.800,-19782.090,-17839.960,-19323.470,-0.197,0.907,-0.271,0.397,8.392,-1.556,66.667,591.000,1.000,2.510,0.000
-17308.820,-16390.710,-20553.240,-58587.980,-20442.320,-19867.900,-17912.310,-19400.780,-0.208,0.899,-0.268,0.671,7.813,-1.862,66.667,592.000,1.000,2.416,0.000
-17378.050,-16454.540,-20636.090,-58825.320,-20522.740,-19950.110,-17983.910,-19473.900,-0.220,0.896,-0.267,0.946,7.019,-2.197,66.667,593.000,1.000,2.547,0.000
-17444.370,-16518.020,-20719.670,-59061.940,-20605.500,-20034.450,-18060.660,-19553.420,-0.231,0.895,-0.266,1.404,5.981,-2.533,66.667,594.000,1.000,3.121,0.000
-17510.840,-16583.650,-20804.420,-59300.230,-20692.060,-20121.610,-18138.800,-19637.780,-0.238,0.901,-0.270,1.892,4.669,-2.869,66.667,595.000,1.000,0.007,0.000
-17582.230,-16652.930,-20892.370,-59538.860,-20781.090,-20210.270,-18216.960,-19722.290,-0.241,0.912,-0.264,2.075,3.296,-2.960,66.667,596.000,1.000,1.879,0.000
-17662.550,-16731.390,-20987.510,-59781.800,-20873.050,-20299.490,-18297.290,-19809.160,-0.240,0.926,-0.260,2.441,2.136,-3.265,66.667,597.000,1.000,14.301,0.000
-17745.940,-16818.420,-21085.860,-60031.320,-20964.640,-20385.200,-18375.130,-19897.300,-0.239,0.943,-0.260,2.350,0.916,-3.448,66.667,598.000,1.000,0.017,0.000
-17824.630,-16897.630,-21178.740,-60280.840,-21051.300,-20464.160,-18445.500,-19981.690,-0.234,0.956,-0.263,1.740,-0.336,-3.082,66.667,599.000,1.000,8.801,0.000
-17900.630,-16966.260,-21267.060,-60527.890,-21136.220,-20543.140,-18513.660,-20064.090,-0.224,0.961,-0.260,0.671,-1.617,-2.563,66.667,600.000,1.000,0.010,0.000
-17976.600,-17035.650,-21355.450,-60774.450,-21223.560,-20626.890,-18584.050,-20145.680,-0.211,0.967,-0.258,-0.122,-2.594,-2.075,66.667,601.000,1.000,1.862,0.000
-18051.990,-17109.070,-21445.340,-61019.070,-21314.670,-20716.570,-18662.890,-20227.210,-0.197,0.970,-0.253,-1.007,-3.510,-1.495,66.667,602.000,1.000,6.278,0.000
-18128.560,-17186.170,-21538.810,-61262.090,-21412.500,-20817.240,-18760.810,-20317.990,-0.179,0.973,-0.249,-1.923,-4.059,-0.763,66.667,603.000,1.000,13.674,0.000
-18201.550,-17259.540,-21629.690,-61502.270,-21510.120,-20917.480,-18861.520,-20414.270,-0.164,0.974,-0.244,-2.899,-4.242,-0.275,66.667,604.000,1.000,0.011,0.000
-18267.630,-17324.810,-21712.950,-61739.710,-21600.730,-21006.260,-18944.900,-20502.190,-0.148,0.972,-0.243,-4.089,-4.211,0.427,66.667,605.000,1.000,0.003,0.000
-18333.990,-17389.010,-21794.980,-61978.930,-21689.100,-21091.500,-19020.800,-20584.360,-0.138,0.972,-0.242,-4.913,-3.815,1.007,66.667,606.000,1.000,5.705,0.000
-18402.730,-17452.980,-21876.560,-62215.090,-21772.220,-21171.400,-19092.290,-20664.530,-0.130,0.972,-0.246,-5.829,-3.296,1.556,66.667,607.000,1.000,0.008,0.000
-18470.420,-17515.030,-21954.150,-62440.490,-21845.490,-21241.610,-19151.850,-20736.460,-0.124,0.974,-0.250,-6.561,-2.411,1.831,66.667,608.000,1.000,1.830,0.000
-18540.930,-17582.560,-22034.750,-62667.320,-21921.600,-21316.880,-19214.590,-20807.250,-0.119,0.976,-0.258,-7.172,-1.740,2.106,66.667,609.000,1.000,5.035,0.000
-18617.850,-17656.960,-22123.680,-62907.600,-22010.250,-21404.800,-19294.770,-20890.150,-0.117,0.977,-0.264,-7.599,-0.824,1.953,66.667,610.000,1.000,2.400,0.000
-18693.520,-17729.840,-22212.710,-63148.240,-22101.730,-21495.040,-19380.330,-20978.910,-0.117,0.980,-0.274,-7.721,0.244,1.648,66.667,611.000,1.000,2.548,0.000
-18759.300,-17793.360,-22292.690,-63375.910,-22185.130,-21579.090,-19454.660,-21059.490,-0.115,0.979,-0.283,-7.813,1.312,1.465,66.667,612.000,1.000,2.447,0.000
-18817.510,-17845.720,-22364.760,-63594.000,-22260.820,-21655.920,-19515.890,-21128.190,-0.114,0.966,-0.292,-7.660,2.289,1.282,66.667,613.000,1.000,6.327,0.000
-18877.930,-17899.930,-22438.480,-63811.790,-22336.790,-21731.020,-19576.560,-21194.680,-0.115,0.945,-0.295,-7.202,3.265,1.221,66.667,614.000,1.000,9.382,0.000
-18944.210,-17965.390,-22517.080,-64030.880,-22416.610,-21806.730,-19645.850,-21267.230,-0.132,0.917,-0.297,-6.226,4.333,1.038,66.667,615.000,1.000,0.011,0.000
-19014.980,-18036.310,-22598.200,-64252.450,-22498.090,-21882.440,-19721.030,-21343.750,-0.152,0.891,-0.294,-5.005,5.005,0.702,66.667,616.000,1.000,2.370,0.000
-19090.680,-18105.480,-22683.160,-64482.690,-22582.310,-21961.370,-19796.870,-21422.960,-0.171,0.871,-0.291,-3.632,5.493,0.275,66.667,617.000,1.000,0.008,0.000
-19170.150,-18173.950,-22771.460,-64714.730,-22669.050,-22043.380,-19868.890,-21502.580,-0.187,0.859,-0.288,-2.106,5.585,-0.427,66.667,618.000,1.000,13.239,0.000
-19249.680,-18247.770,-22859.360,-64937.970,-22755.060,-22126.730,-19938.570,-21579.540,-0.199,0.860,-0.280,-0.549,5.524,-1.007,66.667,619.000,1.000,4.992,0.000
-19323.220,-18318.230,-22941.540,-65153.500,-22837.690,-22208.680,-20010.480,-21654.470,-0.209,0.864,-0.275,0.916,5.249,-1.617,66.667,620.000,1.000,2.474,0.000
-19389.520,-18379.050,-23018.010,-65366.790,-22917.950,-22285.980,-20085.150,-21730.770,-0.219,0.876,-0.274,2.228,5.035,-2.228,66.667,621.000,1.000,2.515,0.000
-19452.760,-18438.350,-23093.500,-65580.420,-22997.880,-22358.830,-20159.050,-21809.720,-0.227,0.894,-0.277,3.052,4.547,-2.533,66.667,622.000,1.000,2.580,0.000
-19514.640,-18496.950,-23168.100,-65792.950,-23075.260,-22427.560,-20227.170,-21886.810,-0.231,0.911,-0.278,3.235,3.937,-2.594,66.667,623.000,1.000,2.444,0.000
-19575.920,-18555.690,-23242.710,-66003.670,-23151.030,-22498.850,-20292.510,-21962.340,-0.230,0.929,-0.280,3.479,3.082,-2.563,66.667,624.000,1.000,4.960,0.000
-19636.540,-18617.240,-23319.820,-66216.660,-23229.500,-22578.670,-20361.090,-22040.840,-0.222,0.945,-0.286,3.510,2.380,-2.716,66.667,625.000,1.000,6.788,0.000
-19693.770,-18676.550,-23395.560,-66433.510,-23307.920,-22658.280,-20429.860,-22119.330,-0.212,0.965,-0.282,3.418,1.648,-2.655,66.667,626.000,1.000,0.010,0.000
-19750.570,-18734.330,-23468.320,-66650.020,-23383.720,-22733.060,-20496.400,-22193.650,-0.197,0.979,-0.283,2.991,1.068,-2.594,66.667,627.000,1.000,1.877,0.000
-19812.510,-18795.410,-23542.520,-66864.150,-23460.110,-22808.160,-20563.450,-22266.180,-0.181,0.990,-0.283,2.380,0.702,-2.289,66.667,628.000,1.000,3.855,0.000
-19876.770,-18857.490,-23618.440,-67076.240,-23538.850,-22883.180,-20631.610,-22339.010,-0.173,1.001,-0.286,1.678,0.885,-1.526,66.667,629.000,1.000,9.286,0.000
-19941.930,-18920.330,-23696.380,-67288.330,-23620.690,-22957.580,-20701.410,-22413.850,-0.170,1.018,-0.292,0.793,0.977,-0.824,66.667,630.000,1.000,0.011,0.000
-20009.430,-18984.170,-23776.680,-67500.340,-23703.470,-23034.450,-20772.810,-22491.890,-0.163,1.034,-0.290,-0.397,1.068,-0.336,66.667,631.000,1.000,5.684,0.000
-20071.800,-19042.320,-23851.650,-67705.000,-23777.480,-23109.890,-20838.110,-22565.500,-0.159,1.045,-0.295,-1.709,1.251,0.458,66.667,632.000,1.000,11.255,0.000
-20124.600,-19093.390,-23917.580,-67900.500,-23839.780,-23179.590,-20892.110,-22628.080,-0.156,1.046,-0.292,-3.296,1.373,1.160,66.667,633.000,1.000,2.461,0.000
-20174.760,-19142.120,-23980.700,-68094.240,-23900.140,-23245.580,-20943.150,-22685.000,-0.154,1.041,-0.295,-4.944,1.526,1.984,66.667,634.000,1.000,2.561,0.000
-20227.780,-19192.890,-24045.880,-68290.990,-23965.220,-23309.340,-21000.470,-22746.650,-0.152,1.031,-0.298,-6.287,1.648,2.594,66.667,635.000,1.000,4.972,0.000
-20285.210,-19250.800,-24115.600,-68490.770,-24036.940,-23377.320,-21068.480,-22819.200,-0.154,1.020,-0.304,-7.324,1.831,3.204,66.667,636.000,1.000,10.019,0.000
-20344.890,-19312.830,-24187.890,-68689.290,-24113.590,-23453.210,-21142.890,-22896.790,-0.154,1.004,-0.309,-8.179,1.801,3.632,66.667,637.000,1.000,2.503,0.000
-20402.410,-19368.190,-24257.140,-68885.190,-24188.460,-23526.060,-21209.470,-22967.920,-0.153,0.982,-0.312,-8.698,1.831,3.693,66.667,638.000,1.000,3.058,0.000
-20456.890,-19413.280,-24321.420,-69080.200,-24256.540,-23585.470,-21263.570,-23028.560,-0.151,0.957,-0.306,-8.820,1.831,3.601,66.667,639.000,1.000,0.074,0.000
-20513.780,-19461.910,-24386.950,-69274.300,-24323.160,-23642.370,-21318.860,-23087.140,-0.146,0.931,-0.299,-8.514,2.014,3.326,66.667,640.000,1.000,4.288,0.000
-20579.020,-19524.780,-24461.110,-69470.600,-24398.290,-23712.770,-21385.920,-23154.490,-0.144,0.901,-0.292,-7.904,2.197,2.777,66.667,641.000,1.000,2.426,0.000
-20648.170,-19589.960,-24540.210,-69669.770,-24480.850,-23792.570,-21459.690,-23229.020,-0.146,0.880,-0.285,-6.958,2.502,2.136,66.667,642.000,1.000,2.521,0.000
-20714.690,-19654.130,-24618.610,-69867.700,-24564.240,-23874.800,-21535.070,-23303.730,-0.152,0.867,-0.282,-5.798,2.655,1.434,66.667,643.000,1.000,2.532,0.000
-20777.470,-19722.270,-24694.900,-70061.550,-24644.030,-23956.790,-21608.720,-23374.850,-0.159,0.863,-0.277,-4.456,2.777,0.793,66.667,644.000,1.000,7.528,0.000
-20835.820,-19781.680,-24765.820,-70251.100,-24715.470,-24029.330,-21672.430,-23440.050,-0.162,0.868,-0.273,-3.143,2.716,0.122,66.667,645.000,1.000,2.544,0.000
-20889.280,-19828.720,-24829.860,-70436.130,-24777.220,-24088.860,-21722.920,-23498.270,-0.160,0.883,-0.272,-1.892,2.594,-0.549,66.667,646.000,1.000,2.435,0.000
-20939.870,-19875.260,-24890.670,-70616.400,-24835.360,-24144.330,-21769.530,-23554.480,-0.157,0.900,-0.269,-0.916,2.441,-1.007,66.667,647.000,1.000,3.010,0.000
-20993.680,-19925.910,-24954.860,-70798.860,-24899.050,-24206.670,-21825.420,-23619.090,-0.152,0.917,-0.269,-0.214,2.411,-1.190,66.667,648.000,1.000,0.006,0.000
-21053.960,-19980.980,-25025.120,-70989.640,-24970.280,-24278.150,-21891.210,-23692.400,-0.145,0.934,-0.266,0.214,2.563,-1.495,66.667,649.000,1.000,1.952,0.000
-21111.980,-20036.320,-25093.150,-71178.270,-25039.280,-24347.950,-21953.700,-23759.470,-0.140,0.945,-0.267,0.488,2.747,-1.587,66.667,650.000,1.000,14.418,0.000
-21163.030,-20087.790,-25155.030,-71357.380,-25101.330,-24409.940,-22008.100,-23816.730,-0.134,0.959,-0.266,0.610,3.021,-1.556,66.667,651.000,1.000,0.013,0.000
-21214.920,-20138.290,-25218.170,-71535.200,-25163.610,-24471.190,-22063.460,-23876.230,-0.128,0.967,-0.266,0.641,3.418,-1.556,66.667,652.000,1.000,1.846,0.000
-21270.840,-20189.180,-25284.570,-71716.160,-25228.360,-24534.410,-22124.300,-23940.560,-0.125,0.972,-0.272,0.366,3.784,-1.251,66.667,653.000,1.000,2.495,0.000
-21326.680,-20241.000,-25349.870,-71895.480,-25291.480,-24595.800,-22186.340,-24004.210,-0.124,0.976,-0.281,0.305,4.395,-1.099,66.667,654.000,1.000,8.759,0.000
-21379.610,-20293.860,-25411.830,-72068.550,-25351.100,-24653.650,-22243.880,-24063.660,-0.122,0.981,-0.295,0.336,4.913,-0.885,66.667,655.000,1.000,6.842,0.000
-21431.510,-20345.960,-25473.190,-72240.230,-25410.940,-24712.900,-22296.920,-24119.920,-0.121,0.984,-0.298,0.214,5.524,-0.702,66.667,656.000,1.000,0.013,0.000
-21485.240,-20396.360,-25536.910,-72416.790,-25475.130,-24777.440,-22350.910,-24177.020,-0.119,0.979,-0.298,0.183,5.859,-0.519,66.667,657.000,1.000,1.876,0.000
-21540.180,-20443.760,-25600.850,-72594.610,-25541.950,-24842.820,-22408.930,-24236.840,-0.113,0.963,-0.292,0.000,6.287,-0.122,66.667,658.000,1.000,2.522,0.000
-21593.570,-20488.730,-25661.100,-72767.020,-25607.060,-24905.650,-22466.670,-24296.140,-0.111,0.947,-0.287,0.122,6.958,0.214,66.667,659.000,1.000,8.677,0.000
-21645.210,-20536.310,-25719.090,-72934.300,-25670.130,-24968.960,-22520.620,-24352.770,-0.114,0.931,-0.284,0.061,7.568,0.519,66.667,660.000,1.000,3.210,0.000
-21697.390,-20588.790,-25779.530,-73102.520,-25733.840,-25034.300,-22573.610,-24410.120,-0.119,0.919,-0.282,0.244,8.087,0.793,66.667,661.000,1.000,0.013,0.000
-21748.560,-20640.350,-25840.800,-73271.820,-25795.630,-25095.100,-22625.990,-24467.330,-0.128,0.910,-0.279,0.488,8.606,0.885,66.667,662.000,1.000,5.617,0.000
-21796.740,-20686.610,-25900.100,-73437.030,-25852.850,-25148.950,-22676.910,-24522.570,-0.136,0.911,-0.275,0.763,8.911,0.824,66.667,663.000,1.000,8.030,0.000
-21847.220,-20732.840,-25962.610,-73602.210,-25910.730,-25203.780,-22729.570,-24580.870,-0.145,0.915,-0.276,1.038,8.972,0.641,66.667,664.000,1.000,0.010,0.000
-21902.920,-20783.120,-26030.180,-73772.770,-25971.760,-25261.790,-22783.440,-24641.940,-0.153,0.917,-0.273,1.068,9.033,0.366,66.667,665.000,1.000,1.933,0.000
-21953.650,-20827.570,-26091.350,-73939.190,-26028.050,-25314.660,-22831.540,-24695.610,-0.162,0.923,-0.279,1.129,8.942,0.061,66.667,666.000,1.000,9.318,0.000
-21999.620,-20870.660,-26146.410,-74100.860,-26081.790,-25365.580,-22878.080,-24743.870,-0.171,0.930,-0.279,0.946,8.881,-0.275,66.667,667.000,1.000,0.009,0.000
-22054.380,-20926.610,-26209.090,-74270.480,-26145.560,-25426.980,-22933.660,-24800.550,-0.177,0.940,-0.283,0.702,8.362,-0.610,66.667,668.000,1.000,1.856,0.000
-22112.560,-20982.080,-26274.460,-74441.980,-26214.030,-25493.000,-22990.320,-24863.560,-0.179,0.952,-0.281,0.519,7.843,-0.916,66.667,669.000,1.000,6.246,0.000
-22163.670,-21028.270,-26333.430,-74605.440,-26276.990,-25554.170,-23039.340,-24923.470,-0.179,0.963,-0.281,0.183,7.324,-1.282,66.667,670.000,1.000,9.375,0.000
-22212.290,-21075.490,-26390.490,-74765.670,-26337.380,-25612.980,-23087.070,-24982.850,-0.174,0.977,-0.281,-0.305,6.744,-1.526,66.667,671.000,1.000,0.011,0.000
-22263.120,-21126.440,-26450.000,-74927.410,-26400.010,-25674.220,-23139.490,-25044.520,-0.169,0.988,-0.281,-1.160,6.317,-1.678,66.667,672.000,1.000,8.760,0.000
-22313.360,-21174.640,-26510.260,-75089.610,-26464.220,-25737.170,-23195.560,-25104.510,-0.166,0.992,-0.279,-1.953,6.073,-1.740,66.667,673.000,1.000,0.013,0.000
-22361.380,-21218.390,-26570.060,-75251.130,-26527.580,-25801.110,-23255.780,-25164.040,-0.159,0.990,-0.284,-2.716,5.920,-1.678,66.667,674.000,1.000,2.475,0.000
-22408.030,-21263.830,-26629.310,-75409.610,-26588.550,-25868.780,-23322.140,-25227.130,-0.152,0.979,-0.284,-3.265,5.829,-1.526,66.667,675.000,1.000,0.010,0.000
-22452.260,-21309.540,-26684.410,-75562.060,-26643.900,-25932.740,-23384.030,-25286.190,-0.147,0.966,-0.287,-3.571,5.737,-1.465,66.667,676.000,1.000,18.168,0.000
-22499.750,-21356.040,-26740.010,-75716.260,-26699.180,-25991.130,-23435.860,-25339.560,-0.143,0.953,-0.285,-3.693,5.737,-1.282,66.667,677.000,1.000,4.935,0.000
-22555.050,-21413.680,-26804.370,-75879.200,-26763.540,-26053.520,-23487.950,-25397.940,-0.141,0.940,-0.284,-3.601,5.798,-0.946,66.667,678.000,1.000,0.017,0.000
-22610.330,-21473.680,-26870.400,-76041.660,-26829.770,-26115.280,-23539.710,-25457.220,-0.141,0.932,-0.288,-3.357,6.073,-0.610,66.667,679.000,1.000,0.006,0.000
-22658.370,-21517.590,-26927.430,-76194.550,-26885.990,-26164.970,-23581.130,-25506.390,-0.144,0.923,-0.293,-2.716,6.287,-0.427,66.667,680.000,1.000,6.886,0.000
-22700.930,-21550.870,-26977.450,-76341.390,-26934.750,-26206.480,-23615.010,-25548.540,-0.146,0.909,-0.295,-2.014,6.470,-0.183,66.667,681.000,1.000,0.009,0.000
-22743.590,-21587.290,-27027.400,-76488.200,-26985.250,-26251.880,-23653.560,-25592.630,-0.149,0.895,-0.292,-1.129,6.653,-0.092,66.667,682.000,1.000,1.897,0.000
-22789.090,-21627.190,-27078.950,-76636.640,-27039.210,-26303.470,-23700.610,-25640.130,-0.156,0.881,-0.285,-0.061,6.714,-0.031,66.667,683.000,1.000,15.568,0.000
-22837.660,-21669.440,-27132.570,-76785.320,-27094.110,-26356.530,-23751.570,-25688.110,-0.163,0.870,-0.280,1.038,6.775,0.000,66.667,684.000,1.000,0.014,0.000
-22886.340,-21715.170,-27187.370,-76928.650,-27147.370,-26406.370,-23799.990,-25734.750,-0.168,0.863,-0.275,2.228,6.897,-0.214,66.667,685.000,1.000,7.028,0.000
-22931.770,-21759.330,-27240.270,-77065.950,-27197.610,-26451.890,-23843.880,-25780.200,-0.178,0.866,-0.269,3.357,6.866,-0.427,66.667,686.000,1.000,0.010,0.000
-22976.020,-21799.410,-27292.050,-77206.010,-27247.500,-26497.430,-23887.600,-25827.420,-0.188,0.874,-0.267,4.242,6.622,-0.610,66.667,687.000,1.000,0.006,0.000
-23020.580,-21838.940,-27343.680,-77350.550,-27298.490,-26545.100,-23931.930,-25877.290,-0.196,0.887,-0.265,5.035,6.348,-0.732,66.667,688.000,1.000,2.917,0.000
-23063.260,-21877.580,-27393.850,-77492.430,-27349.020,-26594.150,-23974.780,-25927.470,-0.206,0.902,-0.263,5.585,5.859,-1.007,66.667,689.000,1.000,0.014,0.000
-23105.610,-21916.210,-27444.860,-77632.750,-27399.990,-26646.210,-24016.640,-25977.140,-0.214,0.921,-0.262,5.798,5.249,-1.251,66.667,690.000,1.000,1.922,0.000
-23149.760,-21957.850,-27498.310,-77774.550,-27453.450,-26700.050,-24059.950,-26026.990,-0.218,0.940,-0.264,5.768,4.517,-1.648,66.667,691.000,1.000,13.745,0.000
-23190.360,-21998.830,-27549.060,-77911.140,-27505.620,-26748.720,-24104.110,-26075.450,-0.220,0.957,-0.269,5.707,3.815,-2.136,66.667,692.000,1.000,5.573,0.000
-23227.820,-22042.230,-27597.780,-78043.380,-27554.370,-26793.100,-24147.630,-26123.230,-0.217,0.973,-0.264,5.188,3.143,-2.258,66.667,693.000,1.000,0.006,0.000
-23267.850,-22088.200,-27648.330,-78179.900,-27602.290,-26839.490,-24191.000,-26172.680,-0.216,0.986,-0.261,4.150,2.594,-2.167,66.667,694.000,1.000,1.869,0.000
-23309.420,-22127.950,-27697.800,-78318.310,-27649.530,-26886.280,-24233.620,-26221.380,-0.209,0.996,-0.259,3.052,1.892,-2.075,66.667,695.000,1.000,2.564,0.000
-23351.640,-22166.500,-27746.430,-78455.250,-27697.460,-26933.580,-24277.520,-26269.060,-0.203,1.003,-0.261,1.770,1.343,-1.923,66.667,696.000,1.000,6.229,0.000
-23392.370,-22207.590,-27793.760,-78589.720,-27744.670,-26982.490,-24321.370,-26315.780,-0.195,1.009,-0.267,0.366,0.977,-1.740,66.667,697.000,1.000,2.516,0.000
-23429.690,-22245.050,-27836.950,-78717.950,-27787.310,-27028.980,-24360.280,-26358.540,-0.188,1.013,-0.271,-1.129,0.793,-1.434,66.667,698.000,1.000,4.382,0.000
-23469.120,-22281.140,-27881.280,-78846.180,-27830.500,-27074.430,-24398.820,-26401.380,-0.182,1.016,-0.275,-2.350,0.854,-1.282,66.667,699.000,1.000,0.015,0.000
-23513.790,-22320.900,-27931.770,-78982.770,-27879.820,-27123.490,-24443.600,-26450.170,-0.175,1.018,-0.282,-3.479,0.885,-0.977,66.667,700.000,1.000,10.543,0.000
-23558.110,-22361.390,-27983.830,-79120.800,-27930.730,-27173.650,-24489.820,-26500.010,-0.166,1.017,-0.291,-4.608,0.977,-0.702,66.667,701.000,1.000,3.138,0.000
-23595.960,-22397.170,-28030.680,-79249.020,-27977.840,-27219.490,-24529.110,-26543.930,-0.152,1.013,-0.298,-5.646,1.160,-0.336,66.667,702.000,1.000,0.008,0.000
-23628.590,-22427.810,-28071.930,-79371.410,-28022.500,-27261.940,-24563.030,-26583.080,-0.140,1.006,-0.301,-6.622,1.801,0.153,66.667,703.000,1.000,8.164,0.000
-23661.540,-22458.570,-28111.410,-79497.700,-28066.690,-27300.840,-24595.840,-26619.040,-0.129,0.990,-0.301,-7.202,2.380,0.580,66.667,704.000,1.000,3.097,0.000
-23696.530,-22489.410,-28151.610,-79627.850,-28111.250,-27335.950,-24630.980,-26656.680,-0.117,0.970,-0.295,-7.782,3.143,1.099,66.667,705.000,1.000,0.007,0.000
-23737.440,-22527.150,-28198.700,-79760.850,-28162.500,-27380.260,-24680.370,-26707.740,-0.115,0.949,-0.291,-8.179,3.937,1.648,66.667,706.000,1.000,1.873,0.000
-23784.860,-22576.620,-28252.920,-79895.690,-28220.980,-27438.890,-24742.420,-26767.910,-0.117,0.922,-0.287,-8.148,4.944,2.075,66.667,707.000,1.000,8.743,0.000
-23826.910,-22617.170,-28301.210,-80025.260,-28274.200,-27495.110,-24796.590,-26819.560,-0.123,0.896,-0.285,-7.751,5.768,2.594,66.667,708.000,1.000,8.716,0.000
-23859.550,-22642.090,-28340.150,-80144.590,-28317.120,-27538.580,-24837.800,-26860.430,-0.132,0.881,-0.282,-7.111,6.622,2.716,66.667,709.000,1.000,2.541,0.000
-23893.610,-22668.320,-28380.420,-80259.130,-28357.970,-27575.980,-24874.820,-26899.140,-0.143,0.876,-0.278,-6.287,7.294,2.930,66.667,710.000,1.000,2.480,0.000
-23934.870,-22706.630,-28427.840,-80376.910,-28401.520,-27614.570,-24910.110,-26938.470,-0.151,0.882,-0.277,-5.402,7.782,2.808,66.667,711.000,1.000,2.531,0.000
-23976.580,-22753.500,-28477.480,-80497.340,-28444.820,-27655.540,-24945.730,-26978.640,-0.157,0.893,-0.269,-4.700,8.118,2.563,66.667,712.000,1.000,2.417,0.000
-24011.880,-22792.830,-28521.280,-80613.380,-28484.280,-27696.990,-24983.270,-27018.820,-0.165,0.902,-0.259,-4.120,8.087,2.441,66.667,713.000,1.000,9.421,0.000
-24042.810,-22821.140,-28558.640,-80722.950,-28519.690,-27737.150,-25017.610,-27056.420,-0.167,0.911,-0.255,-3.845,8.148,1.953,66.667,714.000,1.000,0.016,0.000
-24074.200,-22849.020,-28594.910,-80832.630,-28554.230,-27775.580,-25046.360,-27091.640,-0.168,0.921,-0.260,-3.571,7.965,1.465,66.667,715.000,1.000,1.901,0.000
-24106.910,-22875.670,-28631.580,-80945.630,-28589.840,-27811.710,-25073.300,-27125.220,-0.166,0.930,-0.263,-3.448,7.965,1.099,66.667,716.000,1.000,8.696,0.000
-24141.060,-22903.050,-28669.560,-81059.460,-28627.220,-27847.450,-25103.350,-27159.990,-0.166,0.939,-0.263,-3.357,7.721,0.885,66.667,717.000,1.000,3.082,0.000
-24176.820,-22938.560,-28711.130,-81173.610,-28667.430,-27887.050,-25138.600,-27198.850,-0.168,0.947,-0.266,-3.265,7.507,0.671,66.667,718.000,1.000,0.010,0.000
-24213.690,-22977.810,-28755.500,-81288.340,-28709.770,-27930.600,-25176.740,-27240.540,-0.174,0.954,-0.267,-3.326,7.263,0.519,66.667,719.000,1.000,15.011,0.000
-24249.210,-23017.220,-28799.340,-81399.180,-28751.290,-27973.390,-25213.920,-27282.210,-0.177,0.959,-0.268,-3.479,6.897,0.244,66.667,720.000,1.000,0.016,0.000
-24279.970,-23052.720,-28839.460,-81505.090,-28790.170,-28012.450,-25248.040,-27321.990,-0.172,0.960,-0.272,-3.754,6.622,0.061,66.667,721.000,1.000,1.859,0.000
-24310.340,-23079.080,-28878.400,-81616.180,-28829.040,-28049.300,-25280.910,-27361.210,-0.165,0.956,-0.277,-3.845,6.409,-0.153,66.667,722.000,1.000,3.706,0.000
-24345.880,-23104.670,-28920.190,-81735.170,-28870.930,-28086.440,-25314.670,-27401.550,-0.159,0.949,-0.279,-3.784,6.256,-0.275,66.667,723.000,1.000,6.285,0.000
-24380.180,-23137.040,-28960.610,-81848.860,-28913.310,-28123.350,-25348.240,-27440.280,-0.154,0.944,-0.278,-3.723,6.348,-0.366,66.667,724.000,1.000,3.760,0.000
-24409.180,-23171.580,-28997.260,-81953.810,-28953.930,-28160.080,-25381.650,-27474.930,-0.151,0.941,-0.280,-3.510,6.226,-0.519,66.667,725.000,1.000,3.143,0.000
-24441.520,-23204.100,-29036.460,-82062.300,-28995.840,-28199.830,-25416.830,-27509.330,-0.151,0.937,-0.280,-3.571,6.287,-0.519,66.667,726.000,1.000,0.011,0.000
-24480.270,-23236.970,-29079.920,-82175.160,-29038.780,-28241.220,-25452.970,-27545.410,-0.151,0.933,-0.281,-3.296,6.348,-0.488,66.667,727.000,1.000,13.794,0.000
-24516.820,-23271.610,-29120.810,-82280.400,-29076.570,-28277.850,-25485.320,-27580.060,-0.153,0.929,-0.282,-3.265,6.622,-0.549,66.667,728.000,1.000,0.012,0.000
-24547.250,-23305.740,-29157.500,-82377.500,-29109.690,-28309.890,-25513.030,-27614.630,-0.157,0.927,-0.284,-3.021,6.683,-0.549,66.667,729.000,1.000,2.420,0.000
-24577.940,-23339.610,-29196.420,-82477.440,-29146.000,-28342.910,-25542.330,-27652.620,-0.158,0.929,-0.285,-2.777,6.622,-0.671,66.667,730.000,1.000,0.017,0.000
-24610.080,-23374.410,-29237.020,-82579.020,-29184.340,-28377.130,-25574.850,-27690.770,-0.160,0.931,-0.287,-2.655,6.470,-0.977,66.667,731.000,1.000,1.871,0.000
-24641.730,-23408.520,-29276.380,-82680.030,-29221.550,-28414.700,-25611.950,-27727.850,-0.158,0.933,-0.282,-2.502,6.531,-1.099,66.667,732.000,1.000,2.552,0.000
-24674.780,-23439.030,-29316.960,-82787.180,-29262.260,-28459.300,-25657.830,-27768.150,-0.157,0.937,-0.279,-2.197,6.653,-1.373,66.667,733.000,1.000,8.653,0.000
-24706.540,-23468.080,-29357.600,-82896.560,-29305.840,-28505.000,-25706.870,-27810.840,-0.158,0.942,-0.277,-1.923,6.897,-1.648,66.667,734.000,1.000,8.089,0.000
-24733.530,-23494.260,-29393.340,-82997.140,-29345.490,-28544.150,-25749.400,-27851.280,-0.158,0.950,-0.282,-1.831,6.958,-1.801,66.667,735.000,1.000,0.009,0.000
-24759.750,-23515.040,-29425.430,-83091.540,-29380.860,-28578.070,-25783.310,-27887.680,-0.157,0.959,-0.283,-1.770,6.927,-1.984,66.667,736.000,1.000,1.908,0.000
-24790.000,-23542.860,-29459.820,-83189.030,-29415.790,-28610.610,-25809.540,-27919.610,-0.157,0.965,-0.284,-1.801,7.080,-2.075,66.667,737.000,1.000,2.563,0.000
-24821.820,-23580.890,-29496.240,-83285.440,-29449.850,-28641.480,-25831.000,-27947.920,-0.154,0.971,-0.283,-1.923,7.141,-1.984,66.667,738.000,1.000,3.751,0.000
-24853.680,-23614.760,-29533.100,-83379.800,-29484.380,-28673.340,-25855.880,-27977.120,-0.152,0.974,-0.283,-2.106,7.172,-1.953,66.667,739.000,1.000,14.338,0.000
-24885.870,-23643.020,-29570.280,-83476.660,-29520.240,-28708.440,-25886.670,-28007.260,-0.149,0.975,-0.282,-2.350,7.263,-1.831,66.667,740.000,1.000,0.019,0.000
-24916.150,-23670.390,-29605.020,-83570.960,-29554.440,-28742.860,-25917.970,-28035.580,-0.151,0.974,-0.280,-2.411,7.416,-1.770,66.667,741.000,1.000,29.384,0.000
-24943.940,-23691.480,-29635.720,-83660.200,-29586.300,-28772.790,-25946.010,-28064.230,-0.157,0.972,-0.286,-2.319,7.477,-1.770,66.667,742.000,1.000,0.017,0.000
-24971.820,-23714.010,-29666.420,-83749.790,-29617.420,-28800.630,-25971.190,-28096.050,-0.164,0.969,-0.289,-2.380,7.507,-1.831,66.667,743.000,1.000,0.003,0.000
-25000.770,-23746.010,-29699.620,-83841.310,-29648.010,-28831.240,-25996.250,-28128.430,-0.168,0.966,-0.292,-2.350,7.446,-1.953,66.667,744.000,1.000,2.479,0.000
-25028.320,-23776.030,-29731.820,-83930.410,-29676.920,-28862.740,-26022.400,-28155.700,-0.169,0.961,-0.293,-2.258,7.294,-2.045,66.667,745.000,1.000,3.711,0.000
-25053.710,-23799.370,-29762.240,-84014.840,-29705.250,-28891.180,-26049.480,-28179.750,-0.167,0.954,-0.292,-1.984,7.050,-2.106,66.667,746.000,1.000,0.010,0.000
-25080.330,-23823.010,-29795.380,-84100.100,-29736.820,-28920.410,-26078.020,-28209.490,-0.165,0.947,-0.294,-1.678,6.836,-2.106,66.667,747.000,1.000,0.005,0.000
-25108.760,-23849.110,-29831.310,-84186.910,-29771.320,-28953.500,-26106.810,-28245.410,-0.166,0.943,-0.297,-1.465,6.805,-2.075,66.667,748.000,1.000,3.691,0.000
-25135.930,-23873.540,-29864.630,-84270.340,-29803.820,-28986.340,-26133.730,-28278.870,-0.167,0.942,-0.295,-1.038,6.683,-2.045,66.667,749.000,1.000,0.009,0.000
-25163.620,-23896.700,-29895.560,-84355.650,-29833.870,-29017.830,-26159.940,-28306.970,-0.168,0.940,-0.296,-0.824,6.470,-1.953,66.667,750.000,1.000,0.005,0.000
-25193.530,-23924.280,-29927.570,-84445.410,-29863.530,-29047.770,-26186.970,-28332.540,-0.172,0.943,-0.297,-0.488,6.287,-1.892,66.667,751.000,1.000,2.513,0.000
-25223.030,-23955.490,-29960.350,-84531.770,-29893.190,-29075.370,-26214.260,-28359.220,-0.174,0.941,-0.297,-0.244,5.920,-1.862,66.667,752.000,1.000,2.532,0.000
-25249.480,-23981.720,-29990.780,-84611.220,-29922.220,-29103.080,-26239.850,-28388.360,-0.177,0.942,-0.298,0.153,5.554,-1.892,66.667,753.000,1.000,2.439,0.000
-25275.580,-24005.000,-30020.920,-84691.120,-29952.130,-29133.300,-26265.590,-28417.540,-0.175,0.945,-0.300,0.244,5.127,-1.831,66.667,754.000,1.000,2.559,0.000
-25304.570,-24032.570,-30054.960,-84778.570,-29984.860,-29166.520,-26295.000,-28445.660,-0.173,0.945,-0.299,0.336,4.791,-1.709,66.667,755.000,1.000,8.774,0.000
-25331.210,-24060.900,-30088.190,-84866.450,-30016.510,-29198.380,-26324.320,-28472.930,-0.172,0.948,-0.300,0.366,4.333,-1.556,66.667,756.000,1.000,6.750,0.000
-25352.880,-24084.840,-30116.000,-84943.520,-30044.280,-29224.790,-26350.300,-28498.780,-0.172,0.951,-0.303,0.244,3.784,-1.495,66.667,757.000,1.000,0.010,0.000
-25373.650,-24102.430,-30140.720,-85013.850,-30070.520,-29247.860,-26375.210,-28521.860,-0.173,0.952,-0.303,0.153,3.418,-1.465,66.667,758.000,1.000,5.673,0.000
-25395.860,-24118.330,-30165.690,-85087.230,-30097.170,-29270.770,-26400.450,-28543.660,-0.174,0.950,-0.303,0.000,2.960,-1.373,66.667,759.000,1.000,4.388,0.000
-25421.460,-24143.500,-30194.540,-85165.730,-30126.920,-29297.350,-26427.620,-28569.990,-0.171,0.953,-0.304,-0.031,2.411,-1.404,66.667,760.000,1.000,0.012,0.000
-25447.150,-24173.010,-30224.510,-85245.200,-30158.320,-29326.450,-26454.530,-28599.710,-0.168,0.954,-0.306,-0.305,2.014,-1.404,66.667,761.000,1.000,9.363,0.000
-25465.770,-24191.360,-30248.200,-85318.910,-30184.470,-29350.240,-26475.530,-28625.600,-0.164,0.956,-0.307,-0.671,1.495,-1.404,66.667,762.000,1.000,3.087,0.000
-25482.980,-24205.620,-30271.250,-85391.020,-30208.390,-29371.250,-26495.120,-28650.250,-0.161,0.957,-0.305,-0.763,1.068,-1.343,66.667,763.000,1.000,0.008,0.000
-25504.260,-24224.820,-30298.950,-85466.470,-30234.640,-29394.610,-26517.180,-28677.570,-0.158,0.960,-0.304,-1.282,0.702,-1.221,66.667,764.000,1.000,1.944,0.000
-25522.640,-24244.450,-30324.270,-85535.950,-30258.180,-29416.400,-26535.930,-28702.430,-0.156,0.961,-0.303,-1.831,0.397,-1.190,66.667,765.000,1.000,8.749,0.000
-25540.570,-24266.850,-30349.460,-85602.230,-30281.840,-29439.700,-26554.120,-28726.940,-0.154,0.965,-0.304,-2.472,0.183,-1.068,66.667,766.000,1.000,3.017,0.000
-25562.540,-24288.650,-30377.960,-85676.670,-30308.790,-29465.770,-26574.210,-28754.020,-0.151,0.967,-0.304,-2.960,0.031,-0.946,66.667,767.000,1.000,0.013,0.000
-25580.320,-24303.070,-30400.370,-85748.800,-30329.780,-29483.070,-26586.140,-28773.480,-0.147,0.967,-0.305,-3.540,-0.061,-0.946,66.667,768.000,1.000,1.936,0.000
-25591.680,-24315.470,-30414.680,-85808.230,-30345.030,-29495.020,-26593.110,-28785.170,-0.146,0.966,-0.301,-4.120,-0.214,-0.854,66.667,769.000,1.000,8.723,0.000
