EEG 1, EEG 2, EEG 3, EEG 4, EEG 5, EEG 6, EEG 7, EEG 8, ACC X, ACC Y, ACC Z, GYR X, GYR Y, GYR Z, BAT, CNT, VALID, DT, TRIG
174844.100,170026.800,194938.100,181699.600,172753.000,183489.800,184721.400,176398.200,-0.168,0.946,-0.146,0.000,0.000,0.000,66.667,1.000,1.000,0.000,0.000
170852.800,166157.000,190385.100,177490.200,168813.500,179294.900,180475.500,172367.300,-0.161,0.969,-0.160,0.000,0.000,0.000,66.667,2.000,1.000,19.421,0.000
167331.500,162736.400,186387.700,173786.800,165339.800,175600.600,176743.400,168817.600,-0.157,0.976,-0.163,-2.167,0.397,-0.275,66.667,3.000,1.000,2.480,0.000
164195.800,159685.500,182836.300,170492.300,162237.300,172303.000,173413.500,165653.100,-0.154,0.979,-0.173,-5.341,-2.838,-0.946,66.667,4.000,1.000,2.441,0.000
161397.000,156962.200,179673.300,167555.900,159467.400,169360.200,170448.600,162828.300,-0.154,0.978,-0.172,-4.730,-3.662,-0.793,66.667,5.000,1.000,3.846,0.000
158888.500,154525.800,176843.500,164928.700,156987.700,166723.500,167789.300,160296.900,-0.150,0.977,-0.169,-4.547,-3.937,-0.580,66.667,6.000,1.000,3.656,0.000
156607.100,152308.200,174273.900,162543.300,154733.800,164329.700,165368.800,157992.600,-0.145,0.972,-0.167,-4.517,-3.845,-0.519,66.667,7.000,1.000,15.041,0.000
154527.500,150288.500,171933.500,160368.300,152677.400,162142.500,163160.900,155890.500,-0.139,0.969,-0.168,-4.608,-3.693,-0.244,66.667,8.000,1.000,3.048,0.000
152615.300,148425.500,169783.700,158366.900,150783.500,160125.800,161136.100,153954.200,-0.133,0.963,-0.169,-4.730,-3.326,0.092,66.667,9.000,1.000,0.012,0.000
150865.900,146720.700,167818.900,156539.600,149054.100,158286.500,159290.300,152194.800,-0.125,0.958,-0.169,-4.608,-3.021,0.305,66.667,10.000,1.000,1.927,0.000
149279.100,145177.800,166035.800,154884.100,147488.000,156620.400,157609.700,150593.800,-0.121,0.956,-0.175,-4.517,-2.472,0.610,66.667,11.000,1.000,2.491,0.000
147795.200,143739.700,164373.900,153332.300,146025.800,155066.800,156045.000,149091.600,-0.120,0.951,-0.179,-4.242,-1.923,0.702,66.667,12.000,1.000,3.746,0.000
146416.700,142399.800,162829.100,151892.500,144662.700,153619.100,154581.000,147697.700,-0.121,0.951,-0.182,-3.906,-1.373,0.916,66.667,13.000,1.000,6.266,0.000
145133.000,141148.900,161389.600,150556.300,143392.900,152271.300,153225.400,146403.600,-0.123,0.948,-0.184,-3.540,-0.977,1.099,66.667,14.000,1.000,4.410,0.000
143933.100,139985.500,160048.300,149308.700,142211.000,151018.900,151966.500,145200.800,-0.124,0.946,-0.186,-3.235,-0.641,1.190,66.667,15.000,1.000,0.010,0.000
142815.500,138903.700,158798.700,148143.700,141109.800,149853.500,150790.100,144073.700,-0.125,0.941,-0.191,-2.594,-0.275,1.038,66.667,16.000,1.000,3.038,0.000
141786.800,137904.800,157646.500,147073.400,140094.900,148778.300,149705.500,143037.000,-0.125,0.937,-0.194,-2.228,0.092,1.068,66.667,17.000,1.000,13.759,0.000
140828.000,136970.800,156569.000,146070.200,139144.700,147770.300,148689.200,142067.200,-0.128,0.939,-0.195,-1.526,0.427,0.977,66.667,18.000,1.000,3.124,0.000
139925.100,136096.500,155558.700,145126.800,138254.000,146831.000,147739.400,141158.400,-0.130,0.940,-0.203,-0.854,0.641,0.854,66.667,19.000,1.000,0.010,0.000
139083.400,135280.500,154617.700,144252.900,137425.100,145946.400,146855.800,140311.500,-0.134,0.944,-0.203,-0.244,0.854,0.671,66.667,20.000,1.000,5.640,0.000
138283.700,134502.400,153724.000,143422.500,136635.100,145110.300,146009.600,139501.500,-0.135,0.949,-0.207,0.275,1.068,0.427,66.667,21.000,1.000,2.497,0.000
137528.800,133767.500,152878.300,142636.100,135887.100,144317.400,145206.500,138734.500,-0.136,0.949,-0.209,0.732,1.099,0.061,66.667,22.000,1.000,2.503,0.000
136821.800,133078.900,152086.500,141900.700,135186.800,143570.300,144456.000,138023.600,-0.136,0.950,-0.212,1.312,1.221,-0.275,66.667,23.000,1.000,3.748,0.000
136162.300,132437.300,151348.600,141212.900,134533.300,142877.100,143762.200,137360.700,-0.136,0.951,-0.215,1.648,1.373,-0.580,66.667,24.000,1.000,6.798,0.000
135540.300,131832.500,150652.600,140562.300,133917.900,142222.700,143108.700,136732.500,-0.135,0.956,-0.218,2.136,1.495,-0.732,66.667,25.000,1.000,0.011,0.000
134947.500,131251.800,149988.800,139946.400,133330.600,141595.900,142478.700,136135.200,-0.136,0.960,-0.223,2.655,1.587,-0.885,66.667,26.000,1.000,8.175,0.000
134406.200,130717.800,149379.000,139382.700,132792.100,141019.800,141900.300,135586.300,-0.135,0.965,-0.229,3.052,1.587,-1.099,66.667,27.000,1.000,3.010,0.000
133904.000,130227.600,148815.100,138858.400,132297.600,140496.800,141375.100,135080.400,-0.137,0.965,-0.230,3.479,1.740,-1.251,66.667,28.000,1.000,0.008,0.000
133400.600,129738.600,148255.500,138336.100,131802.300,139969.800,140849.900,134582.100,-0.137,0.962,-0.229,3.723,1.831,-1.404,66.667,29.000,1.000,1.998,0.000
132926.100,129277.200,147723.700,137838.600,131329.000,139466.800,140338.800,134094.500,-0.134,0.959,-0.229,3.967,1.953,-1.526,66.667,30.000,1.000,15.024,0.000
132495.300,128859.600,147239.300,137388.600,130903.800,139012.500,139880.600,133652.500,-0.138,0.956,-0.229,4.211,2.045,-1.434,66.667,31.000,1.000,27.503,0.000
132086.700,128467.800,146780.600,136962.900,130502.800,138586.500,139452.000,133243.600,-0.140,0.953,-0.228,4.425,2.014,-1.526,66.667,32.000,1.000,2.464,0.000
131697.600,128087.800,146343.700,136557.700,130118.200,138178.000,139043.400,132854.800,-0.146,0.954,-0.228,4.730,2.075,-1.587,66.667,33.000,1.000,2.514,0.000
131331.400,127728.100,145933.000,136175.900,129755.600,137793.100,138658.000,132485.600,-0.152,0.956,-0.230,5.035,2.014,-1.648,66.667,34.000,1.000,2.505,0.000
130987.400,127395.300,145547.500,135819.300,129416.100,137431.300,138295.500,132138.600,-0.152,0.958,-0.231,5.188,1.953,-1.678,66.667,35.000,1.000,2.429,0.000
130664.600,127079.600,145185.000,135481.900,129096.800,137090.900,137953.000,131811.000,-0.151,0.958,-0.229,5.341,1.770,-1.709,66.667,36.000,1.000,2.485,0.000
130354.000,126774.500,144837.300,135156.200,128790.800,136761.300,137623.000,131497.000,-0.151,0.958,-0.229,5.219,1.801,-1.678,66.667,37.000,1.000,2.621,0.000
130051.500,126479.400,144498.800,134840.500,128491.200,136440.700,137295.000,131182.400,-0.151,0.958,-0.230,5.188,1.434,-1.648,66.667,38.000,1.000,2.468,0.000
129771.800,126208.100,144185.300,134548.900,128212.900,136148.600,136994.800,130892.400,-0.153,0.957,-0.228,5.157,1.343,-1.740,66.667,39.000,1.000,2.447,0.000
129507.400,125950.100,143890.400,134276.500,127954.000,135871.000,136723.500,130633.200,-0.153,0.957,-0.231,5.127,1.160,-1.740,66.667,40.000,1.000,2.469,0.000
129258.800,125708.800,143612.200,134020.500,127710.200,135612.800,136464.400,130387.900,-0.153,0.953,-0.228,4.913,1.099,-1.587,66.667,41.000,1.000,2.502,0.000
129033.900,125493.500,143360.200,133786.500,127487.100,135376.600,136218.200,130156.300,-0.153,0.952,-0.230,4.852,1.038,-1.465,66.667,42.000,1.000,2.528,0.000
128798.500,125265.300,143096.000,133536.800,127249.600,135129.800,135965.300,129912.500,-0.150,0.948,-0.229,4.822,0.885,-1.312,66.667,43.000,1.000,3.054,0.000
128590.300,125060.500,142858.200,133312.900,127037.300,134909.800,135742.100,129696.100,-0.153,0.947,-0.225,4.822,0.854,-1.007,66.667,44.000,1.000,0.013,0.000
128388.300,124861.600,142629.000,133100.800,126834.400,134698.300,135528.700,129491.000,-0.156,0.947,-0.226,4.761,0.854,-0.702,66.667,45.000,1.000,1.898,0.000
128194.400,124674.500,142411.200,132897.200,126641.500,134502.000,135326.000,129295.800,-0.162,0.950,-0.221,4.669,0.854,-0.336,66.667,46.000,1.000,3.083,0.000
128020.400,124500.500,142210.800,132711.900,126463.300,134309.700,135134.900,129116.600,-0.163,0.955,-0.224,4.425,0.641,0.031,66.667,47.000,1.000,0.065,0.000
127862.600,124343.000,142030.000,132547.500,126306.000,134141.600,134968.400,128959.600,-0.166,0.961,-0.223,4.303,0.549,0.397,66.667,48.000,1.000,2.422,0.000
127701.000,124181.700,141846.700,132377.900,126148.000,133970.200,134803.500,128801.000,-0.167,0.972,-0.224,3.998,0.183,0.671,66.667,49.000,1.000,0.014,0.000
127545.400,124027.100,141672.200,132213.700,125995.800,133806.000,134643.200,128646.000,-0.169,0.977,-0.222,3.632,0.153,1.068,66.667,50.000,1.000,8.129,0.000
127416.800,123904.100,141528.200,132078.500,125871.600,133672.900,134508.600,128515.400,-0.170,0.980,-0.219,3.204,-0.061,1.526,66.667,51.000,1.000,3.794,0.000
127285.900,123776.500,141379.500,131944.400,125744.100,133536.200,134374.000,128388.700,-0.170,0.982,-0.221,2.808,-0.214,1.801,66.667,52.000,1.000,9.316,0.000
127157.400,123650.600,141231.400,131808.100,125616.100,133403.800,134240.200,128254.200,-0.170,0.979,-0.219,2.289,-0.336,2.075,66.667,53.000,1.000,0.015,0.000
127035.700,123531.100,141092.800,131678.500,125493.600,133270.800,134103.900,128124.100,-0.171,0.978,-0.219,1.709,-0.580,2.380,66.667,54.000,1.000,1.872,0.000
126916.300,123409.900,140956.500,131554.200,125367.500,133126.200,133956.700,127998.400,-0.173,0.975,-0.222,1.404,-0.763,2.563,66.667,55.000,1.000,3.699,0.000
126805.900,123295.400,140828.100,131435.600,125250.700,133002.100,133825.000,127874.600,-0.172,0.973,-0.222,1.038,-0.916,2.716,66.667,56.000,1.000,8.854,0.000
126699.100,123190.700,140708.400,131326.300,125145.700,132894.200,133719.900,127771.600,-0.172,0.972,-0.217,0.793,-1.038,2.930,66.667,57.000,1.000,3.055,0.000
126609.100,123105.200,140607.000,131234.200,125059.200,132806.700,133636.500,127692.000,-0.169,0.972,-0.213,0.519,-1.190,3.204,66.667,58.000,1.000,0.009,0.000
126519.500,123022.300,140506.900,131135.600,124971.200,132715.200,133545.300,127601.600,-0.164,0.972,-0.210,0.305,-1.251,3.418,66.667,59.000,1.000,15.578,0.000
126428.400,122933.500,140404.400,131038.400,124879.000,132613.000,133444.200,127508.600,-0.159,0.972,-0.207,-0.061,-1.221,3.632,66.667,60.000,1.000,0.011,0.000
126360.400,122869.700,140327.100,130968.300,124811.800,132538.300,133365.500,127430.200,-0.155,0.971,-0.207,-0.488,-1.160,3.937,66.667,61.000,1.000,0.004,0.000
126275.000,122792.300,140237.500,130883.600,124734.600,132456.800,133280.100,127346.900,-0.153,0.969,-0.206,-0.610,-0.977,4.120,66.667,62.000,1.000,2.526,0.000
126198.200,122724.700,140156.100,130804.500,124662.800,132379.400,133199.300,127268.700,-0.150,0.972,-0.201,-0.885,-0.824,4.211,66.667,63.000,1.000,10.222,0.000
126139.200,122670.600,140091.800,130747.100,124608.800,132320.000,133142.500,127215.700,-0.147,0.976,-0.196,-1.038,-0.610,4.517,66.667,64.000,1.000,2.856,0.000
126055.700,122589.000,140003.600,130667.200,124531.100,132236.100,133060.000,127141.600,-0.142,0.981,-0.190,-1.312,-0.366,4.608,66.667,65.000,1.000,0.005,0.000
125993.300,122529.900,139935.300,130599.600,124471.900,132175.200,132995.000,127072.600,-0.137,0.984,-0.186,-1.556,0.000,4.639,66.667,66.000,1.000,1.984,0.000
125948.100,122487.500,139880.800,130550.100,124427.200,132130.300,132948.000,127024.300,-0.135,0.985,-0.186,-1.831,0.549,4.608,66.667,67.000,1.000,3.716,0.000
125896.900,122436.500,139821.100,130492.000,124375.700,132076.300,132892.800,126973.900,-0.132,0.984,-0.183,-2.258,1.038,4.669,66.667,68.000,1.000,9.299,0.000
125852.800,122395.700,139768.100,130439.200,124328.400,132030.700,132835.000,126917.600,-0.130,0.981,-0.183,-2.655,1.526,4.761,66.667,69.000,1.000,0.008,0.000
125805.300,122351.900,139716.000,130397.200,124284.300,131982.900,132793.900,126878.700,-0.131,0.980,-0.180,-2.808,1.923,4.761,66.667,70.000,1.000,1.946,0.000
125764.200,122309.600,139670.500,130357.700,124247.300,131942.200,132756.700,126847.100,-0.129,0.979,-0.178,-3.021,2.411,4.669,66.667,71.000,1.000,11.852,0.000
125702.100,122250.000,139609.100,130303.100,124194.400,131887.600,132709.500,126796.400,-0.129,0.980,-0.175,-3.174,2.930,4.547,66.667,72.000,1.000,0.013,0.000
125657.000,122205.800,139560.700,130259.100,124150.000,131842.500,132661.100,126748.100,-0.129,0.982,-0.175,-3.387,3.387,4.333,66.667,73.000,1.000,2.374,0.000
125624.800,122173.800,139519.700,130213.600,124112.300,131804.300,132623.000,126712.000,-0.130,0.986,-0.176,-3.632,3.906,4.303,66.667,74.000,1.000,0.012,0.000
125569.600,122120.200,139460.800,130161.700,124057.900,131750.800,132569.800,126662.500,-0.133,0.987,-0.173,-3.784,4.272,4.150,66.667,75.000,1.000,10.758,0.000
125544.700,122091.600,139428.500,130133.900,124028.400,131715.700,132535.200,126633.200,-0.136,0.985,-0.172,-4.089,4.608,3.967,66.667,76.000,1.000,3.088,0.000
125529.700,122080.000,139406.100,130111.700,124011.300,131696.800,132514.800,126618.600,-0.140,0.983,-0.170,-4.395,4.944,3.937,66.667,77.000,1.000,0.010,0.000
125485.500,122039.100,139361.900,130069.800,123973.800,131654.500,132473.800,126577.700,-0.141,0.976,-0.168,-4.486,5.219,3.723,66.667,78.000,1.000,1.875,0.000
125452.900,122010.000,139327.500,130037.300,123945.700,131624.400,132439.700,126544.100,-0.140,0.960,-0.167,-4.364,5.432,3.479,66.667,79.000,1.000,3.748,0.000
125417.300,121973.700,139286.800,129997.700,123908.400,131583.000,132397.300,126496.900,-0.140,0.946,-0.166,-4.211,5.737,3.204,66.667,80.000,1.000,13.776,0.000
125403.800,121960.400,139271.400,129993.200,123900.100,131570.400,132393.600,126488.400,-0.141,0.933,-0.169,-3.723,6.042,2.930,66.667,81.000,1.000,2.998,0.000
125396.600,121949.200,139257.900,129985.100,123888.700,131550.300,132366.000,126472.000,-0.141,0.924,-0.172,-2.960,6.226,2.441,66.667,82.000,1.000,0.010,0.000
125349.400,121901.000,139207.200,129925.600,123840.200,131491.400,132305.300,126414.700,-0.142,0.923,-0.172,-2.045,6.561,2.045,66.667,83.000,1.000,1.910,0.000
125323.800,121877.500,139180.500,129904.900,123820.000,131467.900,132289.200,126401.500,-0.144,0.922,-0.168,-1.129,6.836,1.923,66.667,84.000,1.000,2.568,0.000
125312.000,121867.900,139167.200,129897.000,123810.900,131460.100,132283.100,126396.100,-0.142,0.921,-0.167,-0.366,6.989,1.465,66.667,85.000,1.000,14.960,0.000
125293.000,121850.900,139145.100,129876.000,123793.200,131448.000,132267.000,126377.700,-0.138,0.922,-0.162,0.427,7.324,1.160,66.667,86.000,1.000,3.104,0.000
125280.500,121842.300,139131.000,129862.600,123782.400,131440.000,132254.700,126365.200,-0.138,0.928,-0.158,1.251,7.751,0.977,66.667,87.000,1.000,0.010,0.000
125266.200,121829.300,139116.000,129849.900,123770.800,131427.300,132243.600,126358.500,-0.139,0.939,-0.159,2.014,8.087,0.854,66.667,88.000,1.000,1.888,0.000
125254.100,121819.400,139103.300,129834.800,123760.900,131420.000,132232.600,126346.300,-0.139,0.948,-0.162,2.655,8.514,0.641,66.667,89.000,1.000,2.451,0.000
125232.600,121801.400,139081.300,129810.100,123740.800,131399.800,132215.400,126327.500,-0.141,0.959,-0.158,3.265,8.820,0.336,66.667,90.000,1.000,2.540,0.000
125223.100,121791.000,139072.000,129807.000,123733.700,131387.000,132208.100,126321.800,-0.141,0.971,-0.160,3.906,9.277,0.061,66.667,91.000,1.000,9.291,0.000
125208.200,121782.900,139057.600,129792.900,123724.200,131378.100,132198.800,126312.100,-0.146,0.984,-0.160,4.150,9.521,-0.031,66.667,92.000,1.000,0.010,0.000
125197.000,121777.000,139045.600,129779.000,123715.300,131371.300,132192.200,126303.400,-0.150,0.992,-0.163,4.059,9.735,-0.214,66.667,93.000,1.000,1.949,0.000
125177.600,121759.100,139026.400,129764.100,123698.400,131354.500,132178.200,126289.100,-0.150,1.001,-0.164,4.028,10.010,-0.488,66.667,94.000,1.000,3.749,0.000
125165.800,121745.100,139014.100,129754.900,123687.800,131342.800,132169.600,126284.600,-0.146,1.006,-0.170,3.693,10.284,-0.519,66.667,95.000,1.000,14.300,0.000
125158.500,121735.900,139002.700,129742.100,123676.100,131335.900,132156.400,126266.400,-0.146,1.008,-0.171,3.326,10.406,-0.458,66.667,96.000,1.000,0.013,0.000
125152.700,121727.500,138993.400,129731.200,123666.700,131326.600,132144.100,126255.100,-0.147,1.010,-0.175,2.808,10.559,-0.183,66.667,97.000,1.000,2.534,0.000
125130.000,121706.100,138969.400,129707.400,123644.700,131303.800,132119.600,126234.400,-0.150,1.010,-0.175,2.319,10.651,-0.122,66.667,98.000,1.000,0.006,0.000
125121.500,121695.600,138958.500,129700.100,123636.700,131293.800,132116.800,126236.400,-0.152,1.012,-0.180,1.984,10.834,-0.031,66.667,99.000,1.000,1.923,0.000
125101.900,121675.500,138938.100,129682.000,123615.100,131270.500,132090.100,126211.800,-0.153,1.010,-0.187,1.434,10.895,0.031,66.667,100.000,1.000,8.693,0.000
125098.600,121674.500,138935.100,129675.400,123612.500,131268.000,132088.800,126206.300,-0.150,1.010,-0.190,0.885,10.925,0.336,66.667,101.000,1.000,4.384,0.000
125096.800,121670.300,138929.800,129669.500,123604.600,131253.400,132069.200,126195.100,-0.149,1.013,-0.190,0.336,10.925,0.336,66.667,102.000,1.000,0.008,0.000
125100.300,121678.500,138932.400,129671.700,123609.200,131260.000,132071.600,126197.200,-0.145,1.017,-0.188,-0.122,11.017,0.427,66.667,103.000,1.000,8.091,0.000
125092.100,121671.600,138926.500,129669.100,123605.500,131259.200,132064.800,126185.300,-0.144,1.016,-0.191,-0.641,10.925,0.610,66.667,104.000,1.000,2.603,0.000
125086.200,121663.100,138922.200,129662.700,123604.800,131255.300,132065.800,126187.300,-0.141,1.014,-0.194,-1.373,10.956,0.793,66.667,105.000,1.000,3.622,0.000
125085.300,121660.500,138919.800,129657.900,123604.400,131250.500,132064.300,126185.500,-0.140,1.004,-0.191,-2.014,10.620,0.977,66.667,106.000,1.000,8.834,0.000
125089.800,121663.500,138922.800,129662.400,123607.800,131253.700,132066.100,126187.100,-0.143,0.998,-0.191,-2.625,10.468,1.007,66.667,107.000,1.000,3.012,0.000
125083.700,121657.700,138912.000,129653.500,123595.400,131243.100,132049.800,126168.500,-0.144,0.992,-0.190,-3.021,10.406,0.854,66.667,108.000,1.000,0.009,0.000
125081.100,121658.600,138909.000,129647.800,123593.500,131247.300,132054.800,126168.400,-0.145,0.986,-0.187,-3.235,10.223,0.732,66.667,109.000,1.000,1.897,0.000
125081.300,121660.500,138910.200,129648.400,123592.900,131246.500,132048.200,126163.400,-0.146,0.979,-0.187,-3.540,9.888,0.549,66.667,110.000,1.000,8.820,0.000
125071.200,121649.300,138898.600,129640.700,123579.900,131232.500,132029.700,126149.100,-0.143,0.971,-0.189,-3.662,9.552,0.214,66.667,111.000,1.000,4.299,0.000
125060.300,121636.900,138884.500,129626.800,123568.900,131221.600,132024.000,126140.000,-0.142,0.961,-0.187,-3.571,9.216,-0.092,66.667,112.000,1.000,0.009,0.000
125062.400,121639.000,138884.600,129628.400,123574.600,131228.300,132039.900,126152.800,-0.138,0.949,-0.187,-3.387,9.094,-0.397,66.667,113.000,1.000,5.736,0.000
125070.300,121646.200,138890.100,129632.900,123581.100,131229.300,132045.800,126159.200,-0.132,0.938,-0.189,-3.021,8.789,-0.580,66.667,114.000,1.000,3.710,0.000
125071.300,121643.700,138888.000,129634.900,123573.800,131216.500,132024.600,126144.600,-0.130,0.934,-0.195,-2.777,8.514,-0.702,66.667,115.000,1.000,4.308,0.000
125046.700,121622.500,138865.600,129611.000,123552.700,131190.000,132001.100,126129.500,-0.128,0.930,-0.200,-2.594,8.148,-0.763,66.667,116.000,1.000,0.007,0.000
125050.800,121632.000,138866.800,129610.900,123556.500,131201.200,132006.100,126127.000,-0.127,0.926,-0.197,-2.014,7.935,-1.038,66.667,117.000,1.000,13.204,0.000
125053.200,121632.300,138863.300,129609.900,123556.100,131205.900,132009.300,126124.600,-0.129,0.928,-0.196,-0.885,7.874,-1.709,66.667,118.000,1.000,3.029,0.000
125044.600,121617.700,138851.600,129602.800,123543.400,131191.100,131997.400,126114.000,-0.130,0.939,-0.195,0.275,7.843,-2.380,66.667,119.000,1.000,0.008,0.000
125033.100,121607.000,138838.600,129594.200,123530.900,131184.100,131985.500,126105.500,-0.131,0.951,-0.197,0.885,7.660,-2.716,66.667,120.000,1.000,1.920,0.000
125030.100,121605.800,138834.600,129582.300,123527.500,131180.200,131983.400,126101.100,-0.135,0.958,-0.200,1.068,7.294,-2.747,66.667,121.000,1.000,3.778,0.000
125024.800,121603.600,138830.600,129574.600,123523.800,131178.200,131981.300,126093.800,-0.136,0.961,-0.197,1.373,6.958,-2.655,66.667,122.000,1.000,10.568,0.000
125018.800,121595.600,138824.700,129570.700,123519.900,131174.200,131978.000,126092.200,-0.141,0.967,-0.200,1.526,6.653,-2.625,66.667,123.000,1.000,0.012,0.000
125024.000,121599.800,138828.100,129579.400,123524.100,131178.900,131984.500,126096.800,-0.148,0.969,-0.205,1.678,6.256,-2.441,66.667,124.000,1.000,2.498,0.000
125028.100,121605.600,138833.000,129591.000,123535.800,131192.900,132007.000,126114.400,-0.154,0.968,-0.208,1.617,5.768,-2.319,66.667,125.000,1.000,0.009,0.000
125011.400,121592.200,138817.700,129575.100,123527.000,131179.300,131997.600,126110.400,-0.159,0.967,-0.211,1.648,5.219,-2.350,66.667,126.000,1.000,10.649,0.000
124997.900,121577.700,138802.900,129561.500,123513.100,131159.200,131974.400,126096.400,-0.164,0.962,-0.214,1.740,4.547,-2.319,66.667,127.000,1.000,2.491,0.000
124981.300,121561.800,138788.000,129547.200,123500.400,131147.900,131961.900,126084.300,-0.170,0.957,-0.219,1.984,3.845,-2.289,66.667,128.000,1.000,2.483,0.000
124996.200,121578.700,138803.500,129563.300,123517.200,131172.800,131983.000,126102.600,-0.171,0.954,-0.225,2.289,3.052,-2.197,66.667,129.000,1.000,3.735,0.000
124992.700,121575.900,138799.900,129561.700,123511.100,131165.200,131971.200,126097.400,-0.172,0.950,-0.227,2.625,2.502,-2.197,66.667,130.000,1.000,11.917,0.000
124968.100,121553.800,138774.500,129536.900,123485.000,131141.600,131938.000,126064.200,-0.173,0.950,-0.225,3.113,1.984,-2.106,66.667,131.000,1.000,0.024,0.000
124968.400,121550.700,138773.900,129538.100,123484.100,131132.900,131942.300,126065.300,-0.172,0.956,-0.229,3.387,1.282,-1.984,66.667,132.000,1.000,2.417,0.000
124970.500,121552.200,138774.700,129538.700,123482.900,131133.600,131941.700,126070.600,-0.169,0.961,-0.228,3.540,0.854,-1.923,66.667,133.000,1.000,0.007,0.000
124979.400,121558.300,138779.300,129533.600,123480.800,131134.700,131935.600,126055.100,-0.165,0.966,-0.226,3.693,0.519,-1.709,66.667,134.000,1.000,10.684,0.000
124987.600,121568.700,138786.100,129535.200,123484.700,131139.600,131939.100,126051.100,-0.158,0.968,-0.226,3.784,0.061,-1.465,66.667,135.000,1.000,2.404,0.000
124988.600,121571.900,138788.600,129538.100,123488.700,131146.000,131944.400,126054.800,-0.151,0.971,-0.223,3.845,-0.153,-1.129,66.667,136.000,1.000,2.561,0.000
124958.500,121540.700,138760.400,129509.500,123462.600,131119.100,131915.800,126029.500,-0.144,0.974,-0.222,3.784,-0.244,-0.763,66.667,137.000,1.000,2.515,0.000
124953.100,121534.000,138756.900,129512.600,123460.900,131120.100,131919.500,126037.400,-0.139,0.978,-0.222,3.662,-0.275,-0.519,66.667,138.000,1.000,6.246,0.000
124978.000,121558.800,138778.700,129534.500,123481.400,131136.900,131940.500,126058.100,-0.136,0.982,-0.224,3.510,0.031,-0.458,66.667,139.000,1.000,4.297,0.000
124998.700,121580.400,138797.300,129551.800,123500.400,131159.600,131959.400,126076.700,-0.133,0.990,-0.220,3.296,0.305,-0.580,66.667,140.000,1.000,0.007,0.000
124974.300,121550.900,138772.400,129530.900,123475.600,131130.100,131930.600,126053.500,-0.132,0.997,-0.221,3.174,0.641,-0.580,66.667,141.000,1.000,10.639,0.000
124952.200,121529.800,138750.200,129509.900,123452.500,131107.100,131902.800,126024.800,-0.132,1.002,-0.217,2.808,0.824,-0.488,66.667,142.000,1.000,3.115,0.000
124958.900,121538.300,138758.100,129519.000,123462.500,131116.800,131915.400,126037.100,-0.133,1.002,-0.215,2.258,1.038,-0.214,66.667,143.000,1.000,0.007,0.000
124950.800,121531.700,138751.000,129512.700,123457.400,131112.400,131911.900,126036.200,-0.135,0.998,-0.214,1.678,1.190,-0.122,66.667,144.000,1.000,1.937,0.000
124956.500,121539.700,138755.400,129514.900,123462.100,131124.200,131917.000,126038.500,-0.136,0.994,-0.210,1.251,1.434,-0.122,66.667,145.000,1.000,8.699,0.000
124971.200,121550.400,138766.700,129527.500,123473.900,131127.500,131930.500,126050.600,-0.137,0.990,-0.209,0.854,1.556,-0.061,66.667,146.000,1.000,3.106,0.000
124966.900,121548.800,138763.900,129524.300,123475.600,131131.300,131939.200,126055.700,-0.140,0.981,-0.212,0.244,1.770,-0.214,66.667,147.000,1.000,0.006,0.000
124961.100,121548.600,138761.300,129521.600,123477.200,131135.400,131945.100,126063.900,-0.140,0.971,-0.213,-0.122,1.831,-0.183,66.667,148.000,1.000,1.926,0.000
124950.100,121539.600,138752.800,129512.600,123468.000,131125.400,131933.100,126045.800,-0.141,0.959,-0.217,-0.214,2.045,-0.153,66.667,149.000,1.000,12.461,0.000
124929.600,121520.400,138735.200,129493.600,123450.900,131105.800,131913.500,126023.200,-0.139,0.948,-0.217,-0.244,2.350,-0.183,66.667,150.000,1.000,3.101,0.000
124937.000,121528.900,138742.900,129500.600,123460.100,131113.700,131921.900,126032.300,-0.138,0.940,-0.218,-0.214,2.411,-0.031,66.667,151.000,1.000,0.011,0.000
124951.500,121546.000,138757.600,129517.500,123475.200,131127.300,131938.400,126053.300,-0.142,0.940,-0.221,-0.122,2.533,0.000,66.667,152.000,1.000,10.614,0.000
124955.500,121546.900,138758.200,129521.200,123477.800,131129.300,131942.300,126057.900,-0.147,0.941,-0.221,0.000,2.625,0.000,66.667,153.000,1.000,9.374,0.000
124945.300,121537.000,138750.000,129511.700,123469.700,131124.800,131934.400,126049.400,-0.151,0.946,-0.222,0.092,2.777,0.153,66.667,154.000,1.000,0.006,0.000
124956.400,121542.000,138756.500,129516.000,123467.100,131116.000,131917.000,126038.900,-0.152,0.948,-0.226,0.305,2.747,0.305,66.667,155.000,1.000,14.350,0.000
124949.000,121533.600,138747.800,129507.400,123455.500,131102.000,131905.900,126030.900,-0.153,0.952,-0.226,0.397,2.747,0.427,66.667,156.000,1.000,0.013,0.000
124932.800,121521.300,138734.300,129491.300,123443.000,131094.600,131897.000,126023.200,-0.151,0.955,-0.233,0.214,2.777,0.793,66.667,157.000,1.000,0.004,0.000
124941.600,121534.600,138743.600,129500.600,123453.500,131113.100,131912.700,126029.500,-0.150,0.959,-0.231,0.092,2.747,1.160,66.667,158.000,1.000,2.544,0.000
124940.400,121535.600,138743.500,129500.900,123455.700,131119.700,131915.300,126029.100,-0.146,0.965,-0.231,0.122,2.838,1.465,66.667,159.000,1.000,3.678,0.000
124929.500,121523.800,138732.300,129492.600,123443.100,131096.600,131902.000,126019.800,-0.145,0.972,-0.231,0.000,2.777,2.014,66.667,160.000,1.000,0.006,0.000
124925.800,121519.000,138728.300,129492.000,123438.900,131093.300,131901.700,126019.600,-0.147,0.977,-0.234,-0.183,2.838,2.350,66.667,161.000,1.000,0.004,0.000
124948.500,121540.200,138749.100,129508.700,123457.600,131111.500,131920.700,126039.200,-0.149,0.980,-0.231,-0.305,2.991,2.838,66.667,162.000,1.000,2.577,0.000
124958.000,121543.200,138755.300,129514.300,123460.000,131114.800,131920.400,126040.900,-0.150,0.981,-0.229,-0.549,2.991,3.265,66.667,163.000,1.000,2.474,0.000
124943.700,121527.700,138742.000,129504.700,123450.800,131102.700,131919.400,126038.400,-0.152,0.982,-0.228,-0.702,2.930,3.540,66.667,164.000,1.000,12.490,0.000
124944.500,121528.900,138742.300,129502.700,123451.200,131103.500,131911.900,126028.400,-0.151,0.981,-0.223,-0.946,2.747,3.815,66.667,165.000,1.000,4.329,0.000
124939.200,121525.200,138738.000,129495.900,123447.800,131096.100,131899.100,126019.200,-0.150,0.978,-0.219,-1.190,2.747,4.120,66.667,166.000,1.000,0.007,0.000
124937.700,121525.200,138736.500,129494.800,123448.500,131096.900,131896.300,126016.800,-0.148,0.968,-0.215,-1.556,2.563,4.364,66.667,167.000,1.000,7.494,0.000
124950.500,121540.300,138749.700,129505.100,123464.700,131114.000,131913.900,126034.300,-0.144,0.954,-0.214,-1.526,2.502,4.669,66.667,168.000,1.000,0.004,0.000
124952.800,121542.000,138748.200,129503.200,123462.100,131108.000,131907.000,126031.600,-0.142,0.942,-0.216,-1.373,2.472,4.639,66.667,169.000,1.000,1.900,0.000
124948.100,121532.800,138740.700,129498.700,123454.500,131096.700,131900.100,126027.200,-0.138,0.937,-0.220,-1.068,2.411,4.700,66.667,170.000,1.000,2.483,0.000
124955.100,121539.700,138747.600,129508.000,123464.300,131107.000,131908.000,126035.100,-0.136,0.935,-0.223,-0.458,2.441,4.578,66.667,171.000,1.000,11.285,0.000
124952.400,121533.800,138744.600,129510.400,123462.700,131107.400,131903.300,126032.900,-0.133,0.934,-0.222,0.092,2.472,4.639,66.667,172.000,1.000,9.972,0.000
124943.900,121525.400,138738.000,129501.800,123454.600,131104.100,131897.500,126026.500,-0.135,0.939,-0.221,0.458,2.533,4.578,66.667,173.000,1.000,0.006,0.000
124939.100,121519.000,138731.800,129494.500,123446.800,131094.200,131895.400,126024.600,-0.140,0.940,-0.224,0.824,2.563,4.517,66.667,174.000,1.000,0.003,0.000
124948.000,121526.800,138738.200,129503.900,123454.600,131102.600,131908.200,126036.800,-0.141,0.943,-0.226,1.038,2.594,4.364,66.667,175.000,1.000,3.097,0.000
124979.600,121557.700,138768.200,129535.200,123484.500,131140.000,131938.000,126062.000,-0.143,0.948,-0.227,1.587,2.380,4.150,66.667,176.000,1.000,0.003,0.000
125002.900,121579.300,138787.100,129550.100,123501.400,131158.300,131953.400,126075.400,-0.143,0.956,-0.226,1.801,2.319,3.998,66.667,177.000,1.000,3.166,0.000
125024.800,121604.300,138809.800,129574.200,123525.600,131184.100,131981.100,126104.300,-0.142,0.964,-0.223,1.984,2.289,3.906,66.667,178.000,1.000,11.301,0.000
124979.700,121561.700,138768.000,129533.200,123484.100,131142.500,131943.800,126067.000,-0.144,0.970,-0.222,2.136,2.106,3.723,66.667,179.000,1.000,4.268,0.000
124949.800,121532.600,138740.700,129507.900,123455.700,131112.100,131916.800,126046.100,-0.148,0.975,-0.222,2.136,2.014,3.510,66.667,180.000,1.000,0.012,0.000
124939.000,121520.000,138728.400,129494.300,123441.400,131100.400,131897.700,126023.900,-0.149,0.978,-0.221,1.984,1.831,3.296,66.667,181.000,1.000,9.983,0.000
124937.200,121521.800,138728.300,129493.400,123442.700,131101.100,131896.100,126022.400,-0.147,0.974,-0.223,1.709,1.556,2.899,66.667,182.000,1.000,0.007,0.000
124946.000,121532.500,138737.500,129503.400,123451.600,131109.200,131902.100,126029.900,-0.141,0.970,-0.227,1.678,1.312,2.655,66.667,183.000,1.000,2.554,0.000
124964.000,121550.900,138754.800,129517.900,123470.600,131127.000,131922.300,126044.400,-0.132,0.967,-0.226,1.831,1.343,2.258,66.667,184.000,1.000,0.008,0.000
124955.000,121542.800,138747.000,129510.900,123465.900,131116.300,131917.100,126037.300,-0.127,0.965,-0.229,1.862,1.343,1.984,66.667,185.000,1.000,10.631,0.000
124945.100,121534.800,138737.500,129500.400,123460.400,131113.600,131912.200,126030.900,-0.120,0.964,-0.229,1.892,1.526,1.770,66.667,186.000,1.000,3.040,0.000
124951.000,121543.300,138746.300,129510.400,123470.500,131118.600,131914.400,126042.500,-0.115,0.964,-0.226,1.923,1.709,1.678,66.667,187.000,1.000,0.009,0.000
124991.500,121585.300,138789.100,129554.400,123514.000,131159.000,131958.500,126086.400,-0.109,0.963,-0.226,1.678,2.075,1.678,66.667,188.000,1.000,1.889,0.000
124960.800,121557.700,138759.100,129527.100,123486.100,131131.800,131932.900,126061.300,-0.107,0.963,-0.229,1.495,2.441,1.678,66.667,189.000,1.000,12.535,0.000
124927.900,121526.000,138726.700,129494.000,123451.500,131100.000,131894.400,126023.400,-0.110,0.966,-0.232,1.404,2.777,1.617,66.667,190.000,1.000,2.548,0.000
124937.700,121535.600,138738.500,129503.100,123464.300,131113.900,131911.200,126034.900,-0.114,0.968,-0.237,1.160,3.021,1.617,66.667,191.000,1.000,27.545,0.000
124937.700,121533.000,138737.900,129503.000,123466.600,131115.200,131917.900,126040.200,-0.114,0.972,-0.238,1.038,3.235,1.312,66.667,192.000,1.000,2.439,0.000
124933.800,121528.900,138731.400,129499.600,123461.500,131111.900,131914.500,126038.400,-0.115,0.978,-0.239,0.916,3.601,1.129,66.667,193.000,1.000,2.481,0.000
124923.800,121518.000,138721.600,129492.000,123451.200,131103.300,131906.400,126031.300,-0.115,0.986,-0.232,0.641,3.815,0.916,66.667,194.000,1.000,2.508,0.000
124922.800,121516.700,138719.900,129492.700,123447.400,131090.800,131898.100,126032.700,-0.115,0.994,-0.233,0.305,4.028,0.519,66.667,195.000,1.000,2.522,0.000
124946.600,121540.600,138744.000,129517.500,123471.400,131113.500,131919.400,126056.500,-0.118,0.998,-0.228,-0.061,4.211,0.092,66.667,196.000,1.000,2.454,0.000
124969.100,121566.500,138766.100,129539.800,123492.100,131141.400,131937.500,126073.400,-0.124,0.999,-0.228,-0.488,4.395,-0.336,66.667,197.000,1.000,2.476,0.000
124938.400,121530.900,138729.800,129505.700,123452.100,131104.400,131892.500,126032.000,-0.132,0.997,-0.229,-0.824,4.517,-0.732,66.667,198.000,1.000,2.496,0.000
124942.800,121529.000,138729.700,129505.200,123451.600,131099.600,131898.500,126037.100,-0.137,0.992,-0.228,-1.068,4.456,-1.068,66.667,199.000,1.000,2.572,0.000
124929.200,121514.200,138713.600,129489.200,123436.700,131084.600,131888.900,126020.800,-0.138,0.977,-0.222,-1.160,4.242,-1.709,66.667,200.000,1.000,2.458,0.000
124927.100,121512.200,138710.700,129487.900,123434.100,131085.000,131885.700,126018.500,-0.135,0.966,-0.219,-1.007,4.181,-1.892,66.667,201.000,1.000,2.467,0.000
124927.700,121513.700,138709.900,129488.400,123434.000,131090.000,131883.700,126016.400,-0.136,0.961,-0.214,-0.763,4.059,-2.014,66.667,202.000,1.000,2.547,0.000
124926.900,121514.900,138711.200,129485.100,123434.900,131094.200,131885.500,126015.800,-0.135,0.953,-0.212,-0.427,3.906,-2.136,66.667,203.000,1.000,2.553,0.000
124927.700,121517.800,138715.600,129487.100,123436.800,131089.600,131888.300,126018.600,-0.134,0.942,-0.207,-0.031,3.906,-2.167,66.667,204.000,1.000,3.015,0.000
124918.600,121509.400,138710.800,129484.400,123433.100,131085.700,131884.700,126018.500,-0.134,0.933,-0.207,0.519,3.937,-2.228,66.667,205.000,1.000,0.007,0.000
124920.400,121508.000,138712.300,129487.300,123435.800,131084.000,131884.500,126021.800,-0.137,0.928,-0.206,1.312,4.059,-2.167,66.667,206.000,1.000,1.913,0.000
124926.300,121512.900,138717.500,129490.100,123441.200,131089.000,131888.300,126023.700,-0.142,0.926,-0.207,2.167,4.059,-2.136,66.667,207.000,1.000,3.749,0.000
124919.900,121505.500,138711.000,129485.100,123436.900,131084.100,131886.100,126020.300,-0.146,0.928,-0.210,2.960,4.089,-2.197,66.667,208.000,1.000,4.316,0.000
124909.200,121492.800,138699.200,129475.200,123428.600,131073.100,131878.000,126014.900,-0.151,0.934,-0.208,3.784,4.059,-2.289,66.667,209.000,1.000,0.006,0.000
124909.300,121497.000,138699.500,129475.500,123433.900,131080.400,131886.800,126024.900,-0.154,0.940,-0.205,4.517,3.967,-2.289,66.667,210.000,1.000,16.329,0.000
124906.600,121492.200,138695.300,129476.600,123433.500,131081.400,131888.800,126023.700,-0.155,0.946,-0.204,4.944,3.845,-2.167,66.667,211.000,1.000,0.009,0.000
124903.600,121489.600,138690.000,129474.500,123430.400,131079.800,131883.800,126017.900,-0.157,0.949,-0.200,5.371,3.540,-2.014,66.667,212.000,1.000,4.291,0.000
124919.000,121503.900,138702.500,129483.900,123442.400,131092.500,131894.600,126027.800,-0.159,0.958,-0.200,5.737,3.326,-1.648,66.667,213.000,1.000,2.563,0.000
124921.800,121504.000,138702.700,129485.400,123440.600,131091.000,131896.700,126030.000,-0.163,0.970,-0.202,5.890,2.960,-1.282,66.667,214.000,1.000,2.517,0.000
124914.600,121494.500,138693.800,129476.100,123428.900,131081.500,131888.200,126019.900,-0.169,0.981,-0.204,5.768,2.655,-0.854,66.667,215.000,1.000,9.975,0.000
124917.600,121494.500,138694.000,129479.200,123427.200,131078.900,131882.500,126016.400,-0.175,0.988,-0.202,5.402,2.045,-0.397,66.667,216.000,1.000,2.490,0.000
124922.000,121500.000,138696.900,129482.100,123426.200,131078.700,131876.300,126014.900,-0.183,0.981,-0.208,5.249,1.587,-0.366,66.667,217.000,1.000,3.073,0.000
124916.800,121498.500,138695.100,129476.800,123422.100,131076.700,131875.800,126011.300,-0.190,0.978,-0.215,4.944,0.854,-0.336,66.667,218.000,1.000,0.006,0.000
124914.400,121495.900,138695.200,129478.100,123425.000,131078.100,131884.600,126018.200,-0.188,0.974,-0.222,4.486,-0.061,0.000,66.667,219.000,1.000,4.426,0.000
124910.500,121494.100,138692.800,129472.100,123422.100,131076.700,131882.500,126013.400,-0.185,0.974,-0.233,4.395,-0.824,0.183,66.667,220.000,1.000,2.427,0.000
124921.300,121504.400,138701.800,129480.400,123428.700,131087.300,131887.200,126016.700,-0.177,0.979,-0.235,4.211,-1.587,0.244,66.667,221.000,1.000,2.558,0.000
124924.400,121504.800,138701.600,129482.200,123428.500,131090.000,131883.900,126014.100,-0.166,0.980,-0.242,4.211,-2.380,0.366,66.667,222.000,1.000,3.748,0.000
124919.900,121501.900,138697.600,129481.200,123426.800,131087.600,131883.600,126012.400,-0.156,0.976,-0.245,3.876,-2.625,0.824,66.667,223.000,1.000,9.382,0.000
124917.100,121499.300,138696.100,129479.000,123425.200,131084.400,131877.900,126006.300,-0.144,0.962,-0.248,3.357,-2.899,1.312,66.667,224.000,1.000,0.009,0.000
124916.800,121500.200,138696.900,129479.100,123425.700,131084.100,131881.500,126008.100,-0.134,0.951,-0.250,3.204,-2.960,1.770,66.667,225.000,1.000,8.662,0.000
124924.200,121507.400,138704.600,129485.700,123432.500,131087.100,131889.200,126017.200,-0.125,0.942,-0.254,3.204,-2.960,2.136,66.667,226.000,1.000,0.011,0.000
124921.600,121502.100,138699.500,129479.100,123427.200,131080.600,131882.700,126009.300,-0.118,0.940,-0.256,3.265,-2.869,2.594,66.667,227.000,1.000,4.458,0.000
124923.800,121503.600,138702.000,129479.400,123427.100,131077.100,131879.000,126005.200,-0.113,0.946,-0.259,3.479,-2.625,3.082,66.667,228.000,1.000,2.461,0.000
124920.300,121501.400,138702.000,129478.500,123428.400,131074.300,131884.600,126010.100,-0.109,0.958,-0.259,3.571,-2.472,3.540,66.667,229.000,1.000,2.504,0.000
124919.300,121502.800,138700.300,129475.800,123426.300,131071.400,131882.600,126009.400,-0.109,0.966,-0.264,3.448,-2.197,3.876,66.667,230.000,1.000,2.499,0.000
124928.500,121509.100,138707.600,129484.800,123433.400,131081.200,131886.300,126011.500,-0.111,0.971,-0.266,3.082,-1.831,4.089,66.667,231.000,1.000,8.777,0.000
124936.200,121514.200,138714.400,129491.500,123440.600,131088.300,131889.400,126017.000,-0.115,0.970,-0.269,2.686,-1.465,4.364,66.667,232.000,1.000,5.581,0.000
124948.300,121524.600,138725.000,129501.000,123450.600,131098.400,131900.300,126028.300,-0.114,0.964,-0.272,2.319,-1.190,4.303,66.667,233.000,1.000,0.012,0.000
124945.200,121520.900,138721.500,129497.800,123446.800,131096.600,131900.800,126027.700,-0.114,0.960,-0.274,2.075,-0.946,4.211,66.667,234.000,1.000,1.838,0.000
124942.600,121516.400,138718.900,129495.100,123442.500,131097.500,131896.800,126027.500,-0.114,0.958,-0.274,1.953,-0.763,3.998,66.667,235.000,1.000,11.299,0.000
124952.500,121523.700,138726.800,129503.300,123447.700,131097.700,131898.400,126030.400,-0.115,0.958,-0.275,1.862,-0.488,3.693,66.667,236.000,1.000,2.476,0.000
124960.200,121531.500,138735.300,129507.600,123458.600,131111.400,131912.500,126037.800,-0.111,0.960,-0.271,1.831,-0.397,3.296,66.667,237.000,1.000,2.535,0.000
124959.500,121532.300,138734.700,129505.200,123458.400,131119.900,131917.400,126037.200,-0.111,0.958,-0.268,1.648,-0.092,2.777,66.667,238.000,1.000,2.533,0.000
124945.700,121516.400,138720.200,129490.500,123441.400,131098.900,131897.300,126022.100,-0.110,0.956,-0.263,1.373,0.214,2.441,66.667,239.000,1.000,2.496,0.000
124941.700,121512.400,138715.000,129484.700,123435.100,131089.500,131888.600,126016.100,-0.108,0.958,-0.262,1.068,0.549,2.045,66.667,240.000,1.000,8.661,0.000
124953.300,121521.200,138723.000,129495.800,123445.200,131105.700,131899.800,126022.700,-0.108,0.958,-0.267,0.763,0.854,1.556,66.667,241.000,1.000,3.055,0.000
124963.900,121528.800,138728.300,129499.200,123451.600,131107.600,131902.800,126027.100,-0.108,0.962,-0.266,0.488,1.160,1.068,66.667,242.000,1.000,0.013,0.000
124963.500,121524.100,138723.400,129498.100,123447.400,131094.600,131892.500,126025.300,-0.109,0.962,-0.269,0.244,1.587,0.732,66.667,243.000,1.000,8.197,0.000
124960.400,121519.800,138717.300,129498.300,123444.000,131091.300,131890.600,126026.100,-0.113,0.959,-0.269,0.000,1.831,0.397,66.667,244.000,1.000,3.056,0.000
124949.300,121509.200,138704.700,129487.500,123431.500,131083.500,131884.500,126012.700,-0.115,0.954,-0.266,-0.031,2.106,0.275,66.667,245.000,1.000,0.014,0.000
124947.700,121511.300,138704.700,129484.300,123430.200,131085.200,131885.400,126010.000,-0.117,0.948,-0.267,0.000,2.258,0.305,66.667,246.000,1.000,1.879,0.000
124950.500,121516.300,138709.800,129489.300,123433.100,131085.400,131886.200,126012.300,-0.121,0.947,-0.266,0.061,2.289,0.366,66.667,247.000,1.000,11.324,0.000
124963.300,121533.200,138725.900,129505.400,123447.600,131096.400,131900.900,126025.400,-0.126,0.952,-0.267,0.214,2.441,0.214,66.667,248.000,1.000,3.014,0.000
124969.600,121544.900,138735.000,129510.500,123455.500,131106.200,131910.500,126032.900,-0.134,0.954,-0.270,0.427,2.502,0.336,66.667,249.000,1.000,0.013,0.000
124953.500,121532.500,138723.200,129494.700,123445.100,131096.000,131903.800,126025.500,-0.138,0.957,-0.268,0.488,2.533,0.397,66.667,250.000,1.000,4.461,0.000
124954.700,121533.100,138723.000,129496.900,123444.900,131097.300,131900.700,126025.400,-0.140,0.959,-0.266,0.610,2.411,0.458,66.667,251.000,1.000,3.747,0.000
124954.100,121531.700,138721.400,129499.800,123445.400,131097.900,131896.400,126024.000,-0.140,0.958,-0.267,0.702,2.350,0.580,66.667,252.000,1.000,6.865,0.000
124958.100,121534.700,138725.100,129507.300,123453.900,131105.100,131906.400,126032.100,-0.137,0.952,-0.270,0.854,2.319,0.824,66.667,253.000,1.000,0.066,0.000
124956.500,121529.900,138721.100,129506.500,123452.100,131104.800,131906.700,126029.800,-0.137,0.945,-0.263,1.068,2.045,1.099,66.667,254.000,1.000,8.023,0.000
124948.000,121521.500,138712.300,129498.900,123446.500,131099.500,131906.200,126027.700,-0.135,0.936,-0.264,1.465,1.862,1.373,66.667,255.000,1.000,5.602,0.000
124941.700,121516.600,138706.100,129489.400,123440.600,131097.400,131901.000,126019.100,-0.137,0.927,-0.266,1.709,1.709,1.678,66.667,256.000,1.000,0.006,0.000
124937.600,121518.200,138704.900,129486.800,123439.300,131097.300,131896.600,126015.500,-0.138,0.918,-0.263,2.167,1.556,2.045,66.667,257.000,1.000,1.912,0.000
124926.800,121508.600,138698.200,129479.500,123433.100,131093.800,131892.900,126011.100,-0.136,0.915,-0.260,2.716,1.282,2.350,66.667,258.000,1.000,2.443,0.000
124928.100,121507.900,138699.600,129484.300,123434.500,131097.400,131898.800,126018.300,-0.138,0.916,-0.259,3.265,1.068,2.686,66.667,259.000,1.000,3.815,0.000
124925.200,121504.400,138695.400,129482.700,123432.200,131092.400,131897.600,126015.200,-0.140,0.918,-0.259,3.510,0.671,2.960,66.667,260.000,1.000,8.806,0.000
124928.300,121507.800,138697.000,129485.100,123437.000,131098.700,131901.800,126019.400,-0.141,0.920,-0.258,3.906,0.275,3.143,66.667,261.000,1.000,4.345,0.000
124933.100,121509.800,138700.000,129488.000,123437.900,131098.300,131897.100,126023.200,-0.143,0.927,-0.260,4.150,-0.031,3.479,66.667,262.000,1.000,0.021,0.000
124938.400,121514.500,138702.600,129488.500,123439.400,131100.100,131898.300,126017.700,-0.142,0.932,-0.260,4.456,-0.519,3.662,66.667,263.000,1.000,1.826,0.000
124939.400,121517.700,138703.600,129487.700,123441.600,131104.400,131904.900,126022.000,-0.143,0.940,-0.264,4.700,-0.885,3.845,66.667,264.000,1.000,8.793,0.000
124923.500,121504.000,138690.600,129478.900,123429.600,131091.900,131894.300,126017.200,-0.140,0.952,-0.270,4.669,-1.373,3.998,66.667,265.000,1.000,2.363,0.000
124918.000,121496.700,138684.900,129471.900,123422.900,131084.000,131884.500,126006.400,-0.138,0.962,-0.271,4.578,-1.862,4.028,66.667,266.000,1.000,8.871,0.000
124919.700,121499.300,138686.900,129473.700,123422.500,131082.300,131879.700,126002.900,-0.134,0.977,-0.269,4.028,-2.533,4.272,66.667,267.000,1.000,9.247,0.000
124924.000,121503.600,138693.800,129480.200,123427.900,131086.200,131883.900,126008.800,-0.127,0.980,-0.271,3.693,-2.991,4.456,66.667,268.000,1.000,0.010,0.000
124923.700,121504.600,138699.400,129485.100,123432.100,131085.700,131888.400,126014.900,-0.123,0.981,-0.273,3.082,-3.296,4.578,66.667,269.000,1.000,1.912,0.000
124926.600,121508.000,138706.300,129493.700,123440.200,131088.800,131897.000,126024.100,-0.122,0.980,-0.274,2.563,-3.571,4.639,66.667,270.000,1.000,2.522,0.000
124922.200,121503.800,138702.400,129491.100,123435.900,131085.200,131886.800,126011.000,-0.123,0.976,-0.279,2.197,-3.998,4.730,66.667,271.000,1.000,3.731,0.000
124921.000,121504.900,138699.900,129487.500,123434.600,131083.300,131877.600,126004.500,-0.125,0.970,-0.286,1.862,-4.272,4.700,66.667,272.000,1.000,6.820,0.000
124923.000,121506.600,138700.700,129489.500,123437.500,131081.600,131878.100,126007.800,-0.124,0.969,-0.285,1.709,-4.425,4.578,66.667,273.000,1.000,0.011,0.000
124922.200,121507.800,138698.500,129485.000,123436.500,131080.700,131879.600,126006.500,-0.125,0.969,-0.284,1.678,-4.700,4.303,66.667,274.000,1.000,9.480,0.000
124921.100,121506.200,138695.200,129482.200,123434.700,131077.800,131881.000,126007.300,-0.125,0.973,-0.290,1.678,-4.913,3.998,66.667,275.000,1.000,20.643,0.000
124926.700,121512.900,138700.500,129488.700,123440.700,131087.100,131886.300,126011.200,-0.124,0.979,-0.286,1.617,-5.280,3.693,66.667,276.000,1.000,0.053,0.000
124936.800,121525.500,138712.200,129499.000,123450.600,131100.000,131898.200,126019.100,-0.124,0.988,-0.282,1.404,-5.402,3.326,66.667,277.000,1.000,0.006,0.000
124927.900,121518.500,138705.700,129491.400,123442.900,131090.600,131894.900,126016.100,-0.125,0.995,-0.280,1.038,-5.646,3.082,66.667,278.000,1.000,0.006,0.000
124920.500,121509.700,138697.600,129483.500,123435.400,131082.900,131891.800,126012.300,-0.121,1.000,-0.277,0.641,-5.768,2.777,66.667,279.000,1.000,1.860,0.000
124917.500,121506.000,138692.500,129478.100,123431.400,131081.100,131891.400,126010.100,-0.119,1.005,-0.268,0.122,-5.768,2.441,66.667,280.000,1.000,3.577,0.000
124916.300,121505.300,138690.800,129475.200,123430.300,131083.600,131891.100,126011.500,-0.114,1.003,-0.267,-0.427,-5.890,2.106,66.667,281.000,1.000,0.012,0.000
124910.100,121499.100,138685.100,129470.200,123425.100,131084.800,131889.400,126008.300,-0.111,0.999,-0.262,-0.977,-5.890,1.984,66.667,282.000,1.000,0.004,0.000
124915.100,121508.000,138691.100,129476.400,123432.500,131098.600,131899.200,126015.400,-0.111,0.994,-0.256,-1.465,-5.890,1.801,66.667,283.000,1.000,2.485,0.000
124909.200,121504.200,138685.700,129471.400,123428.900,131097.500,131898.300,126012.700,-0.110,0.987,-0.257,-2.045,-5.676,1.740,66.667,284.000,1.000,3.771,0.000
124912.200,121506.100,138687.500,129471.900,123430.200,131096.000,131898.800,126012.500,-0.112,0.978,-0.255,-2.258,-5.280,1.648,66.667,285.000,1.000,8.738,0.000
124918.800,121510.900,138690.900,129476.600,123432.600,131095.800,131897.500,126013.200,-0.112,0.965,-0.255,-2.533,-5.219,1.587,66.667,286.000,1.000,11.853,0.000
124919.700,121507.500,138688.100,129473.600,123428.500,131091.000,131885.500,126006.400,-0.107,0.952,-0.253,-2.594,-4.852,1.556,66.667,287.000,1.000,0.023,0.000
124917.500,121502.700,138682.700,129467.400,123424.800,131088.900,131883.600,126004.200,-0.102,0.941,-0.251,-2.472,-4.486,1.587,66.667,288.000,1.000,2.480,0.000
124916.100,121505.000,138682.100,129466.500,123426.000,131091.600,131886.800,126005.400,-0.097,0.931,-0.253,-2.228,-3.937,1.740,66.667,289.000,1.000,0.006,0.000
124923.300,121510.100,138688.000,129473.300,123431.800,131097.700,131891.500,126008.700,-0.093,0.924,-0.254,-1.801,-3.448,1.862,66.667,290.000,1.000,13.738,0.000
124927.100,121514.200,138690.500,129475.900,123435.800,131098.800,131893.100,126012.700,-0.090,0.922,-0.259,-1.251,-2.747,2.167,66.667,291.000,1.000,0.017,0.000
124934.200,121523.000,138698.200,129484.200,123444.300,131107.100,131894.800,126014.900,-0.089,0.918,-0.265,-0.793,-2.106,2.411,66.667,292.000,1.000,6.267,0.000
124932.200,121522.700,138698.000,129484.800,123443.200,131103.300,131891.500,126012.800,-0.089,0.915,-0.268,-0.153,-1.434,2.533,66.667,293.000,1.000,0.012,0.000
124937.300,121525.000,138701.900,129488.800,123445.300,131106.700,131898.400,126019.000,-0.091,0.914,-0.272,0.458,-0.763,2.899,66.667,294.000,1.000,4.404,0.000
124941.200,121525.800,138703.200,129490.200,123445.200,131112.000,131901.900,126023.000,-0.094,0.915,-0.274,0.946,-0.061,3.143,66.667,295.000,1.000,4.214,0.000
124945.500,121526.200,138702.100,129488.700,123443.100,131113.400,131900.400,126023.100,-0.096,0.915,-0.273,1.556,0.641,3.296,66.667,296.000,1.000,0.007,0.000
124937.200,121515.000,138689.400,129475.000,123430.900,131103.400,131891.500,126011.000,-0.098,0.921,-0.274,2.075,1.160,3.479,66.667,297.000,1.000,7.523,0.000
124944.000,121514.000,138690.300,129476.400,123426.400,131092.500,131877.000,126002.300,-0.101,0.926,-0.274,2.533,1.678,3.510,66.667,298.000,1.000,0.022,0.000
124949.000,121513.600,138692.000,129479.900,123426.800,131090.000,131881.200,126005.600,-0.107,0.935,-0.277,3.021,2.167,3.479,66.667,299.000,1.000,6.447,0.000
124950.100,121516.000,138694.700,129481.300,123429.900,131094.500,131888.000,126009.800,-0.108,0.938,-0.279,3.265,2.655,3.326,66.667,300.000,1.000,0.014,0.000
124950.500,121516.300,138696.500,129482.200,123429.900,131095.500,131887.700,126010.600,-0.108,0.940,-0.277,3.479,2.991,3.143,66.667,301.000,1.000,1.784,0.000
124953.400,121519.900,138700.300,129486.600,123432.500,131099.300,131888.900,126012.800,-0.111,0.945,-0.274,3.662,3.296,3.082,66.667,302.000,1.000,3.599,0.000
124946.700,121515.500,138695.400,129480.400,123428.800,131096.000,131889.700,126008.900,-0.111,0.953,-0.276,3.723,3.784,2.777,66.667,303.000,1.000,8.810,0.000
124939.900,121513.700,138691.200,129476.100,123430.000,131099.600,131899.300,126014.800,-0.111,0.958,-0.276,3.632,3.906,2.502,66.667,304.000,1.000,2.544,0.000
124942.100,121523.000,138696.900,129483.900,123439.400,131113.000,131914.200,126020.700,-0.110,0.958,-0.277,3.571,4.272,2.411,66.667,305.000,1.000,3.677,0.000
124955.700,121536.500,138709.000,129489.700,123447.000,131116.000,131903.000,126013.400,-0.107,0.956,-0.274,3.235,4.486,2.319,66.667,306.000,1.000,14.377,0.000
124946.800,121529.200,138698.700,129476.300,123436.800,131107.700,131892.300,126004.000,-0.101,0.950,-0.273,2.930,4.761,2.258,66.667,307.000,1.000,0.009,0.000
124944.100,121528.700,138698.000,129477.200,123436.600,131107.000,131896.100,126009.700,-0.099,0.944,-0.275,2.899,5.035,2.136,66.667,308.000,1.000,1.915,0.000
124943.500,121527.700,138699.800,129483.400,123441.400,131110.300,131907.200,126017.400,-0.095,0.944,-0.277,2.777,5.371,2.136,66.667,309.000,1.000,3.068,0.000
124954.800,121541.300,138713.100,129500.400,123458.900,131131.100,131934.600,126039.300,-0.094,0.948,-0.281,2.655,5.829,2.289,66.667,310.000,1.000,0.005,0.000
124942.100,121528.200,138701.600,129489.700,123449.400,131121.800,131926.700,126026.900,-0.093,0.951,-0.285,2.686,6.195,2.350,66.667,311.000,1.000,1.864,0.000
124931.500,121515.200,138690.900,129479.300,123434.100,131091.100,131889.300,126005.000,-0.090,0.952,-0.288,2.594,6.561,2.350,66.667,312.000,1.000,3.739,0.000
124924.600,121509.900,138685.800,129477.300,123428.800,131083.200,131884.200,126000.900,-0.088,0.950,-0.290,2.655,7.080,2.441,66.667,313.000,1.000,8.930,0.000
124921.300,121512.400,138685.300,129471.900,123429.500,131091.600,131895.100,126002.700,-0.085,0.944,-0.291,2.838,7.355,2.319,66.667,314.000,1.000,2.366,0.000
124920.100,121512.000,138687.100,129471.200,123432.000,131094.000,131901.500,126007.200,-0.085,0.939,-0.288,2.991,7.751,2.563,66.667,315.000,1.000,3.747,0.000
124928.900,121524.600,138698.300,129482.300,123444.000,131107.700,131909.500,126016.300,-0.086,0.937,-0.284,3.235,7.996,2.930,66.667,316.000,1.000,14.330,0.000
124928.900,121527.200,138698.600,129482.500,123444.600,131108.900,131905.600,126014.000,-0.092,0.935,-0.280,3.387,8.362,3.143,66.667,317.000,1.000,0.017,0.000
124921.600,121517.100,138690.400,129476.200,123434.000,131095.300,131894.100,126006.500,-0.099,0.936,-0.280,3.601,8.636,3.357,66.667,318.000,1.000,5.636,0.000
124918.400,121513.200,138686.200,129474.800,123430.200,131094.000,131896.200,126005.500,-0.107,0.938,-0.276,3.784,8.759,3.326,66.667,319.000,1.000,2.513,0.000
124926.100,121520.100,138693.100,129480.600,123437.100,131105.300,131907.400,126014.300,-0.115,0.941,-0.277,3.876,8.728,3.204,66.667,320.000,1.000,2.477,0.000
124921.000,121513.300,138686.400,129475.000,123429.400,131099.700,131898.200,126006.400,-0.125,0.943,-0.275,4.181,8.545,2.991,66.667,321.000,1.000,2.538,0.000
124918.000,121508.500,138681.900,129471.100,123423.100,131094.400,131889.600,126000.700,-0.133,0.950,-0.271,4.242,8.331,2.747,66.667,322.000,1.000,3.056,0.000
124906.700,121499.700,138671.500,129461.400,123411.900,131085.000,131881.800,125995.100,-0.142,0.959,-0.273,4.120,7.782,2.563,66.667,323.000,1.000,0.007,0.000
124905.000,121500.300,138670.300,129462.300,123410.800,131085.700,131884.400,125999.600,-0.147,0.964,-0.275,3.967,7.172,2.106,66.667,324.000,1.000,8.216,0.000
124901.200,121496.800,138664.900,129458.400,123405.600,131082.200,131879.900,125999.400,-0.150,0.967,-0.273,3.937,6.592,1.740,66.667,325.000,1.000,2.457,0.000
124918.400,121513.600,138680.500,129473.600,123422.300,131100.900,131894.300,126015.600,-0.147,0.971,-0.274,3.876,5.981,1.373,66.667,326.000,1.000,6.766,0.000
124914.900,121514.500,138678.100,129471.400,123422.900,131103.100,131893.900,126012.000,-0.144,0.969,-0.271,3.662,5.554,1.099,66.667,327.000,1.000,0.007,0.000
124911.000,121510.800,138675.700,129470.200,123421.600,131100.500,131893.500,126009.800,-0.138,0.970,-0.272,3.571,5.035,0.916,66.667,328.000,1.000,6.931,0.000
124906.600,121504.000,138671.700,129467.400,123417.100,131095.600,131892.100,126005.400,-0.133,0.969,-0.272,3.235,4.700,0.824,66.667,329.000,1.000,3.082,0.000
124906.200,121499.400,138668.000,129462.700,123412.800,131093.300,131887.900,126000.200,-0.125,0.964,-0.273,3.021,4.425,0.946,66.667,330.000,1.000,0.009,0.000
124910.100,121505.200,138671.400,129463.300,123417.000,131100.100,131888.800,125998.700,-0.118,0.959,-0.271,2.747,4.303,1.190,66.667,331.000,1.000,10.666,0.000
124916.700,121515.200,138681.200,129473.700,123425.700,131107.700,131892.600,126006.000,-0.114,0.957,-0.273,2.686,4.272,1.373,66.667,332.000,1.000,3.069,0.000
124913.100,121512.500,138681.200,129473.200,123425.800,131102.200,131892.200,126008.900,-0.108,0.955,-0.276,2.563,4.303,1.617,66.667,333.000,1.000,0.015,0.000
124901.200,121501.300,138670.600,129459.500,123414.500,131086.600,131883.300,125997.100,-0.105,0.952,-0.277,2.533,4.395,1.923,66.667,334.000,1.000,1.860,0.000
124905.900,121509.900,138678.200,129466.000,123423.100,131093.300,131895.200,126006.400,-0.104,0.949,-0.277,2.533,4.486,2.197,66.667,335.000,1.000,8.818,0.000
124907.500,121514.200,138680.800,129469.700,123428.000,131098.000,131895.400,126008.800,-0.100,0.949,-0.281,2.380,4.730,2.502,66.667,336.000,1.000,3.040,0.000
124898.100,121505.500,138672.800,129462.300,123420.400,131090.100,131887.400,126004.700,-0.099,0.950,-0.285,2.289,4.822,2.716,66.667,337.000,1.000,0.008,0.000
124890.300,121499.400,138667.400,129455.100,123413.600,131079.100,131880.000,125999.200,-0.101,0.949,-0.286,2.258,5.005,2.930,66.667,338.000,1.000,8.141,0.000
124893.900,121501.800,138671.000,129460.800,123420.200,131084.800,131887.600,126007.200,-0.102,0.948,-0.290,2.136,5.188,3.113,66.667,339.000,1.000,4.362,0.000
124894.400,121504.400,138671.700,129465.800,123424.800,131090.300,131895.300,126016.500,-0.103,0.947,-0.294,2.167,5.219,3.143,66.667,340.000,1.000,0.006,0.000
124884.000,121496.800,138659.800,129454.300,123415.000,131083.100,131884.400,126007.800,-0.103,0.945,-0.297,2.167,5.371,3.082,66.667,341.000,1.000,5.659,0.000
124883.900,121494.600,138656.700,129452.700,123412.200,131082.300,131878.300,126005.100,-0.105,0.944,-0.299,2.197,5.280,2.899,66.667,342.000,1.000,2.540,0.000
124896.100,121504.400,138668.000,129465.100,123423.600,131093.800,131890.800,126018.900,-0.106,0.945,-0.295,2.197,5.219,2.777,66.667,343.000,1.000,8.740,0.000
124900.100,121508.400,138673.000,129470.100,123427.600,131098.600,131898.800,126026.200,-0.110,0.946,-0.293,2.228,4.852,2.472,66.667,344.000,1.000,2.509,0.000
124901.500,121505.600,138672.400,129470.400,123425.400,131096.900,131893.900,126020.500,-0.114,0.946,-0.291,2.136,4.730,2.014,66.667,345.000,1.000,3.776,0.000
124892.700,121496.000,138662.100,129458.500,123415.900,131089.900,131883.400,126008.600,-0.118,0.947,-0.291,1.953,4.333,1.648,66.667,346.000,1.000,8.006,0.000
124902.000,121503.500,138670.000,129463.500,123422.400,131097.500,131886.400,126011.000,-0.121,0.949,-0.294,1.740,3.906,1.129,66.667,347.000,1.000,0.009,0.000
124902.800,121504.800,138670.000,129462.700,123422.900,131097.100,131890.200,126011.500,-0.127,0.950,-0.297,1.526,3.479,0.580,66.667,348.000,1.000,1.949,0.000
124903.500,121506.100,138671.800,129464.500,123425.300,131098.100,131900.100,126019.800,-0.130,0.952,-0.297,1.221,2.869,-0.031,66.667,349.000,1.000,13.839,0.000
124907.000,121510.000,138675.900,129471.000,123431.200,131108.000,131914.600,126032.400,-0.135,0.955,-0.300,0.885,2.289,-0.732,66.667,350.000,1.000,25.579,0.000
124919.800,121518.900,138685.400,129479.100,123435.400,131109.900,131899.100,126024.100,-0.134,0.955,-0.299,0.519,1.495,-1.526,66.667,351.000,1.000,0.022,0.000
124920.300,121516.500,138685.400,129477.000,123429.600,131096.400,131880.900,126011.800,-0.132,0.952,-0.301,0.214,0.702,-2.106,66.667,352.000,1.000,1.774,0.000
124922.700,121523.100,138691.200,129479.500,123434.000,131099.100,131890.000,126014.500,-0.127,0.949,-0.297,-0.061,-0.031,-2.533,66.667,353.000,1.000,5.027,0.000
124917.800,121515.300,138685.300,129473.300,123427.100,131094.200,131891.800,126010.500,-0.119,0.947,-0.295,-0.122,-0.549,-2.869,66.667,354.000,1.000,2.528,0.000
124918.000,121509.400,138680.400,129468.800,123420.400,131090.000,131887.500,126005.400,-0.113,0.948,-0.293,-0.122,-0.977,-3.204,66.667,355.000,1.000,7.484,0.000
124920.200,121509.300,138679.300,129466.100,123419.200,131090.000,131886.600,126004.200,-0.113,0.957,-0.294,-0.366,-1.373,-3.387,66.667,356.000,1.000,5.040,0.000
124921.300,121509.500,138677.700,129467.300,123419.700,131092.800,131885.900,126003.900,-0.112,0.964,-0.295,-0.641,-1.740,-3.632,66.667,357.000,1.000,4.955,0.000
124915.100,121505.300,138673.900,129466.000,123419.400,131095.500,131890.100,126004.700,-0.114,0.970,-0.295,-1.129,-2.106,-3.845,66.667,358.000,1.000,9.971,0.000
124916.200,121507.200,138677.700,129470.300,123420.400,131094.900,131891.200,126007.200,-0.120,0.971,-0.292,-1.343,-2.380,-3.937,66.667,359.000,1.000,10.053,0.000
124913.700,121503.500,138674.500,129467.000,123414.500,131084.000,131882.400,126007.100,-0.126,0.971,-0.292,-1.709,-2.625,-4.120,66.667,360.000,1.000,2.475,0.000
124917.900,121507.600,138679.100,129471.900,123418.100,131086.800,131880.200,126009.800,-0.131,0.971,-0.286,-1.984,-3.113,-4.395,66.667,361.000,1.000,14.997,0.000
124913.200,121499.700,138673.700,129464.400,123410.800,131080.900,131870.000,125993.100,-0.134,0.965,-0.284,-2.197,-3.510,-4.486,66.667,362.000,1.000,14.326,0.000
124918.500,121503.800,138678.700,129469.600,123415.300,131087.700,131876.300,125998.300,-0.136,0.962,-0.280,-2.289,-3.937,-4.486,66.667,363.000,1.000,0.019,0.000
124916.100,121501.500,138676.400,129465.400,123413.800,131089.300,131880.800,126001.400,-0.139,0.956,-0.280,-2.319,-4.333,-4.700,66.667,364.000,1.000,4.406,0.000
124914.200,121497.800,138670.500,129462.500,123409.000,131084.600,131878.300,125999.900,-0.141,0.948,-0.279,-2.197,-4.669,-4.639,66.667,365.000,1.000,4.958,0.000
124913.400,121497.600,138667.600,129463.200,123407.800,131082.300,131875.100,125999.800,-0.143,0.942,-0.279,-2.075,-5.035,-4.395,66.667,366.000,1.000,6.230,0.000
124914.500,121500.400,138669.200,129463.800,123410.400,131083.200,131875.000,125999.500,-0.142,0.937,-0.280,-1.923,-5.341,-4.181,66.667,367.000,1.000,5.053,0.000
124917.100,121505.200,138673.300,129467.100,123415.600,131087.300,131882.700,126004.000,-0.140,0.932,-0.275,-1.587,-5.707,-3.906,66.667,368.000,1.000,4.998,0.000
124910.500,121497.500,138666.700,129460.100,123407.400,131077.000,131877.000,125999.700,-0.138,0.923,-0.275,-1.312,-5.981,-3.540,66.667,369.000,1.000,5.024,0.000
124904.700,121490.500,138662.100,129455.300,123400.700,131068.200,131872.000,125993.200,-0.137,0.917,-0.275,-0.671,-6.104,-3.143,66.667,370.000,1.000,4.968,0.000
124914.300,121501.000,138672.000,129463.800,123410.100,131079.600,131879.400,125993.100,-0.131,0.913,-0.275,-0.031,-6.104,-2.716,66.667,371.000,1.000,5.077,0.000
124919.100,121507.600,138676.500,129467.900,123414.600,131086.800,131881.900,125995.200,-0.123,0.912,-0.273,0.610,-5.920,-2.167,66.667,372.000,1.000,6.176,0.000
124915.900,121503.600,138672.300,129464.600,123411.700,131082.800,131879.700,125993.900,-0.119,0.918,-0.271,1.190,-5.829,-1.678,66.667,373.000,1.000,2.514,0.000
124920.300,121509.800,138676.800,129469.600,123416.500,131089.300,131888.400,126003.000,-0.111,0.925,-0.271,1.678,-5.615,-1.068,66.667,374.000,1.000,2.474,0.000
124910.900,121500.400,138667.600,129460.300,123406.800,131082.500,131879.400,125994.600,-0.106,0.929,-0.271,2.167,-5.219,-0.427,66.667,375.000,1.000,4.989,0.000
124917.200,121504.400,138671.000,129464.200,123408.800,131087.300,131876.100,125993.500,-0.102,0.937,-0.273,2.472,-4.669,0.244,66.667,376.000,1.000,2.527,0.000
124927.100,121512.800,138678.800,129471.400,123415.700,131096.000,131879.600,126000.200,-0.101,0.944,-0.276,2.808,-4.150,1.007,66.667,377.000,1.000,2.460,0.000
124919.300,121504.600,138672.300,129466.900,123408.800,131088.200,131873.400,125997.300,-0.109,0.953,-0.281,2.991,-3.601,1.526,66.667,378.000,1.000,2.581,0.000
124909.500,121495.100,138663.300,129462.000,123400.500,131081.300,131869.700,125995.800,-0.116,0.965,-0.284,3.174,-3.113,2.014,66.667,379.000,1.000,2.446,0.000
124908.500,121495.600,138664.300,129461.600,123400.900,131081.000,131871.100,125997.400,-0.128,0.976,-0.289,3.235,-2.869,2.167,66.667,380.000,1.000,2.507,0.000
124913.100,121503.000,138670.000,129464.500,123408.700,131086.500,131875.600,126001.600,-0.137,0.982,-0.291,3.296,-2.808,2.197,66.667,381.000,1.000,2.472,0.000
124916.600,121506.900,138673.800,129466.100,123413.600,131092.400,131879.900,126003.200,-0.140,0.988,-0.292,3.326,-2.655,2.167,66.667,382.000,1.000,2.588,0.000
124917.900,121509.500,138677.300,129467.600,123417.300,131096.800,131888.900,126007.800,-0.138,0.993,-0.297,3.113,-2.960,2.197,66.667,383.000,1.000,3.032,0.000
124916.200,121507.900,138677.000,129467.900,123417.700,131093.800,131888.500,126007.600,-0.135,0.994,-0.299,2.930,-3.082,2.045,66.667,384.000,1.000,0.006,0.000
124925.200,121517.100,138686.800,129481.300,123430.300,131103.900,131904.500,126025.000,-0.128,0.991,-0.298,2.655,-3.174,2.075,66.667,385.000,1.000,1.912,0.000
124927.600,121523.500,138691.000,129486.400,123437.400,131108.600,131911.700,126030.000,-0.125,0.980,-0.298,2.289,-3.204,2.106,66.667,386.000,1.000,3.753,0.000
124915.000,121510.700,138679.000,129474.300,123423.700,131091.500,131891.500,126011.400,-0.122,0.968,-0.304,2.014,-3.174,2.167,66.667,387.000,1.000,7.486,0.000
124907.700,121500.600,138670.600,129465.000,123411.800,131079.200,131871.000,125989.100,-0.114,0.953,-0.309,2.106,-3.052,2.167,66.667,388.000,1.000,2.474,0.000
124903.000,121498.600,138667.600,129462.600,123411.000,131079.300,131879.100,125994.400,-0.107,0.938,-0.311,2.380,-2.991,2.075,66.667,389.000,1.000,2.531,0.000
124900.700,121496.100,138663.300,129457.300,123409.900,131079.800,131879.100,125996.300,-0.101,0.925,-0.313,2.777,-2.777,2.014,66.667,390.000,1.000,2.472,0.000
124909.700,121502.800,138667.800,129463.700,123415.100,131085.400,131881.900,126001.100,-0.094,0.913,-0.312,3.326,-2.625,1.801,66.667,391.000,1.000,2.546,0.000
124906.600,121497.500,138661.200,129461.100,123408.800,131080.700,131873.300,125996.700,-0.088,0.904,-0.308,4.120,-2.289,1.495,66.667,392.000,1.000,3.058,0.000
124900.900,121491.200,138655.800,129454.400,123404.700,131077.800,131872.500,125993.900,-0.084,0.900,-0.302,4.761,-1.862,1.190,66.667,393.000,1.000,0.007,0.000
124901.500,121495.200,138660.000,129457.800,123407.800,131083.000,131879.400,125995.700,-0.084,0.899,-0.303,5.402,-1.404,1.007,66.667,394.000,1.000,1.903,0.000
124897.800,121493.900,138660.100,129456.800,123407.000,131082.800,131878.800,125996.300,-0.084,0.901,-0.305,5.981,-0.885,0.824,66.667,395.000,1.000,5.646,0.000
124906.800,121505.500,138670.700,129466.600,123417.800,131092.900,131884.200,126003.600,-0.083,0.904,-0.309,6.775,-0.549,0.458,66.667,396.000,1.000,0.005,0.000
124910.700,121510.100,138675.800,129470.300,123421.800,131096.400,131884.200,126004.800,-0.083,0.906,-0.310,7.294,-0.122,0.275,66.667,397.000,1.000,0.003,0.000
124905.600,121505.500,138673.400,129467.400,123419.500,131092.400,131881.800,126002.600,-0.080,0.907,-0.305,7.721,0.397,-0.122,66.667,398.000,1.000,0.003,0.000
124903.800,121507.000,138671.900,129464.400,123418.500,131091.100,131882.800,126002.500,-0.081,0.907,-0.303,8.179,0.885,-0.458,66.667,399.000,1.000,0.003,0.000
124913.300,121514.600,138677.000,129470.200,123422.900,131098.700,131887.500,126005.300,-0.084,0.910,-0.302,8.484,1.312,-0.824,66.667,400.000,1.000,4.901,0.000
124915.800,121515.100,138674.900,129466.900,123419.500,131099.500,131883.000,126000.500,-0.089,0.919,-0.304,8.698,1.709,-1.160,66.667,401.000,1.000,0.005,0.000
124922.100,121519.100,138677.600,129468.400,123420.900,131101.900,131882.200,125998.800,-0.096,0.929,-0.308,8.850,2.075,-1.495,66.667,402.000,1.000,2.474,0.000
124922.600,121518.700,138678.100,129470.000,123421.100,131102.900,131885.800,126000.500,-0.103,0.938,-0.312,8.789,2.258,-1.892,66.667,403.000,1.000,0.006,0.000
124910.900,121506.400,138666.400,129457.800,123412.300,131095.200,131881.900,125994.800,-0.114,0.950,-0.315,8.759,2.380,-2.045,66.667,404.000,1.000,1.944,0.000
124911.300,121505.300,138665.700,129459.700,123413.600,131096.400,131882.300,125995.400,-0.126,0.961,-0.320,8.362,2.289,-2.380,66.667,405.000,1.000,3.139,0.000
124913.400,121503.600,138662.100,129459.900,123409.900,131091.600,131876.000,125990.900,-0.137,0.970,-0.318,7.935,2.136,-2.594,66.667,406.000,1.000,0.007,0.000
124923.500,121508.900,138666.900,129465.200,123414.800,131091.700,131876.600,125993.700,-0.142,0.976,-0.317,7.294,1.862,-2.838,66.667,407.000,1.000,1.892,0.000
124923.700,121507.100,138665.100,129464.600,123415.400,131091.600,131881.900,125995.000,-0.144,0.981,-0.313,6.683,1.343,-2.960,66.667,408.000,1.000,3.046,0.000
124939.400,121519.100,138675.500,129474.600,123426.100,131102.900,131893.900,126004.300,-0.142,0.982,-0.312,6.073,0.885,-3.113,66.667,409.000,1.000,0.006,0.000
124958.100,121534.000,138688.800,129486.500,123437.400,131112.300,131902.400,126014.800,-0.137,0.981,-0.308,5.249,0.549,-3.113,66.667,410.000,1.000,1.924,0.000
124971.600,121545.700,138700.500,129496.700,123447.600,131121.400,131909.700,126021.600,-0.131,0.978,-0.303,4.303,0.153,-2.991,66.667,411.000,1.000,11.275,0.000
124964.600,121537.600,138692.500,129487.500,123437.500,131116.100,131904.300,126014.100,-0.126,0.970,-0.299,3.357,-0.031,-2.686,66.667,412.000,1.000,14.939,0.000
124953.000,121521.300,138681.100,129475.800,123422.100,131096.200,131889.000,126004.800,-0.123,0.963,-0.302,2.441,-0.122,-2.350,66.667,413.000,1.000,0.012,0.000
124953.200,121520.000,138681.200,129475.900,123418.200,131091.100,131886.200,126003.400,-0.124,0.957,-0.310,1.770,-0.153,-1.953,66.667,414.000,1.000,0.003,0.000
124955.800,121521.300,138679.300,129475.100,123414.900,131091.100,131882.600,126001.200,-0.125,0.948,-0.319,1.190,-0.122,-1.526,66.667,415.000,1.000,3.093,0.000
124961.700,121524.600,138682.100,129479.000,123418.400,131095.300,131884.100,126005.100,-0.127,0.942,-0.327,1.007,-0.336,-1.068,66.667,416.000,1.000,0.006,0.000
124961.900,121523.800,138682.600,129479.100,123417.200,131096.400,131881.500,126000.200,-0.131,0.939,-0.335,0.946,-0.427,-0.641,66.667,417.000,1.000,2.649,0.000
124959.600,121523.600,138683.500,129479.100,123419.100,131097.300,131885.500,126005.900,-0.135,0.938,-0.339,1.129,-0.641,-0.275,66.667,418.000,1.000,0.008,0.000
124957.200,121522.300,138683.000,129478.800,123420.600,131098.800,131886.800,126006.400,-0.139,0.938,-0.340,1.434,-0.732,-0.031,66.667,419.000,1.000,1.757,0.000
124950.500,121519.500,138678.700,129472.500,123417.700,131096.800,131882.900,125993.200,-0.143,0.939,-0.342,1.495,-0.946,0.336,66.667,420.000,1.000,13.738,0.000
124956.900,121528.200,138687.600,129480.600,123426.600,131103.100,131884.900,125998.700,-0.146,0.938,-0.344,1.678,-1.129,0.549,66.667,421.000,1.000,4.937,0.000
124969.400,121542.100,138702.100,129495.900,123444.000,131121.000,131899.700,126017.100,-0.148,0.942,-0.346,1.923,-1.434,0.824,66.667,422.000,1.000,0.007,0.000
124962.500,121534.000,138695.600,129491.100,123440.700,131113.500,131902.000,126021.100,-0.146,0.948,-0.349,2.106,-1.801,0.854,66.667,423.000,1.000,0.003,0.000
124951.100,121523.400,138686.100,129481.400,123433.000,131105.400,131899.700,126016.700,-0.143,0.956,-0.348,2.258,-2.136,0.824,66.667,424.000,1.000,10.075,0.000
124945.300,121516.700,138680.300,129477.800,123429.200,131101.300,131897.500,126015.800,-0.135,0.960,-0.342,2.167,-2.563,0.763,66.667,425.000,1.000,2.494,0.000
124944.200,121514.600,138676.400,129472.700,123424.600,131097.600,131892.700,126008.300,-0.128,0.965,-0.335,2.014,-2.686,0.702,66.667,426.000,1.000,2.496,0.000
124946.300,121515.900,138676.900,129471.400,123422.900,131096.700,131891.000,126004.800,-0.121,0.963,-0.325,1.526,-2.899,0.549,66.667,427.000,1.000,2.478,0.000
124939.500,121511.300,138672.400,129466.800,123418.200,131090.100,131888.600,126002.400,-0.115,0.961,-0.320,0.916,-2.808,0.427,66.667,428.000,1.000,6.844,0.000
124942.300,121519.300,138680.200,129474.800,123426.200,131096.400,131899.300,126010.700,-0.113,0.958,-0.319,0.458,-2.716,0.458,66.667,429.000,1.000,0.016,0.000
124940.900,121521.800,138680.900,129473.800,123426.200,131099.500,131896.300,126008.200,-0.110,0.954,-0.313,-0.244,-2.533,0.244,66.667,430.000,1.000,11.250,0.000
124938.300,121519.600,138680.800,129472.800,123427.600,131103.500,131895.000,126007.500,-0.104,0.954,-0.309,-0.793,-2.350,0.061,66.667,431.000,1.000,0.014,0.000
124933.400,121515.200,138678.600,129471.100,123427.100,131103.900,131897.600,126008.500,-0.103,0.958,-0.305,-1.404,-2.167,-0.092,66.667,432.000,1.000,13.732,0.000
124927.500,121511.600,138675.300,129471.800,123426.000,131102.700,131905.300,126013.400,-0.102,0.968,-0.302,-2.106,-1.953,-0.366,66.667,433.000,1.000,0.008,0.000
124929.500,121509.400,138673.700,129470.300,123420.900,131093.800,131891.500,126004.300,-0.104,0.973,-0.299,-2.930,-1.923,-0.549,66.667,434.000,1.000,3.010,0.000
124931.000,121509.700,138675.200,129472.000,123423.500,131099.100,131900.600,126014.000,-0.105,0.974,-0.295,-3.784,-1.709,-0.854,66.667,435.000,1.000,0.008,0.000
124935.900,121516.100,138680.400,129475.800,123426.100,131105.800,131893.500,126011.500,-0.103,0.968,-0.294,-4.761,-1.617,-1.038,66.667,436.000,1.000,0.003,0.000
124931.300,121513.800,138676.200,129470.100,123420.400,131097.400,131888.300,126004.900,-0.102,0.954,-0.294,-5.585,-1.434,-1.373,66.667,437.000,1.000,4.469,0.000
124927.500,121508.200,138671.900,129465.300,123411.900,131084.100,131872.400,125993.100,-0.103,0.942,-0.301,-6.104,-1.221,-1.526,66.667,438.000,1.000,0.004,0.000
124926.800,121508.200,138671.500,129464.200,123408.500,131080.500,131865.700,125985.800,-0.100,0.929,-0.305,-6.256,-1.099,-1.740,66.667,439.000,1.000,5.604,0.000
124924.900,121506.900,138671.900,129461.800,123406.500,131083.700,131868.000,125982.700,-0.100,0.913,-0.306,-6.134,-0.946,-1.984,66.667,440.000,1.000,13.779,0.000
124926.000,121510.300,138675.900,129466.000,123411.900,131094.000,131875.700,125990.700,-0.099,0.899,-0.307,-5.707,-0.732,-2.045,66.667,441.000,1.000,4.992,0.000
124931.600,121517.000,138683.500,129473.400,123422.200,131104.900,131883.700,125996.900,-0.096,0.883,-0.308,-5.005,-0.671,-2.045,66.667,442.000,1.000,0.009,0.000
124929.600,121515.100,138682.800,129473.400,123422.500,131103.100,131887.100,125998.900,-0.099,0.868,-0.309,-4.059,-0.580,-2.014,66.667,443.000,1.000,0.004,0.000
124928.200,121514.700,138682.100,129473.800,123424.600,131102.900,131893.400,126006.500,-0.101,0.856,-0.309,-2.991,-0.427,-1.984,66.667,444.000,1.000,2.488,0.000
124924.400,121515.400,138679.800,129469.900,123424.800,131105.300,131892.400,126005.200,-0.109,0.850,-0.310,-1.740,-0.366,-2.045,66.667,445.000,1.000,2.565,0.000
124922.900,121518.700,138680.200,129468.700,123425.200,131106.600,131886.400,126000.900,-0.118,0.853,-0.312,-0.275,-0.244,-2.136,66.667,446.000,1.000,8.676,0.000
124922.700,121521.000,138682.800,129469.600,123429.100,131112.900,131889.700,126004.000,-0.123,0.867,-0.313,1.282,-0.336,-2.319,66.667,447.000,1.000,11.474,0.000
124922.000,121522.600,138685.300,129471.600,123433.900,131114.400,131899.300,126009.800,-0.130,0.887,-0.309,2.686,-0.580,-2.411,66.667,448.000,1.000,0.016,0.000
124925.300,121526.700,138688.200,129476.300,123439.800,131118.300,131908.900,126015.800,-0.131,0.908,-0.302,3.632,-0.946,-2.533,66.667,449.000,1.000,5.354,0.000
124924.400,121525.600,138685.300,129470.200,123437.300,131117.000,131905.100,126009.000,-0.130,0.925,-0.294,4.211,-1.312,-2.563,66.667,450.000,1.000,0.005,0.000
124928.600,121527.200,138685.300,129471.200,123436.400,131116.600,131900.300,126004.800,-0.131,0.935,-0.289,4.456,-1.709,-2.472,66.667,451.000,1.000,11.220,0.000
124927.600,121523.100,138680.900,129467.900,123429.700,131109.900,131892.500,125998.800,-0.134,0.943,-0.289,4.425,-2.228,-2.289,66.667,452.000,1.000,0.011,0.000
124920.400,121516.500,138672.500,129461.100,123420.000,131102.700,131886.500,125992.000,-0.135,0.943,-0.287,4.242,-2.777,-2.075,66.667,453.000,1.000,3.169,0.000
124922.900,121521.400,138674.200,129463.600,123421.400,131107.200,131892.100,125995.500,-0.135,0.939,-0.285,4.059,-3.296,-1.892,66.667,454.000,1.000,0.017,0.000
124931.400,121530.400,138684.200,129473.800,123428.500,131116.800,131901.300,126007.000,-0.128,0.935,-0.286,3.906,-3.876,-1.526,66.667,455.000,1.000,0.009,0.000
124923.400,121521.300,138676.600,129464.600,123418.600,131106.800,131888.500,125995.000,-0.122,0.931,-0.288,3.815,-4.150,-1.129,66.667,456.000,1.000,3.721,0.000
124916.000,121515.500,138669.900,129456.100,123411.200,131099.500,131880.400,125986.900,-0.122,0.929,-0.293,3.998,-4.425,-0.580,66.667,457.000,1.000,8.859,0.000
124913.200,121513.100,138666.800,129454.900,123408.500,131097.700,131881.400,125988.000,-0.124,0.928,-0.297,4.089,-4.639,0.000,66.667,458.000,1.000,2.967,0.000
124908.200,121506.600,138661.600,129450.400,123403.100,131092.000,131879.400,125987.800,-0.126,0.921,-0.297,4.028,-4.883,0.488,66.667,459.000,1.000,0.009,0.000
124910.600,121504.600,138661.900,129450.600,123401.100,131089.200,131876.700,125986.500,-0.131,0.910,-0.297,3.906,-5.249,0.824,66.667,460.000,1.000,1.930,0.000
124913.300,121503.700,138663.700,129452.600,123403.000,131088.700,131878.300,125990.400,-0.136,0.901,-0.301,3.906,-5.371,0.946,66.667,461.000,1.000,13.726,0.000
124919.700,121509.700,138668.300,129458.300,123407.700,131091.500,131878.700,125992.600,-0.140,0.897,-0.310,4.333,-5.524,1.007,66.667,462.000,1.000,2.479,0.000
124925.100,121514.200,138673.100,129465.000,123413.600,131097.100,131885.400,125998.000,-0.144,0.900,-0.320,4.822,-5.768,0.885,66.667,463.000,1.000,4.982,0.000
124910.700,121500.700,138661.600,129455.800,123405.800,131089.000,131883.900,125998.000,-0.143,0.906,-0.326,5.310,-5.951,0.702,66.667,464.000,1.000,2.512,0.000
124902.700,121496.500,138657.200,129453.400,123404.900,131089.700,131882.700,125996.200,-0.139,0.915,-0.329,5.646,-6.042,0.671,66.667,465.000,1.000,2.498,0.000
124907.900,121502.200,138661.300,129457.200,123409.500,131092.700,131876.500,125990.900,-0.133,0.927,-0.334,5.951,-6.165,0.732,66.667,466.000,1.000,9.360,0.000
124913.500,121509.700,138667.800,129464.200,123417.200,131097.700,131877.900,125993.800,-0.125,0.939,-0.336,6.195,-6.165,0.793,66.667,467.000,1.000,0.006,0.000
124912.300,121513.400,138668.800,129464.700,123421.900,131104.600,131886.800,125998.400,-0.111,0.950,-0.334,6.226,-5.981,1.099,66.667,468.000,1.000,1.897,0.000
124903.200,121505.900,138660.800,129455.900,123415.300,131099.500,131885.900,125996.300,-0.094,0.963,-0.333,5.951,-5.554,1.587,66.667,469.000,1.000,2.528,0.000
124894.700,121498.600,138655.800,129447.400,123408.200,131090.800,131878.300,125990.000,-0.077,0.976,-0.330,5.463,-4.700,2.136,66.667,470.000,1.000,11.262,0.000
124893.700,121499.000,138656.900,129447.400,123406.900,131091.700,131877.400,125989.500,-0.063,0.991,-0.332,4.761,-3.693,2.899,66.667,471.000,1.000,3.041,0.000
124895.900,121500.300,138657.200,129449.800,123406.100,131093.100,131877.300,125990.600,-0.052,1.001,-0.336,3.876,-2.441,3.815,66.667,472.000,1.000,0.005,0.000
124905.400,121507.900,138663.400,129455.900,123409.400,131096.400,131877.900,125990.800,-0.049,1.008,-0.337,2.930,-1.099,4.608,66.667,473.000,1.000,1.922,0.000
124894.900,121493.900,138652.900,129444.500,123395.300,131081.000,131867.900,125981.500,-0.045,1.016,-0.335,1.923,0.153,5.249,66.667,474.000,1.000,3.738,0.000
124898.200,121496.300,138654.900,129447.700,123393.700,131078.700,131861.100,125982.000,-0.046,1.021,-0.335,1.038,1.526,5.859,66.667,475.000,1.000,8.170,0.000
124905.500,121504.200,138662.500,129453.900,123399.900,131085.900,131865.700,125983.400,-0.047,1.023,-0.335,-0.122,2.808,6.287,66.667,476.000,1.000,0.010,0.000
124908.000,121506.200,138665.200,129455.100,123403.500,131089.300,131867.300,125982.800,-0.051,1.020,-0.332,-1.190,3.937,6.653,66.667,477.000,1.000,1.840,0.000
124916.900,121515.800,138674.900,129464.900,123416.000,131102.500,131885.900,125999.500,-0.052,1.011,-0.331,-2.228,4.974,6.805,66.667,478.000,1.000,11.170,0.000
124911.100,121509.800,138668.500,129461.400,123411.100,131099.600,131889.300,126001.000,-0.052,1.001,-0.331,-3.052,6.012,6.653,66.667,479.000,1.000,3.151,0.000
124898.200,121499.100,138658.500,129454.100,123401.800,131089.000,131882.200,125995.400,-0.055,0.990,-0.335,-3.845,7.019,6.439,66.667,480.000,1.000,0.008,0.000
124900.100,121504.400,138662.100,129455.100,123403.400,131089.500,131872.900,125989.700,-0.059,0.977,-0.333,-4.456,7.935,6.226,66.667,481.000,1.000,5.666,0.000
124898.000,121505.700,138660.900,129452.200,123403.200,131092.000,131869.100,125984.500,-0.065,0.964,-0.331,-4.822,8.698,5.676,66.667,482.000,1.000,4.317,0.000
124902.500,121509.600,138665.600,129456.600,123408.800,131096.500,131875.400,125989.100,-0.072,0.952,-0.330,-5.127,9.338,5.219,66.667,483.000,1.000,0.007,0.000
124905.800,121510.700,138669.800,129463.000,123414.900,131098.600,131884.500,125999.400,-0.078,0.940,-0.332,-5.249,9.735,4.700,66.667,484.000,1.000,1.914,0.000
124907.700,121512.600,138672.000,129466.800,123418.600,131101.800,131888.600,126004.800,-0.081,0.927,-0.326,-5.280,10.040,4.120,66.667,485.000,1.000,16.257,0.000
124914.000,121514.800,138673.600,129471.100,123417.800,131101.600,131883.500,126002.900,-0.087,0.911,-0.325,-5.127,10.406,3.448,66.667,486.000,1.000,5.590,0.000
124909.000,121504.700,138664.200,129460.300,123406.900,131093.800,131871.400,125989.700,-0.091,0.900,-0.330,-4.883,10.559,2.808,66.667,487.000,1.000,0.009,0.000
124912.100,121504.000,138666.500,129466.300,123410.200,131095.700,131877.900,125997.500,-0.104,0.896,-0.332,-4.425,10.559,2.197,66.667,488.000,1.000,1.872,0.000
124915.200,121508.200,138670.000,129469.400,123414.800,131099.000,131885.500,126003.400,-0.120,0.897,-0.326,-3.998,10.345,1.556,66.667,489.000,1.000,2.596,0.000
124917.000,121512.000,138672.700,129470.200,123416.600,131100.500,131885.900,126002.800,-0.134,0.902,-0.326,-3.601,9.918,0.946,66.667,490.000,1.000,2.432,0.000
124913.400,121511.300,138671.000,129466.900,123414.300,131097.500,131879.100,125996.100,-0.148,0.906,-0.328,-3.326,9.277,0.153,66.667,491.000,1.000,36.115,0.000
124908.200,121506.100,138667.900,129459.900,123410.100,131093.200,131874.200,125987.900,-0.155,0.907,-0.327,-2.991,8.545,-0.549,66.667,492.000,1.000,3.057,0.000
124907.800,121509.500,138670.300,129460.200,123413.900,131097.900,131881.700,125991.400,-0.157,0.906,-0.329,-2.655,7.690,-1.129,66.667,493.000,1.000,0.008,0.000
124913.000,121515.100,138677.100,129466.600,123422.000,131108.500,131893.000,126000.500,-0.158,0.910,-0.329,-2.441,6.683,-1.587,66.667,494.000,1.000,1.943,0.000
124913.400,121515.500,138678.700,129467.500,123423.100,131111.200,131893.500,126001.500,-0.160,0.912,-0.333,-2.197,5.707,-2.014,66.667,495.000,1.000,6.245,0.000
124909.200,121510.900,138672.900,129463.400,123416.400,131101.600,131885.700,125996.300,-0.158,0.916,-0.334,-2.014,4.700,-2.289,66.667,496.000,1.000,2.519,0.000
124911.200,121511.700,138673.300,129466.000,123415.500,131100.700,131880.800,125997.600,-0.155,0.919,-0.338,-1.831,3.784,-2.197,66.667,497.000,1.000,2.441,0.000
124910.900,121508.000,138673.100,129467.900,123415.600,131099.600,131885.700,126002.600,-0.149,0.924,-0.343,-1.526,2.991,-2.136,66.667,498.000,1.000,5.084,0.000
124905.800,121504.800,138667.900,129462.600,123410.800,131095.100,131885.800,125999.700,-0.148,0.934,-0.345,-1.373,2.228,-1.953,66.667,499.000,1.000,4.921,0.000
124897.100,121501.900,138661.100,129453.400,123405.400,131092.700,131881.200,125991.200,-0.147,0.943,-0.352,-1.251,1.373,-1.831,66.667,500.000,1.000,2.525,0.000
124898.400,121507.500,138664.400,129455.900,123411.100,131095.600,131884.300,125996.600,-0.147,0.953,-0.351,-1.190,0.763,-1.617,66.667,501.000,1.000,2.517,0.000
124897.600,121510.200,138666.000,129456.700,123416.800,131105.100,131892.500,125997.300,-0.149,0.959,-0.349,-1.373,0.000,-1.343,66.667,502.000,1.000,5.003,0.000
124893.400,121505.200,138661.500,129452.100,123415.600,131102.500,131894.300,125996.400,-0.146,0.967,-0.351,-1.709,-0.671,-1.160,66.667,503.000,1.000,36.367,0.000
124895.400,121505.000,138661.600,129453.400,123415.500,131100.300,131890.300,125998.500,-0.141,0.968,-0.352,-1.923,-1.282,-0.916,66.667,504.000,1.000,4.870,0.000
124894.000,121503.600,138661.600,129455.300,123414.200,131096.300,131883.700,126001.600,-0.137,0.963,-0.358,-2.014,-1.740,-0.488,66.667,505.000,1.000,2.501,0.000
124894.000,121501.900,138661.400,129455.600,123411.900,131093.200,131877.800,125999.400,-0.130,0.955,-0.355,-2.045,-2.014,0.000,66.667,506.000,1.000,2.551,0.000
124900.000,121505.100,138665.000,129458.900,123415.100,131095.600,131882.300,126004.500,-0.125,0.943,-0.353,-1.923,-2.350,0.519,66.667,507.000,1.000,3.080,0.000
124899.300,121500.900,138660.500,129456.400,123410.100,131090.800,131877.400,126000.300,-0.120,0.936,-0.351,-1.648,-2.563,1.160,66.667,508.000,1.000,0.005,0.000
124897.700,121499.100,138659.300,129456.200,123407.700,131090.000,131878.300,125998.200,-0.115,0.931,-0.349,-1.465,-2.625,1.709,66.667,509.000,1.000,1.825,0.000
124891.000,121492.600,138653.100,129449.000,123399.000,131084.100,131869.900,125989.900,-0.111,0.927,-0.351,-1.160,-2.625,2.350,66.667,510.000,1.000,5.064,0.000
124894.300,121495.800,138656.400,129450.900,123401.700,131088.600,131869.300,125989.900,-0.105,0.924,-0.349,-0.885,-2.502,2.838,66.667,511.000,1.000,2.501,0.000
124906.200,121508.700,138667.200,129460.500,123413.500,131103.400,131880.300,126000.100,-0.095,0.921,-0.344,-0.671,-2.319,3.357,66.667,512.000,1.000,2.507,0.000
124908.500,121511.500,138670.300,129461.000,123417.300,131108.700,131886.300,126006.000,-0.089,0.918,-0.345,-0.366,-1.984,3.815,66.667,513.000,1.000,2.432,0.000
124904.400,121508.600,138667.800,129458.900,123418.600,131109.800,131894.300,126011.600,-0.082,0.920,-0.339,-0.122,-1.526,4.242,66.667,514.000,1.000,2.544,0.000
124893.900,121496.300,138654.900,129447.800,123406.000,131095.300,131877.800,125994.600,-0.076,0.922,-0.342,0.153,-0.977,4.608,66.667,515.000,1.000,2.535,0.000
124915.800,121514.300,138673.300,129463.300,123419.900,131107.300,131880.600,125998.000,-0.074,0.927,-0.340,0.366,-0.275,4.883,66.667,516.000,1.000,8.765,0.000
124928.200,121526.900,138686.700,129474.500,123432.100,131116.200,131894.000,126011.500,-0.079,0.938,-0.342,0.488,0.183,4.791,66.667,517.000,1.000,5.029,0.000
124926.800,121525.600,138684.600,129474.200,123430.000,131111.400,131895.400,126012.500,-0.087,0.939,-0.343,0.366,0.702,4.669,66.667,518.000,1.000,2.429,0.000
124926.400,121526.000,138682.800,129473.500,123427.700,131108.800,131895.900,126011.500,-0.094,0.938,-0.344,0.397,1.129,4.364,66.667,519.000,1.000,3.105,0.000
124922.500,121520.000,138679.200,129469.400,123423.600,131104.900,131891.800,126008.100,-0.098,0.939,-0.344,0.397,1.556,3.967,66.667,520.000,1.000,0.011,0.000
124920.600,121518.100,138677.800,129465.200,123421.700,131104.900,131886.700,126004.800,-0.100,0.940,-0.347,0.580,1.770,3.448,66.667,521.000,1.000,1.889,0.000
124929.200,121525.900,138685.500,129471.500,123428.900,131113.000,131890.600,126008.300,-0.104,0.943,-0.353,0.916,1.923,2.899,66.667,522.000,1.000,3.687,0.000
124917.600,121518.900,138676.000,129460.800,123420.800,131110.300,131886.800,126001.900,-0.102,0.944,-0.357,1.038,1.953,2.411,66.667,523.000,1.000,0.013,0.000
124912.500,121513.800,138674.300,129459.400,123418.200,131109.500,131889.700,126003.800,-0.093,0.946,-0.360,1.160,1.984,1.801,66.667,524.000,1.000,0.003,0.000
124913.600,121513.700,138677.400,129461.100,123419.100,131110.300,131888.000,126001.700,-0.084,0.940,-0.359,1.373,2.258,1.526,66.667,525.000,1.000,2.498,0.000
124930.000,121531.300,138696.000,129477.200,123436.200,131124.600,131900.700,126013.300,-0.076,0.930,-0.360,1.556,2.563,1.312,66.667,526.000,1.000,3.069,0.000
124933.100,121535.500,138700.200,129480.800,123440.600,131129.700,131904.900,126018.200,-0.072,0.925,-0.364,2.014,3.021,1.190,66.667,527.000,1.000,0.004,0.000
124924.300,121525.300,138689.800,129474.200,123431.800,131121.100,131899.300,126017.900,-0.076,0.922,-0.363,2.594,3.815,0.946,66.667,528.000,1.000,1.926,0.000
124926.900,121526.300,138689.500,129475.000,123430.100,131119.700,131897.300,126014.000,-0.076,0.921,-0.359,2.869,4.181,0.641,66.667,529.000,1.000,3.140,0.000
124921.600,121523.600,138684.400,129470.600,123426.400,131116.600,131894.400,126010.800,-0.071,0.919,-0.356,3.204,4.669,0.519,66.667,530.000,1.000,0.005,0.000
124922.200,121523.500,138683.700,129472.600,123427.500,131116.400,131890.800,126007.900,-0.067,0.916,-0.357,3.418,5.188,0.336,66.667,531.000,1.000,11.228,0.000
124928.600,121527.900,138687.400,129476.500,123430.700,131117.200,131892.200,126008.700,-0.067,0.916,-0.354,3.662,5.707,0.183,66.667,532.000,1.000,0.012,0.000
124918.300,121515.100,138675.100,129464.500,123418.600,131105.600,131884.200,125998.100,-0.070,0.917,-0.355,3.937,6.287,0.092,66.667,533.000,1.000,1.910,0.000
124909.400,121506.900,138667.200,129455.400,123411.500,131100.000,131881.900,125992.700,-0.073,0.920,-0.356,4.303,6.775,0.061,66.667,534.000,1.000,2.556,0.000
124924.400,121522.400,138682.100,129469.000,123424.900,131112.300,131893.500,126004.200,-0.075,0.927,-0.355,4.395,7.141,-0.061,66.667,535.000,1.000,5.511,0.000
124925.500,121522.900,138682.600,129470.300,123423.600,131107.800,131887.300,126002.900,-0.079,0.930,-0.354,4.578,7.568,-0.275,66.667,536.000,1.000,0.009,0.000
124921.500,121518.600,138675.900,129467.200,123419.200,131102.100,131883.900,126001.800,-0.082,0.934,-0.354,4.761,7.813,-0.458,66.667,537.000,1.000,1.896,0.000
124917.900,121514.200,138670.100,129463.900,123415.500,131099.100,131884.500,126000.700,-0.090,0.934,-0.356,4.730,8.057,-0.763,66.667,538.000,1.000,2.506,0.000
124915.300,121510.900,138665.800,129461.000,123413.000,131096.200,131885.500,126001.500,-0.102,0.936,-0.356,4.639,8.270,-1.007,66.667,539.000,1.000,2.550,0.000
124916.100,121511.000,138666.800,129464.200,123414.600,131099.500,131886.400,126003.900,-0.113,0.937,-0.356,4.578,8.179,-1.373,66.667,540.000,1.000,2.423,0.000
124912.400,121507.500,138661.200,129459.900,123409.900,131099.200,131880.000,125996.700,-0.123,0.940,-0.356,4.578,7.965,-1.862,66.667,541.000,1.000,14.986,0.000
124908.200,121503.900,138656.900,129452.900,123406.600,131097.800,131877.000,125993.500,-0.132,0.942,-0.355,4.547,7.599,-2.441,66.667,542.000,1.000,0.011,0.000
124917.600,121515.700,138670.600,129464.300,123419.500,131108.000,131890.900,126008.500,-0.140,0.936,-0.351,4.486,7.172,-3.021,66.667,543.000,1.000,0.004,0.000
124915.800,121514.000,138672.500,129468.100,123419.200,131104.500,131891.600,126009.800,-0.143,0.927,-0.352,4.303,6.653,-3.540,66.667,544.000,1.000,3.762,0.000
124910.900,121503.100,138664.600,129462.300,123407.000,131090.400,131877.900,125999.900,-0.140,0.918,-0.353,4.364,5.981,-3.937,66.667,545.000,1.000,0.012,0.000
124911.800,121503.100,138664.300,129462.000,123404.600,131091.000,131876.700,125998.900,-0.136,0.914,-0.351,4.333,5.463,-4.150,66.667,546.000,1.000,0.003,0.000
124911.100,121500.100,138661.600,129458.700,123401.300,131089.700,131872.700,125991.700,-0.133,0.917,-0.356,4.517,5.035,-4.211,66.667,547.000,1.000,2.517,0.000
124915.700,121501.400,138663.100,129462.400,123404.700,131089.300,131873.400,125992.400,-0.137,0.931,-0.356,4.700,4.608,-4.242,66.667,548.000,1.000,2.526,0.000
124917.500,121504.800,138665.800,129465.200,123409.900,131096.000,131883.000,125997.000,-0.139,0.951,-0.357,4.730,4.089,-4.303,66.667,549.000,1.000,3.723,0.000
124916.500,121507.100,138664.300,129463.200,123407.800,131098.000,131883.400,125997.100,-0.137,0.965,-0.354,4.395,3.601,-4.181,66.667,550.000,1.000,6.249,0.000
124924.600,121516.500,138673.700,129472.300,123415.700,131103.500,131886.700,126004.600,-0.130,0.965,-0.347,3.632,3.204,-3.998,66.667,551.000,1.000,8.781,0.000
124918.600,121510.300,138670.100,129468.600,123411.300,131096.800,131882.400,126000.700,-0.121,0.953,-0.343,2.869,2.777,-3.693,66.667,552.000,1.000,12.508,0.000
124905.500,121497.600,138657.900,129455.900,123397.500,131079.900,131869.300,125986.800,-0.117,0.944,-0.340,2.167,2.625,-3.357,66.667,553.000,1.000,0.017,0.000
124899.400,121492.100,138652.500,129448.800,123389.100,131070.400,131857.000,125979.300,-0.123,0.941,-0.346,1.709,2.533,-3.082,66.667,554.000,1.000,0.004,0.000
124903.900,121499.500,138658.300,129453.100,123394.900,131079.500,131863.600,125988.800,-0.137,0.944,-0.349,1.343,2.258,-2.838,66.667,555.000,1.000,2.998,0.000
124904.300,121498.400,138657.600,129450.400,123395.600,131083.800,131865.100,125982.800,-0.148,0.950,-0.348,0.916,1.923,-2.838,66.667,556.000,1.000,0.011,0.000
124904.500,121496.600,138655.100,129449.800,123396.200,131087.300,131866.400,125980.800,-0.150,0.954,-0.344,0.458,1.465,-2.838,66.667,557.000,1.000,1.940,0.000
124905.900,121498.100,138656.600,129453.400,123399.800,131091.600,131873.200,125986.300,-0.149,0.954,-0.341,-0.153,1.007,-2.869,66.667,558.000,1.000,3.738,0.000
124909.900,121503.400,138663.100,129459.100,123406.500,131095.300,131881.000,125993.100,-0.147,0.954,-0.342,-0.580,0.641,-2.808,66.667,559.000,1.000,16.796,0.000
124912.200,121508.700,138666.100,129461.200,123408.900,131097.600,131881.400,125992.200,-0.143,0.954,-0.341,-0.946,0.305,-2.563,66.667,560.000,1.000,0.009,0.000
124917.400,121516.300,138672.100,129467.500,123415.900,131106.300,131886.100,125996.700,-0.143,0.956,-0.337,-1.495,-0.061,-2.228,66.667,561.000,1.000,2.530,0.000
124922.600,121519.500,138675.000,129470.300,123419.500,131110.300,131889.500,126001.600,-0.142,0.954,-0.333,-2.045,-0.427,-1.892,66.667,562.000,1.000,0.006,0.000
124922.500,121521.400,138676.200,129471.500,123423.300,131111.900,131893.900,126005.500,-0.139,0.947,-0.329,-2.655,-0.641,-1.556,66.667,563.000,1.000,1.900,0.000
124909.000,121509.400,138664.700,129460.800,123414.900,131100.700,131891.700,126000.600,-0.138,0.937,-0.328,-3.082,-0.946,-1.129,66.667,564.000,1.000,3.742,0.000
124897.500,121495.000,138653.200,129449.800,123405.100,131086.300,131880.500,125988.400,-0.135,0.933,-0.333,-3.448,-0.885,-0.885,66.667,565.000,1.000,9.356,0.000
124896.800,121495.700,138653.800,129449.800,123405.900,131087.700,131877.200,125984.400,-0.128,0.931,-0.329,-3.540,-0.824,-0.702,66.667,566.000,1.000,0.008,0.000
124904.400,121505.300,138662.500,129455.900,123414.500,131097.100,131886.100,125991.300,-0.122,0.937,-0.330,-3.815,-0.916,-0.458,66.667,567.000,1.000,1.882,0.000
124903.600,121502.300,138663.100,129456.800,123415.500,131096.100,131890.900,125998.900,-0.121,0.938,-0.329,-3.998,-0.824,-0.305,66.667,568.000,1.000,11.268,0.000
124895.800,121494.800,138657.400,129452.900,123409.100,131090.000,131884.600,125997.000,-0.117,0.938,-0.326,-4.272,-0.763,-0.031,66.667,569.000,1.000,6.822,0.000
124891.800,121493.700,138654.100,129450.900,123404.300,131087.900,131879.700,125992.200,-0.118,0.935,-0.327,-4.700,-0.580,0.061,66.667,570.000,1.000,0.006,0.000
124906.900,121508.100,138667.200,129464.300,123416.400,131105.100,131892.500,126004.300,-0.113,0.928,-0.326,-4.883,-0.305,0.153,66.667,571.000,1.000,1.895,0.000
124902.700,121502.400,138662.300,129459.200,123411.400,131103.300,131887.100,125999.100,-0.108,0.928,-0.327,-4.852,0.122,0.336,66.667,572.000,1.000,2.528,0.000
124898.000,121497.900,138659.800,129457.800,123410.500,131100.800,131890.300,126003.500,-0.105,0.929,-0.327,-4.913,0.366,0.549,66.667,573.000,1.000,3.679,0.000
124893.900,121495.600,138657.400,129455.100,123409.600,131098.700,131893.100,126004.800,-0.103,0.932,-0.326,-4.913,0.763,0.732,66.667,574.000,1.000,3.727,0.000
124900.800,121503.000,138664.400,129462.200,123414.700,131105.800,131892.900,126004.600,-0.105,0.936,-0.324,-5.096,1.312,0.732,66.667,575.000,1.000,11.840,0.000
124896.500,121502.400,138662.100,129455.900,123411.900,131105.100,131887.400,125995.000,-0.106,0.935,-0.324,-5.219,1.556,0.702,66.667,576.000,1.000,0.017,0.000
124895.000,121501.600,138661.600,129455.300,123412.300,131106.200,131886.400,125991.900,-0.105,0.930,-0.325,-5.310,1.831,0.580,66.667,577.000,1.000,5.010,0.000
124893.700,121503.100,138661.400,129455.000,123414.200,131107.700,131890.100,125995.500,-0.102,0.925,-0.326,-5.432,2.289,0.610,66.667,578.000,1.000,0.009,0.000
124895.800,121506.200,138663.700,129457.800,123417.800,131112.400,131896.400,126001.900,-0.099,0.921,-0.328,-5.341,2.563,0.519,66.667,579.000,1.000,1.892,0.000
124894.000,121503.100,138660.600,129454.100,123414.700,131109.600,131890.600,125996.500,-0.092,0.922,-0.334,-5.249,3.021,0.305,66.667,580.000,1.000,8.826,0.000
124894.500,121505.300,138660.800,129453.400,123413.900,131108.400,131886.800,125991.700,-0.088,0.928,-0.337,-5.066,3.418,0.153,66.667,581.000,1.000,2.997,0.000
124892.100,121505.500,138658.300,129452.300,123413.700,131109.800,131887.200,125990.900,-0.078,0.933,-0.336,-4.883,3.967,-0.031,66.667,582.000,1.000,0.007,0.000
124893.400,121503.000,138656.200,129453.200,123413.900,131112.200,131887.900,125990.900,-0.068,0.934,-0.334,-4.669,4.639,-0.061,66.667,583.000,1.000,8.139,0.000
124896.900,121504.400,138659.500,129455.600,123415.600,131111.300,131891.500,125994.400,-0.058,0.934,-0.336,-4.486,5.310,0.031,66.667,584.000,1.000,5.759,0.000
124912.400,121520.000,138674.400,129467.800,123426.900,131121.600,131901.400,126005.400,-0.054,0.927,-0.334,-4.608,6.104,0.000,66.667,585.000,1.000,0.080,0.000
124922.200,121528.400,138682.000,129475.500,123431.300,131123.400,131900.400,126008.100,-0.054,0.919,-0.332,-4.669,6.866,0.000,66.667,586.000,1.000,1.620,0.000
124931.900,121534.000,138687.600,129478.700,123433.400,131125.300,131892.400,126003.800,-0.061,0.914,-0.334,-4.486,7.660,-0.153,66.667,587.000,1.000,3.849,0.000
124938.300,121538.600,138690.700,129480.000,123432.800,131127.600,131882.500,125996.400,-0.070,0.915,-0.339,-4.303,8.179,-0.519,66.667,588.000,1.000,14.313,0.000
124922.200,121521.000,138676.400,129465.900,123417.000,131114.300,131878.300,125989.400,-0.081,0.918,-0.340,-4.089,8.667,-0.824,66.667,589.000,1.000,0.016,0.000
124917.100,121516.500,138673.900,129463.900,123414.900,131112.800,131882.400,125990.300,-0.090,0.920,-0.339,-3.845,8.881,-1.282,66.667,590.000,1.000,2.390,0.000
124921.700,121520.500,138677.700,129470.600,123420.600,131118.300,131889.000,125998.000,-0.100,0.923,-0.335,-3.662,8.850,-1.770,66.667,591.000,1.000,0.008,0.000
124920.100,121517.800,138675.900,129469.500,123421.400,131115.900,131890.500,125999.800,-0.107,0.923,-0.333,-3.632,8.759,-2.289,66.667,592.000,1.000,3.160,0.000
124913.300,121513.100,138671.900,129466.900,123419.700,131113.500,131893.500,126001.900,-0.112,0.919,-0.335,-3.540,8.575,-2.686,66.667,593.000,1.000,16.956,0.000
124910.900,121510.800,138670.500,129465.000,123419.700,131114.600,131895.700,126002.600,-0.120,0.917,-0.336,-3.540,8.179,-3.113,66.667,594.000,1.000,0.016,0.000
124903.400,121503.400,138661.800,129454.400,123412.400,131109.300,131889.500,125995.600,-0.126,0.918,-0.338,-3.387,7.721,-3.357,66.667,595.000,1.000,2.398,0.000
124905.000,121505.400,138661.800,129454.100,123413.200,131110.700,131886.700,125996.300,-0.133,0.926,-0.338,-3.296,7.141,-3.815,66.667,596.000,1.000,0.010,0.000
124910.000,121513.100,138667.500,129457.500,123416.800,131114.100,131890.200,125998.500,-0.135,0.934,-0.342,-3.235,6.378,-4.456,66.667,597.000,1.000,11.243,0.000
124909.400,121513.200,138669.600,129461.800,123418.400,131115.300,131893.100,126001.600,-0.135,0.939,-0.340,-3.265,5.524,-4.974,66.667,598.000,1.000,0.015,0.000
124912.900,121515.800,138675.400,129469.800,123425.500,131122.000,131902.200,126010.300,-0.132,0.944,-0.334,-3.357,4.913,-5.432,66.667,599.000,1.000,2.461,0.000
124905.200,121507.300,138669.000,129463.900,123418.700,131113.100,131897.300,126004.600,-0.129,0.947,-0.333,-3.662,4.333,-5.707,66.667,600.000,1.000,0.005,0.000
124902.400,121503.600,138666.100,129460.100,123413.200,131107.500,131890.800,125999.200,-0.127,0.946,-0.329,-4.028,3.662,-5.920,66.667,601.000,1.000,5.680,0.000
124911.800,121516.000,138677.200,129469.400,123421.700,131114.900,131895.100,126004.200,-0.128,0.946,-0.328,-4.303,3.204,-6.012,66.667,602.000,1.000,9.355,0.000
124912.100,121517.900,138680.600,129473.400,123425.400,131116.300,131898.900,126008.700,-0.132,0.945,-0.328,-4.730,2.533,-5.951,66.667,603.000,1.000,0.010,0.000
124913.200,121521.000,138679.700,129472.800,123427.100,131121.200,131903.400,126010.900,-0.134,0.942,-0.331,-5.035,2.014,-5.890,66.667,604.000,1.000,12.437,0.000
124914.300,121521.300,138677.700,129469.000,123423.600,131121.200,131900.200,126007.900,-0.135,0.937,-0.332,-5.280,1.221,-5.951,66.667,605.000,1.000,0.009,0.000
124918.800,121524.300,138681.500,129472.400,123425.200,131125.100,131900.200,126009.000,-0.134,0.932,-0.327,-5.493,0.702,-5.920,66.667,606.000,1.000,9.899,0.000
124917.100,121521.700,138682.600,129474.900,123425.800,131122.800,131900.500,126014.500,-0.129,0.927,-0.326,-5.707,0.244,-5.859,66.667,607.000,1.000,0.008,0.000
124924.600,121531.000,138693.700,129483.800,123433.300,131125.000,131903.400,126021.600,-0.124,0.921,-0.329,-5.707,-0.183,-5.554,66.667,608.000,1.000,0.005,0.000
124925.100,121528.300,138692.200,129482.200,123430.600,131121.900,131899.600,126017.500,-0.123,0.913,-0.333,-5.646,-0.488,-5.249,66.667,609.000,1.000,0.005,0.000
124921.800,121521.800,138685.600,129477.000,123424.400,131119.000,131895.500,126012.100,-0.125,0.912,-0.334,-5.615,-0.641,-4.974,66.667,610.000,1.000,1.976,0.000
124920.600,121519.700,138681.100,129472.700,123420.600,131117.000,131891.900,126006.300,-0.126,0.910,-0.334,-5.371,-0.824,-4.669,66.667,611.000,1.000,2.585,0.000
124931.000,121528.000,138688.600,129479.900,123428.800,131126.600,131899.000,126012.000,-0.131,0.911,-0.326,-5.127,-1.038,-4.486,66.667,612.000,1.000,3.707,0.000
124931.000,121524.600,138686.200,129479.700,123428.200,131126.000,131901.000,126013.400,-0.133,0.915,-0.328,-4.852,-1.038,-4.486,66.667,613.000,1.000,8.709,0.000
124934.900,121526.300,138687.600,129481.300,123430.100,131126.600,131906.500,126018.100,-0.137,0.918,-0.326,-4.700,-1.221,-4.242,66.667,614.000,1.000,4.338,0.000
124936.700,121528.700,138689.500,129483.300,123432.900,131128.600,131908.900,126022.300,-0.135,0.917,-0.327,-4.608,-1.373,-4.089,66.667,615.000,1.000,0.011,0.000
124924.900,121519.400,138680.200,129473.600,123423.400,131119.000,131897.000,126015.700,-0.133,0.917,-0.326,-4.517,-1.404,-3.723,66.667,616.000,1.000,8.219,0.000
124922.600,121516.500,138679.900,129470.300,123421.700,131114.000,131893.500,126007.000,-0.130,0.918,-0.326,-4.333,-1.282,-3.418,66.667,617.000,1.000,3.044,0.000
124917.300,121511.300,138677.000,129467.000,123419.200,131109.900,131894.400,126005.800,-0.127,0.918,-0.324,-4.150,-1.038,-3.052,66.667,618.000,1.000,0.006,0.000
124917.700,121511.800,138677.300,129467.500,123419.900,131109.000,131897.900,126010.700,-0.127,0.921,-0.326,-3.937,-0.793,-2.716,66.667,619.000,1.000,1.939,0.000
124929.200,121522.100,138685.900,129473.400,123425.700,131117.000,131898.000,126009.800,-0.125,0.924,-0.325,-3.723,-0.519,-2.380,66.667,620.000,1.000,12.442,0.000
124925.000,121516.100,138677.500,129466.100,123416.600,131111.200,131887.500,125999.600,-0.128,0.927,-0.323,-3.540,-0.214,-2.289,66.667,621.000,1.000,3.082,0.000
124918.000,121509.100,138668.500,129459.200,123407.700,131105.000,131880.500,125992.600,-0.125,0.931,-0.323,-3.510,0.031,-2.045,66.667,622.000,1.000,0.008,0.000
124921.900,121512.900,138670.500,129463.100,123411.100,131107.700,131887.700,125999.600,-0.126,0.934,-0.321,-3.479,0.397,-1.862,66.667,623.000,1.000,1.900,0.000
124926.100,121516.400,138674.200,129468.900,123414.700,131110.300,131891.400,126004.100,-0.123,0.934,-0.324,-3.571,0.793,-1.526,66.667,624.000,1.000,3.720,0.000
124922.700,121513.800,138670.000,129464.300,123411.500,131109.800,131887.600,126000.700,-0.118,0.936,-0.323,-3.540,1.282,-1.434,66.667,625.000,1.000,14.405,0.000
124917.900,121510.300,138667.000,129461.400,123408.300,131108.800,131885.500,126000.800,-0.115,0.935,-0.324,-3.510,1.709,-1.465,66.667,626.000,1.000,0.013,0.000
124917.000,121509.800,138668.500,129460.600,123407.600,131107.400,131885.900,125999.600,-0.115,0.935,-0.324,-3.479,2.228,-1.343,66.667,627.000,1.000,1.962,0.000
124919.100,121506.900,138670.800,129463.200,123408.500,131106.100,131890.300,126002.100,-0.111,0.934,-0.321,-3.448,2.747,-1.404,66.667,628.000,1.000,2.439,0.000
124915.800,121501.600,138666.300,129456.800,123404.900,131100.200,131889.600,125999.400,-0.110,0.939,-0.324,-3.479,3.204,-1.312,66.667,629.000,1.000,3.675,0.000
124915.700,121501.100,138662.500,129453.500,123401.500,131098.600,131881.000,125994.500,-0.108,0.941,-0.322,-3.632,3.662,-1.312,66.667,630.000,1.000,13.266,0.000
124922.700,121506.300,138666.200,129459.900,123406.100,131105.800,131883.300,125998.300,-0.107,0.941,-0.327,-3.693,3.876,-1.251,66.667,631.000,1.000,0.021,0.000
124919.100,121503.500,138662.200,129458.700,123404.700,131104.400,131883.200,125997.500,-0.106,0.940,-0.328,-3.693,4.395,-1.404,66.667,632.000,1.000,1.771,0.000
124918.400,121508.400,138665.200,129460.600,123409.900,131111.100,131891.500,126001.600,-0.106,0.940,-0.332,-3.632,4.700,-1.495,66.667,633.000,1.000,2.524,0.000
124919.500,121509.200,138667.300,129463.500,123411.600,131114.400,131894.000,125999.400,-0.107,0.943,-0.333,-3.662,4.761,-1.495,66.667,634.000,1.000,3.720,0.000
124923.800,121512.300,138669.800,129467.000,123414.200,131118.800,131898.700,126003.300,-0.108,0.938,-0.330,-3.815,4.974,-1.648,66.667,635.000,1.000,8.742,0.000
124926.700,121513.100,138670.700,129467.400,123415.400,131119.000,131899.400,126005.600,-0.114,0.939,-0.330,-3.906,5.066,-1.770,66.667,636.000,1.000,9.891,0.000
124923.900,121511.000,138668.800,129465.400,123412.500,131113.500,131895.800,126003.800,-0.117,0.938,-0.328,-3.937,4.974,-2.045,66.667,637.000,1.000,0.011,0.000
124917.700,121504.000,138665.700,129463.300,123406.100,131103.500,131885.800,125998.200,-0.120,0.935,-0.327,-3.876,4.822,-2.258,66.667,638.000,1.000,0.006,0.000
124918.500,121504.400,138667.700,129465.700,123407.400,131104.700,131887.500,125996.900,-0.125,0.931,-0.329,-3.876,4.547,-2.441,66.667,639.000,1.000,2.628,0.000
124918.800,121503.600,138668.100,129467.500,123408.200,131104.000,131884.400,125995.700,-0.127,0.928,-0.331,-3.784,4.181,-2.747,66.667,640.000,1.000,2.435,0.000
124920.600,121506.500,138669.800,129469.000,123410.500,131105.600,131886.200,125999.500,-0.133,0.927,-0.329,-3.754,3.754,-2.838,66.667,641.000,1.000,2.570,0.000
124925.600,121515.100,138675.000,129471.400,123416.000,131112.600,131887.200,126001.900,-0.138,0.922,-0.329,-3.693,3.296,-3.052,66.667,642.000,1.000,8.763,0.000
124930.900,121522.800,138682.700,129477.800,123424.900,131122.300,131897.600,126011.000,-0.144,0.918,-0.326,-3.571,2.625,-3.052,66.667,643.000,1.000,3.058,0.000
124921.300,121517.000,138677.700,129470.100,123419.600,131119.200,131896.200,126007.900,-0.148,0.919,-0.325,-3.510,1.892,-3.235,66.667,644.000,1.000,0.007,0.000
124919.500,121518.800,138677.800,129469.200,123418.200,131116.500,131890.900,126005.100,-0.155,0.919,-0.325,-3.387,1.160,-3.357,66.667,645.000,1.000,1.943,0.000
124922.400,121523.100,138681.300,129473.900,123421.500,131122.800,131894.300,126006.000,-0.159,0.924,-0.329,-2.991,0.183,-3.540,66.667,646.000,1.000,14.300,0.000
124928.600,121532.300,138687.900,129477.300,123428.700,131138.000,131904.400,126010.100,-0.161,0.928,-0.331,-2.869,-0.641,-3.632,66.667,647.000,1.000,0.009,0.000
124930.100,121531.200,138685.900,129472.800,123422.900,131126.700,131891.000,126004.300,-0.159,0.929,-0.330,-2.686,-1.404,-3.479,66.667,648.000,1.000,1.925,0.000
124923.400,121518.000,138674.900,129463.800,123409.700,131105.100,131875.000,125994.400,-0.157,0.927,-0.335,-2.350,-2.258,-3.326,66.667,649.000,1.000,2.412,0.000
124925.300,121516.500,138675.100,129467.800,123410.800,131106.900,131878.000,126001.800,-0.152,0.925,-0.333,-2.045,-2.930,-3.204,66.667,650.000,1.000,3.832,0.000
124923.800,121509.600,138668.500,129463.900,123406.100,131102.100,131877.300,125993.300,-0.148,0.920,-0.329,-1.495,-3.387,-3.082,66.667,651.000,1.000,14.242,0.000
124917.400,121501.900,138661.800,129459.800,123401.600,131097.300,131873.300,125987.900,-0.148,0.922,-0.329,-0.946,-3.876,-2.686,66.667,652.000,1.000,0.009,0.000
124918.400,121504.600,138666.100,129466.000,123405.600,131102.600,131879.100,125995.500,-0.148,0.923,-0.326,-0.793,-4.272,-2.014,66.667,653.000,1.000,10.149,0.000
124925.100,121514.700,138676.700,129474.400,123415.900,131117.100,131892.200,126004.000,-0.149,0.928,-0.324,-0.671,-4.608,-1.465,66.667,654.000,1.000,0.014,0.000
124925.900,121517.300,138677.000,129473.300,123416.000,131116.600,131891.400,126001.600,-0.148,0.931,-0.323,-0.549,-4.883,-0.793,66.667,655.000,1.000,1.792,0.000
124925.800,121515.400,138676.000,129471.300,123413.900,131110.600,131888.200,125997.900,-0.142,0.929,-0.324,-0.458,-5.005,-0.061,66.667,656.000,1.000,6.215,0.000
124915.700,121505.300,138667.500,129461.800,123406.000,131103.000,131880.000,125989.900,-0.139,0.930,-0.325,-0.397,-5.219,0.488,66.667,657.000,1.000,5.058,0.000
124906.900,121498.900,138662.500,129456.900,123402.800,131098.400,131878.300,125987.700,-0.136,0.928,-0.329,-0.092,-5.249,1.129,66.667,658.000,1.000,2.479,0.000
124922.900,121517.100,138680.800,129473.600,123421.700,131116.800,131897.700,126006.100,-0.134,0.930,-0.332,0.153,-5.157,1.740,66.667,659.000,1.000,2.468,0.000
124914.300,121511.000,138675.400,129465.200,123414.100,131109.200,131887.000,125996.600,-0.127,0.931,-0.332,0.488,-5.035,2.136,66.667,660.000,1.000,2.540,0.000
124910.900,121509.500,138676.800,129464.300,123414.500,131109.600,131883.900,125996.200,-0.120,0.935,-0.328,0.885,-4.700,2.625,66.667,661.000,1.000,2.490,0.000
124905.100,121503.100,138666.900,129455.500,123405.000,131101.300,131876.600,125986.600,-0.116,0.940,-0.325,0.916,-4.395,3.082,66.667,662.000,1.000,4.343,0.000
124914.100,121505.200,138667.100,129457.600,123404.200,131102.700,131880.100,125989.500,-0.111,0.942,-0.323,0.916,-4.028,3.540,66.667,663.000,1.000,0.007,0.000
124922.700,121510.700,138675.100,129464.100,123411.500,131111.100,131887.300,125996.300,-0.105,0.943,-0.327,0.793,-3.632,3.876,66.667,664.000,1.000,11.929,0.000
124935.100,121525.200,138685.500,129473.800,123420.000,131122.200,131892.100,126000.500,-0.099,0.941,-0.329,0.824,-3.113,4.089,66.667,665.000,1.000,3.089,0.000
124938.000,121526.800,138686.200,129474.900,123421.100,131126.800,131892.500,125999.400,-0.095,0.938,-0.332,0.946,-2.472,4.242,66.667,666.000,1.000,0.012,0.000
124942.700,121525.600,138686.900,129476.800,123421.200,131130.200,131895.400,125998.900,-0.087,0.936,-0.331,0.977,-1.740,4.211,66.667,667.000,1.000,1.865,0.000
124940.300,121522.800,138684.000,129475.300,123417.100,131126.600,131894.500,125996.600,-0.084,0.938,-0.332,0.916,-0.946,4.120,66.667,668.000,1.000,3.710,0.000
124940.300,121521.600,138682.800,129474.300,123415.700,131125.300,131897.000,126001.100,-0.080,0.938,-0.327,0.916,-0.092,3.845,66.667,669.000,1.000,6.879,0.000
124937.600,121517.600,138677.900,129472.600,123410.300,131117.700,131888.700,126001.100,-0.079,0.941,-0.331,0.916,0.824,3.723,66.667,670.000,1.000,0.011,0.000
124935.200,121513.800,138675.500,129467.600,123407.900,131113.000,131884.600,125993.800,-0.077,0.946,-0.331,0.610,1.587,3.387,66.667,671.000,1.000,28.241,0.000
124935.000,121512.900,138676.300,129467.600,123409.600,131109.700,131887.000,125997.100,-0.079,0.945,-0.329,0.244,2.350,3.143,66.667,672.000,1.000,2.944,0.000
124931.600,121507.800,138671.500,129465.400,123405.400,131102.500,131885.000,125995.800,-0.086,0.943,-0.333,-0.153,3.235,2.686,66.667,673.000,1.000,0.011,0.000
124937.300,121512.700,138675.500,129469.000,123408.900,131107.800,131891.800,125998.000,-0.093,0.943,-0.333,-0.427,3.906,2.136,66.667,674.000,1.000,1.918,0.000
124949.900,121526.500,138685.900,129477.700,123420.100,131121.200,131903.800,126008.200,-0.099,0.942,-0.337,-0.702,4.364,1.587,66.667,675.000,1.000,2.550,0.000
124948.000,121524.100,138682.600,129472.800,123415.100,131116.000,131895.700,126001.200,-0.102,0.943,-0.339,-0.977,4.639,0.763,66.667,676.000,1.000,2.487,0.000
124941.700,121520.300,138677.700,129465.200,123409.300,131107.700,131888.400,125995.400,-0.104,0.942,-0.337,-1.099,4.974,0.244,66.667,677.000,1.000,2.504,0.000
124948.000,121528.100,138686.100,129471.200,123418.200,131116.000,131899.200,126004.000,-0.105,0.940,-0.340,-1.373,5.219,-0.397,66.667,678.000,1.000,2.445,0.000
124946.400,121529.800,138686.200,129469.400,123419.300,131122.800,131905.900,126006.200,-0.104,0.938,-0.339,-1.648,5.310,-1.099,66.667,679.000,1.000,2.537,0.000
124947.700,121532.600,138686.900,129468.600,123417.800,131126.800,131901.000,125999.600,-0.106,0.936,-0.342,-1.801,5.310,-1.373,66.667,680.000,1.000,2.500,0.000
124955.200,121538.000,138693.900,129474.200,123422.100,131132.800,131902.800,125999.000,-0.110,0.933,-0.345,-2.014,5.280,-1.648,66.667,681.000,1.000,2.498,0.000
124957.800,121538.000,138698.600,129481.300,123425.400,131132.800,131905.900,126004.800,-0.115,0.931,-0.347,-2.258,5.249,-1.770,66.667,682.000,1.000,6.417,0.000
124951.500,121533.500,138694.000,129479.600,123421.500,131128.400,131907.000,126005.000,-0.119,0.929,-0.346,-2.319,4.974,-1.923,66.667,683.000,1.000,2.947,0.000
124948.900,121531.700,138692.000,129477.800,123422.100,131130.000,131913.300,126007.200,-0.124,0.927,-0.344,-2.441,4.608,-1.923,66.667,684.000,1.000,0.007,0.000
124945.000,121528.000,138686.900,129471.000,123418.600,131126.400,131905.300,125999.400,-0.126,0.926,-0.343,-2.594,4.272,-2.014,66.667,685.000,1.000,1.916,0.000
124942.100,121528.600,138684.400,129468.800,123423.000,131132.400,131912.900,126003.700,-0.129,0.926,-0.344,-2.686,3.784,-2.045,66.667,686.000,1.000,2.469,0.000
124938.000,121527.000,138681.400,129465.200,123425.000,131135.100,131914.000,126003.700,-0.133,0.928,-0.346,-2.625,3.174,-1.923,66.667,687.000,1.000,9.389,0.000
124936.100,121525.800,138681.300,129465.300,123426.700,131132.900,131916.800,126009.400,-0.138,0.930,-0.345,-2.655,2.625,-1.709,66.667,688.000,1.000,0.018,0.000
124941.900,121527.800,138685.200,129471.700,123429.300,131134.800,131921.800,126015.700,-0.144,0.932,-0.345,-2.716,2.014,-1.740,66.667,689.000,1.000,1.867,0.000
124948.200,121529.700,138686.400,129474.500,123428.200,131136.500,131921.600,126018.500,-0.150,0.936,-0.343,-2.869,1.221,-1.648,66.667,690.000,1.000,3.709,0.000
124950.800,121525.400,138684.400,129475.100,123424.800,131134.200,131915.400,126019.200,-0.154,0.937,-0.341,-3.021,0.488,-1.617,66.667,691.000,1.000,13.140,0.000
124948.100,121518.800,138677.700,129474.000,123418.900,131129.300,131907.800,126017.300,-0.159,0.940,-0.338,-3.143,-0.397,-1.526,66.667,692.000,1.000,0.009,0.000
124939.600,121510.200,138668.400,129469.300,123412.100,131120.300,131901.000,126009.400,-0.162,0.941,-0.337,-3.265,-1.373,-1.526,66.667,693.000,1.000,1.847,0.000
124925.400,121498.500,138656.300,129460.300,123403.600,131111.900,131894.200,126001.800,-0.164,0.948,-0.334,-3.448,-2.197,-1.465,66.667,694.000,1.000,2.490,0.000
124921.900,121499.100,138655.500,129459.600,123404.700,131115.300,131894.800,126002.500,-0.163,0.951,-0.334,-3.693,-2.991,-1.373,66.667,695.000,1.000,9.393,0.000
124922.700,121503.100,138660.000,129460.800,123406.600,131117.800,131893.200,126002.100,-0.159,0.955,-0.339,-4.059,-3.784,-1.160,66.667,696.000,1.000,0.017,0.000
124924.400,121505.500,138665.400,129463.500,123406.900,131117.700,131890.100,126002.000,-0.155,0.957,-0.335,-4.303,-4.456,-0.946,66.667,697.000,1.000,14.240,0.000
124919.900,121503.000,138666.000,129459.800,123403.200,131110.800,131891.400,126001.300,-0.148,0.959,-0.332,-4.547,-4.852,-0.671,66.667,698.000,1.000,0.011,0.000
124913.000,121495.800,138663.100,129456.000,123396.100,131103.400,131891.200,125997.400,-0.139,0.958,-0.332,-4.822,-5.219,-0.397,66.667,699.000,1.000,0.005,0.000
124915.100,121496.500,138663.300,129453.800,123393.500,131101.000,131890.600,125994.800,-0.132,0.955,-0.332,-5.188,-5.341,0.031,66.667,700.000,1.000,2.554,0.000
124924.700,121505.300,138669.100,129459.900,123399.300,131104.700,131895.100,126003.700,-0.126,0.951,-0.329,-5.432,-5.493,0.488,66.667,701.000,1.000,2.545,0.000
124934.900,121516.200,138673.200,129463.000,123405.200,131110.800,131895.900,126005.600,-0.123,0.949,-0.327,-5.554,-5.310,0.885,66.667,702.000,1.000,2.487,0.000
124936.400,121517.600,138671.700,129462.300,123406.200,131108.900,131898.700,126002.100,-0.116,0.943,-0.325,-5.646,-5.096,1.465,66.667,703.000,1.000,8.720,0.000
124924.100,121506.900,138663.200,129454.700,123400.300,131102.700,131900.900,126003.000,-0.112,0.937,-0.327,-5.615,-4.730,1.801,66.667,704.000,1.000,3.076,0.000
124922.400,121507.600,138664.300,129452.900,123400.100,131103.100,131892.100,125995.300,-0.107,0.930,-0.330,-5.524,-4.303,2.197,66.667,705.000,1.000,0.008,0.000
124925.300,121512.500,138671.900,129459.300,123406.500,131107.600,131890.000,125994.600,-0.102,0.927,-0.330,-5.310,-3.693,2.686,66.667,706.000,1.000,1.949,0.000
124919.900,121508.000,138669.800,129455.000,123403.900,131103.600,131886.800,125991.700,-0.098,0.922,-0.328,-5.005,-2.960,2.991,66.667,707.000,1.000,8.558,0.000
124920.700,121509.100,138671.900,129457.600,123406.100,131104.700,131889.400,125995.400,-0.097,0.916,-0.329,-4.608,-2.411,3.326,66.667,708.000,1.000,8.888,0.000
124920.300,121510.000,138670.800,129458.400,123407.800,131111.900,131895.200,125999.300,-0.100,0.914,-0.326,-4.333,-1.617,3.510,66.667,709.000,1.000,2.561,0.000
124921.100,121512.900,138670.100,129460.300,123411.200,131121.400,131901.100,126003.800,-0.100,0.913,-0.325,-3.937,-0.977,3.723,66.667,710.000,1.000,2.474,0.000
124920.100,121511.800,138666.900,129457.900,123410.100,131121.400,131896.500,126002.500,-0.099,0.914,-0.325,-3.479,-0.305,3.754,66.667,711.000,1.000,2.564,0.000
124923.400,121512.200,138665.300,129457.800,123409.200,131118.800,131892.100,125999.700,-0.098,0.916,-0.327,-2.930,0.427,3.754,66.667,712.000,1.000,2.392,0.000
124926.400,121515.000,138663.600,129457.400,123408.100,131119.200,131893.900,126000.000,-0.099,0.918,-0.329,-2.441,1.038,3.632,66.667,713.000,1.000,6.340,0.000
124922.600,121510.600,138657.600,129452.500,123399.600,131113.300,131888.200,125991.100,-0.098,0.919,-0.332,-2.075,1.587,3.510,66.667,714.000,1.000,4.308,0.000
124926.900,121516.300,138664.800,129456.900,123401.100,131116.200,131889.100,125992.100,-0.101,0.919,-0.328,-1.648,1.984,3.357,66.667,715.000,1.000,0.011,0.000
124939.900,121528.900,138681.700,129467.200,123411.900,131126.800,131893.800,125996.200,-0.102,0.919,-0.327,-1.190,2.563,3.082,66.667,716.000,1.000,8.155,0.000
124939.600,121522.300,138682.600,129468.900,123411.000,131124.100,131891.100,125994.100,-0.103,0.923,-0.329,-0.946,2.869,2.716,66.667,717.000,1.000,4.323,0.000
124928.900,121509.500,138671.800,129454.900,123401.800,131115.800,131886.000,125990.000,-0.105,0.927,-0.330,-0.671,3.113,2.411,66.667,718.000,1.000,0.007,0.000
124931.300,121510.800,138672.900,129455.600,123405.100,131116.300,131892.500,125996.300,-0.108,0.929,-0.331,-0.397,3.448,2.014,66.667,719.000,1.000,8.181,0.000
124936.100,121514.600,138675.400,129455.400,123410.500,131121.100,131898.400,126000.300,-0.109,0.929,-0.331,-0.214,3.448,1.587,66.667,720.000,1.000,4.295,0.000
124944.600,121519.200,138681.300,129460.500,123416.100,131123.800,131902.000,126003.800,-0.108,0.929,-0.332,-0.153,3.540,1.282,66.667,721.000,1.000,0.007,0.000
124943.700,121518.900,138681.300,129461.200,123413.300,131121.400,131898.500,126001.400,-0.108,0.927,-0.331,0.000,3.662,0.885,66.667,722.000,1.000,8.261,0.000
124935.400,121509.700,138673.300,129456.200,123403.600,131111.700,131895.100,125996.300,-0.110,0.930,-0.330,0.031,3.723,0.519,66.667,723.000,1.000,4.260,0.000
124927.100,121505.300,138663.500,129448.300,123395.900,131105.800,131892.500,125991.900,-0.109,0.929,-0.333,0.061,3.693,0.183,66.667,724.000,1.000,0.010,0.000
124928.900,121512.700,138665.400,129449.800,123399.600,131114.300,131893.500,125992.200,-0.109,0.933,-0.333,0.214,3.662,-0.214,66.667,725.000,1.000,8.681,0.000
124933.900,121513.700,138671.300,129456.200,123404.100,131116.600,131892.000,125992.200,-0.111,0.938,-0.336,0.183,3.601,-0.488,66.667,726.000,1.000,0.007,0.000
124928.300,121501.700,138666.400,129449.500,123397.200,131106.500,131886.800,125984.300,-0.111,0.938,-0.337,0.092,3.540,-0.793,66.667,727.000,1.000,1.849,0.000
124930.200,121501.000,138669.300,129450.100,123399.300,131107.400,131891.600,125987.300,-0.111,0.940,-0.339,0.031,3.448,-0.916,66.667,728.000,1.000,2.516,0.000
124935.200,121505.500,138676.700,129457.200,123406.000,131113.400,131900.300,125997.400,-0.113,0.940,-0.338,-0.183,3.265,-1.129,66.667,729.000,1.000,8.813,0.000
124932.700,121503.600,138674.600,129453.400,123402.600,131109.600,131893.100,125993.900,-0.115,0.941,-0.343,-0.214,3.082,-1.282,66.667,730.000,1.000,3.041,0.000
124940.800,121508.400,138681.500,129458.900,123405.700,131114.100,131890.300,125993.100,-0.118,0.944,-0.338,-0.549,2.838,-1.465,66.667,731.000,1.000,0.008,0.000
124943.000,121510.700,138682.200,129460.300,123407.400,131118.100,131896.700,125995.200,-0.119,0.944,-0.343,-0.763,2.686,-1.556,66.667,732.000,1.000,10.726,0.000
124927.800,121504.000,138669.400,129449.300,123399.300,131110.700,131891.500,125992.100,-0.124,0.939,-0.341,-0.824,2.502,-1.770,66.667,733.000,1.000,3.025,0.000
124924.400,121508.500,138669.900,129451.100,123401.400,131113.500,131893.700,125997.300,-0.127,0.941,-0.340,-0.977,2.258,-2.045,66.667,734.000,1.000,0.007,0.000
124923.300,121512.000,138670.100,129449.700,123400.800,131114.100,131892.600,125995.200,-0.129,0.944,-0.342,-1.160,1.831,-2.136,66.667,735.000,1.000,1.946,0.000
124926.600,121514.700,138672.100,129451.100,123406.300,131122.300,131898.200,126001.600,-0.132,0.944,-0.343,-1.587,1.434,-2.319,66.667,736.000,1.000,7.435,0.000
124932.500,121519.600,138674.200,129455.200,123410.800,131126.300,131902.800,126008.000,-0.129,0.942,-0.343,-1.709,1.129,-2.258,66.667,737.000,1.000,2.574,0.000
124933.100,121518.500,138670.800,129454.100,123407.300,131121.200,131897.000,126002.900,-0.128,0.940,-0.342,-1.892,0.793,-2.350,66.667,738.000,1.000,3.687,0.000
124925.600,121512.900,138663.000,129446.400,123399.600,131116.800,131893.300,125993.000,-0.127,0.938,-0.343,-1.984,0.519,-2.197,66.667,739.000,1.000,8.737,0.000
124932.300,121518.700,138670.400,129451.100,123405.700,131122.000,131897.800,125996.600,-0.127,0.940,-0.343,-2.167,0.366,-2.167,66.667,740.000,1.000,4.376,0.000
124935.600,121519.400,138677.200,129455.500,123411.300,131120.000,131900.600,126002.900,-0.123,0.943,-0.343,-2.472,0.153,-2.014,66.667,741.000,1.000,0.007,0.000
124935.500,121519.600,138681.000,129457.000,123411.900,131119.200,131896.400,125999.600,-0.122,0.945,-0.342,-2.594,0.061,-1.862,66.667,742.000,1.000,10.636,0.000
124933.400,121515.000,138680.000,129452.400,123408.500,131114.600,131892.500,125993.300,-0.121,0.944,-0.337,-2.747,0.000,-1.617,66.667,743.000,1.000,3.096,0.000
124921.100,121502.700,138668.100,129442.200,123400.000,131108.000,131890.400,125987.200,-0.119,0.942,-0.337,-3.143,0.183,-1.495,66.667,744.000,1.000,0.008,0.000
124915.700,121497.500,138662.900,129437.100,123396.700,131107.700,131886.800,125982.000,-0.117,0.941,-0.340,-3.418,0.336,-1.221,66.667,745.000,1.000,1.921,0.000
124924.900,121508.400,138670.800,129446.900,123405.900,131117.100,131890.300,125989.500,-0.117,0.940,-0.339,-3.632,0.549,-0.885,66.667,746.000,1.000,6.261,0.000
124933.400,121518.500,138679.100,129459.800,123415.700,131125.900,131900.100,126000.900,-0.116,0.937,-0.339,-3.632,0.824,-0.641,66.667,747.000,1.000,4.379,0.000
