EEG 1, EEG 2, EEG 3, EEG 4, EEG 5, EEG 6, EEG 7, EEG 8, ACC X, ACC Y, ACC Z, GYR X, GYR Y, GYR Z, BAT, CNT, VALID, DT, TRIG
216549.000,210679.300,241459.700,224277.600,212381.200,228570.300,226199.000,216335.500,-0.125,0.986,-0.304,0.000,0.000,0.000,66.667,1.000,1.000,0.000,0.000
205370.800,199797.800,228853.400,212642.500,201415.300,216762.100,214508.000,205161.100,-0.125,0.988,-0.315,0.000,0.000,0.000,66.667,2.000,1.000,18.076,0.000
198747.600,193370.900,221387.600,205744.200,194924.500,209776.200,207580.800,198544.700,-0.128,0.981,-0.320,0.000,0.000,0.000,66.667,3.000,1.000,2.453,0.000
192994.900,187778.600,214916.800,199743.400,189291.700,203712.800,201566.700,192807.900,-0.134,0.973,-0.323,-3.052,6.927,-5.249,66.667,4.000,1.000,8.607,0.000
187953.700,182880.200,209250.700,194488.200,184351.800,198400.900,196288.900,187775.300,-0.141,0.963,-0.327,8.850,9.827,-2.716,66.667,5.000,1.000,10.174,0.000
183465.800,178524.600,204212.000,189810.000,179952.200,193674.400,191581.900,183291.400,-0.149,0.955,-0.332,12.756,11.047,-1.984,66.667,6.000,1.000,2.496,0.000
179444.000,174618.500,199698.000,185621.000,176011.000,189435.500,187361.600,179272.300,-0.154,0.946,-0.334,14.587,11.536,-1.801,66.667,7.000,1.000,2.490,0.000
175806.700,171070.300,195619.300,181838.600,172446.500,185599.000,183560.000,175646.600,-0.158,0.938,-0.334,15.717,11.688,-1.709,66.667,8.000,1.000,2.528,0.000
172501.000,167859.400,191915.000,178395.700,169206.000,182113.300,180109.300,172350.300,-0.159,0.931,-0.336,16.693,11.566,-1.526,66.667,9.000,1.000,2.476,0.000
169484.600,164933.800,188536.600,175254.100,166248.800,178937.700,176954.800,169338.500,-0.159,0.924,-0.338,17.548,11.536,-1.312,66.667,10.000,1.000,2.460,0.000
166727.400,162248.800,185448.000,172384.900,163540.900,176022.900,174057.400,166576.700,-0.156,0.917,-0.339,18.494,11.536,-1.007,66.667,11.000,1.000,6.260,0.000
164178.800,159770.200,182598.500,169744.600,161044.000,173336.800,171390.000,164033.300,-0.158,0.916,-0.341,19.287,11.658,-0.488,66.667,12.000,1.000,4.290,0.000
161827.100,157485.800,179968.800,167303.900,158741.000,170856.300,168940.000,161690.800,-0.164,0.917,-0.343,19.958,11.536,0.031,66.667,13.000,1.000,0.014,0.000
159650.800,155377.000,177536.700,165037.000,156612.500,168570.300,166676.300,159524.700,-0.168,0.920,-0.343,20.721,11.505,0.488,66.667,14.000,1.000,10.694,0.000
157625.800,153412.100,175272.400,162938.100,154630.400,166439.400,164562.300,157504.600,-0.174,0.924,-0.345,21.423,11.353,0.702,66.667,15.000,1.000,3.041,0.000
155758.000,151597.500,173177.800,160996.300,152800.600,164469.500,162606.400,155637.300,-0.176,0.929,-0.350,22.064,11.047,1.068,66.667,16.000,1.000,0.015,0.000
154018.300,149903.400,171225.900,159184.900,151089.000,162631.100,160777.100,153891.500,-0.172,0.936,-0.356,22.583,10.681,1.465,66.667,17.000,1.000,1.932,0.000
152381.500,148306.000,169391.500,157481.800,149475.700,160900.000,159066.300,152253.600,-0.168,0.938,-0.362,22.980,10.406,1.831,66.667,18.000,1.000,8.753,0.000
150848.800,146814.500,167676.700,155890.700,147971.300,159281.400,157472.000,150727.100,-0.160,0.938,-0.363,23.193,10.193,2.167,66.667,19.000,1.000,3.067,0.000
149424.300,145432.900,166084.800,154417.000,146577.700,157780.400,155986.600,149307.700,-0.152,0.936,-0.369,23.468,10.010,2.350,66.667,20.000,1.000,0.015,0.000
148093.400,144148.700,164594.500,153037.000,145271.600,156373.200,154588.200,147970.900,-0.144,0.933,-0.369,23.651,10.071,2.716,66.667,21.000,1.000,4.418,0.000
146830.300,142907.900,163180.800,151707.900,144033.000,155043.900,153266.500,146707.200,-0.139,0.934,-0.369,24.048,10.101,2.838,66.667,22.000,1.000,8.744,0.000
145651.700,141764.500,161863.800,150485.900,142877.600,153798.800,152039.200,145532.800,-0.136,0.942,-0.373,24.414,10.345,3.021,66.667,23.000,1.000,3.065,0.000
144541.500,140686.500,160620.500,149330.500,141785.000,152622.300,150880.900,144423.900,-0.129,0.948,-0.378,24.567,10.498,2.991,66.667,24.000,1.000,0.013,0.000
143503.000,139674.800,159457.400,148255.400,140764.000,151519.600,149792.100,143381.500,-0.122,0.954,-0.377,24.567,10.559,2.960,66.667,25.000,1.000,1.874,0.000
142520.100,138713.100,158353.400,147227.000,139794.900,150475.300,148751.600,142385.200,-0.114,0.955,-0.375,24.384,10.803,2.930,66.667,26.000,1.000,8.717,0.000
141607.800,137824.200,157326.800,146274.500,138894.600,149504.800,147786.000,141463.100,-0.108,0.955,-0.374,24.078,11.108,2.747,66.667,27.000,1.000,2.516,0.000
140732.400,136960.800,156347.200,145373.000,138034.000,148574.600,146874.700,140593.500,-0.105,0.950,-0.375,23.712,11.597,2.502,66.667,28.000,1.000,17.464,0.000
139904.000,136156.300,155419.800,144508.200,137220.000,147698.700,146013.500,139768.900,-0.105,0.948,-0.377,23.315,11.841,2.441,66.667,29.000,1.000,0.013,0.000
139124.100,135394.600,154543.400,143699.200,136450.900,146871.400,145196.000,138992.800,-0.106,0.946,-0.381,23.041,12.085,2.167,66.667,30.000,1.000,0.006,0.000
138383.600,134675.000,153713.600,142930.700,135723.500,146093.300,144417.400,138245.600,-0.104,0.945,-0.384,22.766,12.482,1.862,66.667,31.000,1.000,2.289,0.000
137695.800,134008.600,152945.000,142218.700,135050.400,145374.500,143692.000,137553.800,-0.102,0.945,-0.380,22.461,12.634,1.556,66.667,32.000,1.000,6.481,0.000
137036.100,133367.700,152209.800,141537.400,134403.600,144671.000,143009.300,136899.800,-0.104,0.941,-0.382,22.125,12.909,1.068,66.667,33.000,1.000,2.462,0.000
136400.600,132745.600,151500.300,140879.900,133780.400,143998.300,142356.500,136271.300,-0.105,0.937,-0.381,21.759,13.184,0.702,66.667,34.000,1.000,2.515,0.000
135815.900,132166.900,150844.200,140270.300,133206.200,143380.500,141744.700,135686.900,-0.107,0.933,-0.380,21.271,13.428,0.305,66.667,35.000,1.000,2.509,0.000
135262.100,131632.200,150224.700,139694.500,132663.800,142797.100,141159.900,135127.800,-0.110,0.930,-0.385,20.935,13.641,-0.031,66.667,36.000,1.000,2.434,0.000
134735.300,131115.700,149635.200,139148.400,132148.300,142243.000,140607.400,134597.500,-0.114,0.926,-0.386,20.599,13.733,-0.336,66.667,37.000,1.000,8.791,0.000
134229.900,130624.100,149070.600,138623.900,131653.000,141705.000,140083.500,134092.700,-0.115,0.922,-0.393,20.294,13.763,-0.702,66.667,38.000,1.000,3.108,0.000
133752.000,130161.500,148539.500,138129.900,131188.200,141198.300,139592.500,133617.000,-0.116,0.922,-0.398,20.111,13.824,-1.007,66.667,39.000,1.000,0.024,0.000
133304.800,129728.700,148039.900,137665.700,130752.000,140722.500,139126.700,133170.200,-0.118,0.922,-0.397,19.928,13.855,-1.434,66.667,40.000,1.000,5.554,0.000
132884.400,129318.400,147566.500,137226.300,130338.500,140278.100,138681.500,132744.000,-0.116,0.922,-0.404,19.806,13.855,-1.740,66.667,41.000,1.000,9.390,0.000
132483.900,128929.300,147117.600,136810.700,129947.100,139853.900,138261.500,132342.700,-0.112,0.921,-0.405,19.592,13.855,-2.106,66.667,42.000,1.000,0.016,0.000
132095.100,128552.900,146686.800,136411.600,129572.500,139447.900,137867.600,131962.100,-0.115,0.917,-0.402,19.287,13.855,-2.197,66.667,43.000,1.000,4.984,0.000
131726.600,128196.600,146279.100,136033.300,129217.000,139063.800,137495.800,131604.700,-0.116,0.915,-0.399,18.860,13.886,-2.441,66.667,44.000,1.000,0.017,0.000
131376.000,127853.900,145889.000,135670.300,128873.800,138695.400,137133.200,131258.200,-0.123,0.914,-0.401,18.463,13.977,-2.655,66.667,45.000,1.000,13.168,0.000
131050.400,127538.500,145526.900,135332.600,128552.700,138351.300,136788.100,130932.100,-0.125,0.912,-0.400,18.188,13.794,-2.930,66.667,46.000,1.000,2.414,0.000
130741.600,127241.400,145181.700,135012.900,128247.500,138026.600,136461.000,130624.900,-0.128,0.910,-0.396,17.822,13.611,-3.143,66.667,47.000,1.000,3.145,0.000
130449.500,126962.000,144853.900,134710.900,127958.700,137721.800,136155.900,130336.500,-0.129,0.910,-0.393,17.517,13.489,-3.204,66.667,48.000,1.000,0.010,0.000
130162.400,126690.700,144534.300,134415.300,127675.700,137427.800,135862.700,130050.300,-0.127,0.909,-0.394,16.968,13.153,-3.418,66.667,49.000,1.000,1.922,0.000
129886.500,126412.600,144225.000,134127.700,127404.200,137138.800,135576.400,129773.600,-0.125,0.906,-0.391,16.510,13.092,-3.387,66.667,50.000,1.000,8.737,0.000
129636.600,126173.300,143946.000,133871.100,127161.200,136877.400,135311.400,129522.500,-0.126,0.907,-0.390,15.808,12.787,-3.479,66.667,51.000,1.000,3.029,0.000
129401.100,125942.500,143681.000,133622.400,126929.000,136625.500,135056.200,129279.500,-0.129,0.906,-0.385,15.320,12.451,-3.540,66.667,52.000,1.000,0.006,0.000
129176.700,125722.400,143429.500,133390.500,126709.700,136387.500,134827.300,129057.500,-0.132,0.903,-0.381,14.709,12.115,-3.357,66.667,53.000,1.000,3.134,0.000
128957.100,125508.300,143183.800,133163.000,126495.200,136158.000,134607.900,128843.100,-0.133,0.897,-0.378,13.977,11.688,-3.296,66.667,54.000,1.000,9.464,0.000
128743.600,125303.500,142946.400,132943.300,126289.100,135942.500,134388.600,128632.400,-0.135,0.894,-0.377,13.214,11.292,-3.235,66.667,55.000,1.000,0.022,0.000
128547.700,125112.900,142726.700,132737.700,126098.400,135736.800,134180.500,128437.500,-0.136,0.889,-0.374,12.512,11.017,-3.113,66.667,56.000,1.000,1.786,0.000
128370.400,124939.700,142529.100,132554.600,125926.900,135541.700,133994.500,128261.700,-0.138,0.890,-0.369,11.963,10.590,-3.052,66.667,57.000,1.000,6.330,0.000
128202.800,124779.400,142343.900,132380.700,125766.700,135370.300,133827.500,128097.900,-0.140,0.891,-0.367,11.261,10.162,-3.082,66.667,58.000,1.000,10.509,0.000
128032.400,124612.400,142153.400,132202.400,125600.100,135190.800,133657.500,127931.600,-0.140,0.894,-0.362,10.651,9.705,-3.113,66.667,59.000,1.000,0.012,0.000
127873.300,124454.300,141971.800,132035.300,125440.300,135013.600,133480.300,127768.200,-0.139,0.895,-0.354,9.766,9.094,-3.021,66.667,60.000,1.000,1.873,0.000
127728.300,124310.800,141804.700,131882.100,125292.900,134851.800,133316.900,127614.500,-0.137,0.895,-0.347,8.881,8.667,-2.808,66.667,61.000,1.000,2.604,0.000
127594.900,124176.300,141650.900,131743.700,125164.200,134717.900,133184.700,127484.300,-0.139,0.894,-0.343,7.965,8.301,-2.686,66.667,62.000,1.000,6.177,0.000
127455.500,124041.100,141494.000,131599.100,125026.300,134571.300,133037.900,127342.800,-0.144,0.892,-0.342,6.958,7.935,-2.594,66.667,63.000,1.000,16.869,0.000
127317.400,123902.100,141337.300,131454.800,124884.700,134415.000,132887.100,127205.200,-0.150,0.892,-0.343,6.012,7.446,-2.563,66.667,64.000,1.000,0.009,0.000
127203.800,123790.500,141206.600,131332.900,124768.700,134292.700,132763.000,127083.900,-0.157,0.891,-0.348,5.066,6.866,-2.655,66.667,65.000,1.000,2.492,0.000
127091.000,123680.200,141077.600,131211.500,124654.300,134174.300,132638.300,126962.100,-0.160,0.891,-0.351,4.364,6.287,-2.686,66.667,66.000,1.000,0.005,0.000
126985.900,123578.900,140959.600,131102.500,124553.500,134066.600,132531.200,126860.300,-0.160,0.896,-0.350,3.784,5.737,-2.838,66.667,67.000,1.000,1.885,0.000
126885.000,123483.400,140848.000,130998.300,124456.100,133959.700,132421.800,126759.900,-0.158,0.902,-0.351,3.296,5.035,-2.869,66.667,68.000,1.000,5.061,0.000
126782.900,123386.600,140735.400,130893.700,124358.200,133850.400,132318.300,126659.000,-0.152,0.910,-0.347,2.472,4.425,-2.869,66.667,69.000,1.000,2.436,0.000
126692.100,123300.800,140632.100,130796.400,124269.400,133758.300,132222.900,126565.700,-0.146,0.917,-0.344,1.709,3.876,-2.960,66.667,70.000,1.000,2.496,0.000
126610.900,123223.700,140540.900,130711.500,124192.600,133674.000,132136.600,126484.900,-0.146,0.921,-0.339,0.854,3.510,-2.838,66.667,71.000,1.000,3.722,0.000
126527.100,123143.900,140450.700,130627.500,124116.800,133589.600,132052.200,126406.800,-0.146,0.919,-0.337,-0.183,3.235,-2.716,66.667,72.000,1.000,11.856,0.000
126443.700,123064.600,140357.400,130541.000,124035.500,133509.300,131972.800,126329.600,-0.146,0.916,-0.339,-1.038,3.052,-2.502,66.667,73.000,1.000,0.012,0.000
126361.000,122976.800,140258.400,130449.600,123945.300,133408.500,131886.200,126243.000,-0.145,0.913,-0.334,-1.770,2.838,-2.533,66.667,74.000,1.000,2.498,0.000
126311.200,122928.600,140198.500,130392.200,123893.800,133352.100,131830.700,126190.800,-0.145,0.907,-0.334,-2.472,2.563,-2.411,66.667,75.000,1.000,0.005,0.000
126270.000,122888.700,140148.800,130346.200,123850.800,133302.600,131777.600,126145.000,-0.143,0.902,-0.333,-3.082,2.411,-2.319,66.667,76.000,1.000,1.922,0.000
126209.500,122830.700,140080.500,130282.700,123791.400,133237.800,131710.200,126080.200,-0.141,0.899,-0.335,-3.540,2.289,-2.075,66.667,77.000,1.000,8.697,0.000
126139.700,122763.300,140003.200,130212.800,123725.800,133170.400,131647.600,126017.700,-0.139,0.899,-0.335,-3.937,1.953,-1.923,66.667,78.000,1.000,2.508,0.000
126067.800,122690.300,139923.300,130138.300,123655.000,133093.900,131575.000,125946.300,-0.135,0.897,-0.331,-4.272,1.831,-1.587,66.667,79.000,1.000,6.279,0.000
126013.900,122637.900,139863.600,130082.100,123602.600,133034.800,131515.300,125888.900,-0.135,0.899,-0.329,-4.547,1.801,-1.404,66.667,80.000,1.000,8.080,0.000
125968.500,122594.800,139812.200,130034.100,123556.500,132986.300,131461.400,125837.100,-0.130,0.898,-0.330,-4.883,1.801,-1.129,66.667,81.000,1.000,0.012,0.000
125922.500,122551.400,139761.700,129988.400,123513.300,132938.900,131413.200,125791.500,-0.127,0.896,-0.326,-5.249,1.862,-0.854,66.667,82.000,1.000,1.877,0.000
125875.600,122507.200,139709.900,129943.600,123469.400,132892.800,131372.300,125752.900,-0.125,0.898,-0.323,-5.463,1.923,-0.549,66.667,83.000,1.000,5.041,0.000
125834.800,122471.000,139665.300,129903.200,123431.200,132857.600,131342.800,125720.900,-0.119,0.901,-0.321,-5.890,2.014,-0.214,66.667,84.000,1.000,2.448,0.000
125791.200,122430.200,139616.700,129856.300,123387.000,132816.000,131293.200,125669.500,-0.112,0.905,-0.320,-6.287,2.075,0.183,66.667,85.000,1.000,2.493,0.000
125753.800,122392.200,139573.800,129816.100,123349.700,132773.500,131247.300,125628.800,-0.109,0.911,-0.320,-6.805,2.258,0.458,66.667,86.000,1.000,8.851,0.000
125720.000,122358.300,139533.500,129779.200,123315.800,132733.100,131207.800,125597.000,-0.104,0.917,-0.319,-7.233,2.502,0.885,66.667,87.000,1.000,3.070,0.000
125687.700,122328.200,139495.500,129743.300,123283.600,132698.300,131176.100,125566.400,-0.100,0.922,-0.315,-7.813,2.808,1.129,66.667,88.000,1.000,0.008,0.000
125653.300,122295.400,139458.400,129706.500,123251.400,132663.300,131148.300,125534.000,-0.096,0.922,-0.312,-8.514,3.113,1.495,66.667,89.000,1.000,1.863,0.000
125629.700,122272.400,139431.300,129683.200,123231.800,132641.700,131130.200,125516.300,-0.097,0.920,-0.312,-9.064,3.479,1.617,66.667,90.000,1.000,8.705,0.000
125599.300,122243.600,139397.800,129652.000,123202.800,132612.800,131094.500,125485.500,-0.100,0.916,-0.312,-9.552,3.754,1.678,66.667,91.000,1.000,3.724,0.000
125572.200,122216.100,139368.100,129624.600,123175.800,132583.300,131063.100,125454.000,-0.104,0.913,-0.314,-9.735,4.089,1.587,66.667,92.000,1.000,3.836,0.000
125551.100,122195.300,139344.000,129602.700,123156.100,132562.300,131042.700,125432.800,-0.109,0.915,-0.316,-9.979,4.333,1.404,66.667,93.000,1.000,9.261,0.000
125527.500,122170.400,139315.400,129579.700,123132.000,132529.400,131020.700,125412.200,-0.111,0.919,-0.318,-10.132,4.456,1.038,66.667,94.000,1.000,0.009,0.000
125513.700,122156.000,139296.600,129564.700,123118.700,132514.700,131009.600,125397.400,-0.114,0.916,-0.319,-10.254,4.456,0.763,66.667,95.000,1.000,11.265,0.000
125496.200,122137.600,139275.000,129544.800,123102.500,132500.400,130994.300,125381.300,-0.115,0.916,-0.319,-10.345,4.517,0.488,66.667,96.000,1.000,0.013,0.000
125468.600,122105.900,139241.600,129512.000,123072.000,132466.200,130954.100,125344.900,-0.117,0.914,-0.314,-10.498,4.364,0.214,66.667,97.000,1.000,2.538,0.000
125446.000,122080.400,139215.900,129487.800,123050.100,132439.500,130935.100,125324.100,-0.117,0.910,-0.310,-10.559,4.211,0.061,66.667,98.000,1.000,0.033,0.000
125427.100,122060.600,139193.600,129467.400,123032.300,132421.100,130924.200,125311.800,-0.115,0.906,-0.307,-10.559,4.089,-0.214,66.667,99.000,1.000,10.603,0.000
125410.500,122046.300,139174.000,129450.500,123017.500,132408.600,130907.700,125297.900,-0.112,0.902,-0.304,-10.620,3.937,-0.427,66.667,100.000,1.000,3.066,0.000
125397.900,122034.900,139157.600,129436.200,123004.700,132396.400,130887.400,125284.900,-0.108,0.899,-0.298,-10.559,3.815,-0.427,66.667,101.000,1.000,0.010,0.000
125386.300,122023.500,139142.100,129423.400,122991.200,132384.700,130870.800,125274.500,-0.106,0.896,-0.297,-10.590,3.784,-0.427,66.667,102.000,1.000,8.751,0.000
125377.700,122015.400,139131.300,129413.300,122981.200,132376.900,130863.100,125269.100,-0.101,0.899,-0.296,-10.529,3.815,-0.336,66.667,103.000,1.000,0.016,0.000
125363.600,122001.500,139117.000,129399.300,122966.900,132362.800,130852.800,125261.400,-0.096,0.900,-0.289,-10.468,3.815,-0.153,66.667,104.000,1.000,26.345,0.000
125349.300,121989.600,139098.800,129381.100,122948.900,132348.300,130831.100,125243.400,-0.090,0.904,-0.285,-10.559,3.998,-0.061,66.667,105.000,1.000,0.031,0.000
125329.900,121968.000,139072.800,129358.000,122927.400,132323.000,130807.200,125222.800,-0.086,0.912,-0.282,-10.681,4.150,0.153,66.667,106.000,1.000,2.928,0.000
125315.100,121950.700,139054.000,129342.400,122913.900,132307.600,130789.600,125207.000,-0.085,0.920,-0.282,-10.803,4.547,0.397,66.667,107.000,1.000,0.012,0.000
125309.200,121949.600,139048.700,129339.500,122913.600,132308.300,130794.400,125208.500,-0.089,0.930,-0.286,-10.986,5.005,0.549,66.667,108.000,1.000,0.005,0.000
125288.600,121933.300,139029.600,129321.500,122897.200,132290.700,130785.000,125193.300,-0.094,0.943,-0.286,-11.139,5.188,0.610,66.667,109.000,1.000,3.701,0.000
125277.100,121927.300,139016.800,129309.500,122884.900,132279.200,130770.100,125176.900,-0.099,0.958,-0.288,-11.505,5.280,0.427,66.667,110.000,1.000,0.009,0.000
125273.100,121916.200,139012.100,129304.900,122880.900,132275.800,130761.600,125169.100,-0.102,0.971,-0.290,-11.871,5.402,0.336,66.667,111.000,1.000,0.004,0.000
125264.900,121910.400,139003.500,129297.800,122875.000,132266.300,130752.700,125160.000,-0.105,0.982,-0.295,-12.451,5.493,0.092,66.667,112.000,1.000,5.101,0.000
125262.400,121911.000,138999.300,129293.800,122872.400,132270.300,130756.700,125158.200,-0.104,0.991,-0.298,-12.848,5.524,-0.214,66.667,113.000,1.000,2.506,0.000
125256.600,121902.700,138989.700,129283.900,122864.100,132255.400,130753.100,125152.900,-0.101,0.994,-0.300,-13.458,5.554,-0.397,66.667,114.000,1.000,2.430,0.000
125244.300,121892.600,138975.600,129270.800,122854.000,132243.400,130737.200,125138.300,-0.098,0.994,-0.302,-14.038,5.646,-0.397,66.667,115.000,1.000,2.582,0.000
125250.000,121895.100,138981.700,129285.400,122861.600,132244.500,130735.000,125139.600,-0.095,0.988,-0.305,-14.496,5.707,-0.580,66.667,116.000,1.000,2.492,0.000
125253.600,121908.400,138979.900,129272.600,122858.900,132244.500,130724.100,125129.100,-0.094,0.982,-0.309,-14.771,5.829,-0.671,66.667,117.000,1.000,8.728,0.000
125235.400,121879.200,138956.300,129250.700,122835.200,132220.200,130703.300,125105.000,-0.094,0.976,-0.309,-14.832,6.042,-0.854,66.667,118.000,1.000,3.086,0.000
125222.900,121864.800,138945.100,129236.300,122824.700,132211.400,130698.200,125097.400,-0.094,0.969,-0.305,-14.893,6.348,-1.068,66.667,119.000,1.000,0.010,0.000
125211.500,121861.700,138938.300,129230.100,122819.200,132206.000,130690.900,125091.000,-0.093,0.962,-0.300,-14.862,6.470,-1.343,66.667,120.000,1.000,3.076,0.000
125216.600,121867.000,138941.800,129236.000,122825.100,132214.100,130693.700,125095.400,-0.089,0.950,-0.294,-14.801,6.775,-1.587,66.667,121.000,1.000,14.399,0.000
125218.600,121870.300,138941.400,129237.300,122824.800,132210.000,130687.400,125094.400,-0.089,0.940,-0.290,-14.801,7.019,-1.740,66.667,122.000,1.000,0.023,0.000
125215.600,121867.400,138938.300,129240.100,122823.800,132206.900,130689.900,125095.500,-0.087,0.928,-0.287,-14.679,7.294,-1.678,66.667,123.000,1.000,1.791,0.000
125203.900,121853.700,138924.900,129227.600,122811.600,132193.500,130683.600,125086.400,-0.091,0.919,-0.284,-14.526,7.507,-1.526,66.667,124.000,1.000,2.530,0.000
125202.400,121849.800,138918.500,129216.600,122803.500,132189.200,130671.900,125073.900,-0.098,0.913,-0.284,-14.038,7.874,-1.465,66.667,125.000,1.000,8.743,0.000
125205.900,121853.900,138919.900,129219.200,122805.500,132190.100,130669.000,125072.200,-0.105,0.912,-0.287,-13.428,7.965,-1.373,66.667,126.000,1.000,2.572,0.000
125203.300,121853.000,138916.400,129217.500,122804.900,132187.900,130667.200,125070.400,-0.116,0.919,-0.289,-12.787,8.026,-1.617,66.667,127.000,1.000,3.049,0.000
125201.200,121855.600,138916.200,129217.000,122807.600,132194.800,130675.000,125075.600,-0.125,0.928,-0.290,-12.207,7.660,-1.831,66.667,128.000,1.000,0.010,0.000
125204.100,121864.500,138919.800,129220.600,122812.800,132204.900,130685.200,125083.200,-0.137,0.932,-0.289,-11.688,7.446,-2.075,66.667,129.000,1.000,15.616,0.000
125195.000,121849.500,138907.900,129211.800,122801.800,132194.900,130673.600,125075.500,-0.144,0.939,-0.289,-11.353,6.897,-2.350,66.667,130.000,1.000,3.105,0.000
125189.400,121841.400,138897.900,129200.000,122790.700,132188.100,130657.400,125064.500,-0.145,0.938,-0.290,-11.078,6.348,-2.533,66.667,131.000,1.000,0.010,0.000
125196.900,121844.200,138903.000,129209.700,122796.400,132193.900,130661.700,125073.300,-0.144,0.940,-0.292,-10.742,5.859,-2.625,66.667,132.000,1.000,1.943,0.000
125199.500,121838.500,138903.800,129213.500,122796.700,132186.400,130666.400,125077.500,-0.139,0.939,-0.294,-10.529,5.249,-2.502,66.667,133.000,1.000,2.518,0.000
125181.900,121820.500,138885.700,129193.200,122779.200,132169.500,130652.800,125065.200,-0.129,0.939,-0.290,-10.284,4.700,-2.319,66.667,134.000,1.000,2.486,0.000
125175.900,121815.400,138877.400,129185.900,122771.400,132164.200,130643.200,125059.900,-0.124,0.941,-0.293,-10.071,4.333,-2.045,66.667,135.000,1.000,2.518,0.000
125169.100,121807.300,138866.700,129181.100,122761.000,132151.900,130625.500,125043.600,-0.119,0.940,-0.296,-9.766,3.845,-1.648,66.667,136.000,1.000,8.735,0.000
125169.000,121807.400,138864.300,129175.800,122758.600,132147.800,130619.000,125038.200,-0.112,0.937,-0.296,-9.460,3.540,-1.343,66.667,137.000,1.000,4.364,0.000
125175.300,121815.600,138869.700,129179.900,122765.900,132156.400,130632.600,125048.000,-0.105,0.930,-0.298,-9.308,3.357,-1.068,66.667,138.000,1.000,0.010,0.000
125171.700,121811.300,138867.300,129178.000,122766.100,132153.400,130639.500,125053.400,-0.100,0.921,-0.302,-8.911,3.326,-0.824,66.667,139.000,1.000,6.925,0.000
125164.900,121804.100,138862.900,129173.100,122762.400,132143.400,130632.800,125046.000,-0.100,0.915,-0.307,-8.514,3.448,-0.641,66.667,140.000,1.000,2.384,0.000
125153.900,121795.900,138855.700,129168.700,122754.400,132136.800,130623.200,125037.900,-0.102,0.913,-0.313,-7.874,3.601,-0.427,66.667,141.000,1.000,8.772,0.000
125157.500,121801.600,138857.600,129165.600,122754.800,132139.600,130619.900,125033.900,-0.105,0.918,-0.321,-7.080,3.723,-0.305,66.667,142.000,1.000,3.112,0.000
125159.000,121803.200,138860.000,129166.500,122758.300,132142.800,130627.700,125038.900,-0.111,0.926,-0.324,-6.378,3.693,-0.336,66.667,143.000,1.000,0.008,0.000
125148.400,121793.100,138849.800,129158.200,122748.300,132130.800,130619.800,125033.100,-0.110,0.934,-0.325,-5.829,3.784,-0.397,66.667,144.000,1.000,1.959,0.000
125144.800,121793.800,138844.200,129156.300,122744.700,132132.900,130614.800,125029.600,-0.105,0.941,-0.327,-5.280,3.906,-0.305,66.667,145.000,1.000,11.894,0.000
125149.600,121808.300,138847.400,129157.700,122749.000,132144.800,130613.000,125028.000,-0.100,0.947,-0.328,-4.913,4.028,-0.092,66.667,146.000,1.000,0.015,0.000
125149.100,121791.900,138844.600,129157.500,122748.800,132142.100,130611.400,125027.200,-0.096,0.949,-0.330,-4.608,4.425,0.183,66.667,147.000,1.000,1.791,0.000
125148.000,121794.800,138845.600,129157.400,122750.200,132140.100,130616.400,125033.200,-0.096,0.950,-0.331,-4.456,4.486,0.458,66.667,148.000,1.000,2.511,0.000
125141.500,121790.200,138842.300,129155.000,122747.800,132134.500,130617.100,125033.100,-0.094,0.948,-0.332,-4.333,4.913,0.671,66.667,149.000,1.000,11.226,0.000
125143.500,121795.000,138845.800,129157.000,122753.000,132139.400,130620.300,125037.100,-0.098,0.946,-0.328,-4.181,5.402,0.885,66.667,150.000,1.000,6.827,0.000
125140.800,121795.200,138843.400,129154.900,122749.300,132137.300,130610.900,125031.900,-0.105,0.943,-0.330,-4.089,5.798,0.916,66.667,151.000,1.000,0.009,0.000
125138.100,121793.100,138840.400,129151.600,122745.100,132134.200,130605.600,125029.200,-0.108,0.941,-0.323,-4.028,6.134,0.824,66.667,152.000,1.000,8.238,0.000
125129.500,121778.600,138828.900,129140.900,122735.500,132116.300,130603.300,125025.900,-0.109,0.939,-0.323,-3.937,6.317,0.641,66.667,153.000,1.000,2.424,0.000
125131.200,121778.900,138829.300,129142.900,122737.100,132119.300,130609.100,125031.400,-0.111,0.940,-0.323,-3.845,6.592,0.427,66.667,154.000,1.000,5.042,0.000
125127.200,121773.500,138822.500,129133.300,122730.200,132111.600,130597.100,125018.300,-0.112,0.939,-0.321,-3.876,6.653,0.458,66.667,155.000,1.000,2.486,0.000
125132.500,121775.800,138826.600,129138.900,122734.700,132115.700,130597.600,125019.900,-0.111,0.937,-0.323,-3.876,6.805,0.305,66.667,156.000,1.000,3.058,0.000
125140.400,121785.800,138834.200,129149.100,122743.600,132127.500,130601.800,125026.000,-0.112,0.938,-0.327,-3.967,6.805,0.183,66.667,157.000,1.000,0.016,0.000
125138.800,121786.900,138831.400,129143.300,122744.400,132126.800,130608.000,125032.200,-0.110,0.939,-0.327,-3.967,6.989,0.000,66.667,158.000,1.000,5.646,0.000
125125.600,121773.000,138819.900,129133.700,122733.300,132113.300,130599.800,125018.400,-0.105,0.940,-0.330,-3.937,7.019,-0.092,66.667,159.000,1.000,2.496,0.000
125129.400,121775.300,138824.000,129136.400,122735.300,132115.600,130598.100,125016.200,-0.104,0.935,-0.330,-4.059,7.019,-0.214,66.667,160.000,1.000,2.511,0.000
125144.000,121788.800,138836.300,129149.000,122747.800,132130.300,130608.400,125024.700,-0.104,0.938,-0.329,-4.028,7.141,-0.519,66.667,161.000,1.000,9.409,0.000
125157.600,121803.800,138845.800,129152.900,122755.400,132142.100,130613.400,125026.400,-0.105,0.942,-0.322,-4.150,7.324,-0.732,66.667,162.000,1.000,0.015,0.000
125157.600,121797.600,138844.000,129146.100,122753.900,132137.200,130615.000,125024.600,-0.109,0.945,-0.319,-4.486,7.416,-1.038,66.667,163.000,1.000,13.545,0.000
125152.200,121782.900,138836.800,129136.400,122747.100,132121.900,130608.900,125016.800,-0.113,0.946,-0.312,-4.883,7.416,-1.404,66.667,164.000,1.000,0.008,0.000
125156.900,121793.700,138841.100,129140.800,122752.800,132134.400,130613.700,125018.500,-0.119,0.948,-0.309,-5.341,7.263,-1.678,66.667,165.000,1.000,36.436,0.000
125164.700,121801.500,138847.500,129150.000,122758.300,132143.100,130618.100,125023.100,-0.122,0.948,-0.313,-5.798,7.111,-2.075,66.667,166.000,1.000,0.029,0.000
125165.200,121795.800,138845.600,129149.500,122754.000,132131.800,130614.800,125023.700,-0.123,0.943,-0.314,-6.226,6.866,-2.502,66.667,167.000,1.000,0.005,0.000
125159.000,121787.000,138836.200,129144.500,122741.600,132118.300,130598.100,125013.500,-0.127,0.941,-0.320,-6.531,6.561,-2.808,66.667,168.000,1.000,0.004,0.000
125150.200,121780.900,138825.300,129131.300,122732.500,132114.500,130595.300,125007.200,-0.132,0.938,-0.324,-6.805,6.134,-3.052,66.667,169.000,1.000,0.005,0.000
125143.400,121774.800,138819.200,129127.200,122727.300,132112.200,130586.800,124999.700,-0.137,0.937,-0.328,-6.775,6.012,-3.540,66.667,170.000,1.000,2.889,0.000
125146.400,121776.600,138820.900,129130.900,122727.700,132109.800,130578.900,124999.700,-0.139,0.934,-0.330,-6.805,5.646,-3.906,66.667,171.000,1.000,0.008,0.000
125158.800,121792.100,138833.700,129142.700,122739.200,132114.700,130592.200,125013.100,-0.140,0.932,-0.330,-6.622,5.280,-4.242,66.667,172.000,1.000,0.005,0.000
125160.800,121792.800,138836.300,129144.600,122741.500,132116.300,130600.400,125018.000,-0.140,0.927,-0.326,-6.531,4.730,-4.456,66.667,173.000,1.000,3.276,0.000
125154.900,121782.000,138828.700,129136.900,122731.500,132104.800,130588.200,125006.200,-0.137,0.920,-0.325,-6.378,4.395,-4.608,66.667,174.000,1.000,0.021,0.000
125152.400,121772.200,138825.400,129140.900,122727.900,132098.000,130578.400,125002.000,-0.137,0.914,-0.326,-6.134,3.998,-4.608,66.667,175.000,1.000,5.454,0.000
125156.800,121783.800,138828.200,129138.900,122732.200,132104.100,130580.800,125005.600,-0.134,0.905,-0.322,-5.920,3.693,-4.639,66.667,176.000,1.000,2.586,0.000
125158.900,121789.700,138829.600,129141.900,122734.900,132108.700,130582.000,125005.400,-0.133,0.901,-0.314,-5.554,3.326,-4.456,66.667,177.000,1.000,2.461,0.000
125148.000,121781.300,138823.500,129131.200,122735.000,132115.200,130591.000,125009.000,-0.129,0.903,-0.309,-5.249,3.143,-4.395,66.667,178.000,1.000,2.525,0.000
125143.300,121779.500,138821.100,129123.900,122736.900,132118.500,130601.200,125013.100,-0.130,0.912,-0.306,-5.127,2.930,-4.364,66.667,179.000,1.000,2.428,0.000
125146.000,121784.100,138823.500,129127.800,122740.400,132115.900,130603.100,125018.900,-0.133,0.919,-0.302,-4.974,2.838,-4.211,66.667,180.000,1.000,2.541,0.000
125150.100,121791.600,138828.400,129131.500,122744.000,132124.100,130597.600,125016.400,-0.135,0.925,-0.300,-5.066,2.777,-3.815,66.667,181.000,1.000,5.525,0.000
125154.900,121801.500,138836.400,129140.300,122751.900,132136.100,130603.200,125019.800,-0.136,0.929,-0.298,-5.310,2.594,-3.601,66.667,182.000,1.000,0.007,0.000
125153.800,121800.500,138840.400,129154.500,122758.500,132138.700,130617.200,125033.400,-0.139,0.930,-0.301,-5.646,2.411,-3.448,66.667,183.000,1.000,13.856,0.000
125138.200,121792.200,138822.400,129123.400,122743.400,132124.300,130605.600,125016.100,-0.140,0.936,-0.300,-5.676,2.319,-3.387,66.667,184.000,1.000,0.013,0.000
125132.500,121781.000,138813.600,129114.800,122738.700,132124.200,130602.100,125008.700,-0.140,0.947,-0.296,-5.829,2.136,-3.265,66.667,185.000,1.000,4.980,0.000
125138.500,121783.300,138817.700,129124.600,122744.400,132132.000,130609.600,125018.100,-0.141,0.956,-0.295,-6.134,2.014,-3.052,66.667,186.000,1.000,0.019,0.000
125141.200,121793.000,138821.500,129130.400,122749.000,132134.900,130612.800,125027.600,-0.140,0.963,-0.294,-6.378,1.831,-3.021,66.667,187.000,1.000,1.879,0.000
125133.000,121785.900,138813.200,129121.800,122742.600,132126.100,130608.300,125018.300,-0.141,0.970,-0.293,-6.775,1.831,-2.899,66.667,188.000,1.000,4.947,0.000
125127.800,121776.600,138805.500,129115.400,122732.800,132117.700,130594.000,125002.000,-0.145,0.971,-0.291,-7.263,1.526,-2.838,66.667,189.000,1.000,2.503,0.000
125131.500,121780.700,138807.000,129117.400,122734.900,132122.800,130598.900,125007.100,-0.146,0.968,-0.292,-7.660,1.373,-2.808,66.667,190.000,1.000,18.216,0.000
125129.000,121772.600,138804.600,129119.100,122733.000,132118.400,130596.000,125009.100,-0.148,0.963,-0.292,-8.087,1.221,-2.777,66.667,191.000,1.000,0.017,0.000
125130.300,121774.900,138806.200,129116.900,122730.600,132114.100,130589.600,125002.200,-0.147,0.959,-0.291,-8.301,0.885,-2.777,66.667,192.000,1.000,1.750,0.000
125123.400,121769.200,138800.900,129103.100,122725.300,132109.400,130592.700,125002.000,-0.143,0.953,-0.296,-8.423,0.732,-2.777,66.667,193.000,1.000,2.608,0.000
125130.600,121778.200,138805.700,129109.800,122726.900,132108.100,130593.000,125005.000,-0.142,0.950,-0.299,-8.331,0.610,-2.838,66.667,194.000,1.000,2.431,0.000
125137.500,121775.500,138810.100,129117.900,122733.600,132120.200,130595.800,125006.900,-0.138,0.948,-0.300,-7.996,0.580,-2.655,66.667,195.000,1.000,2.567,0.000
125142.400,121777.000,138810.400,129121.800,122734.100,132115.000,130596.200,125009.500,-0.136,0.946,-0.299,-7.813,0.458,-2.533,66.667,196.000,1.000,4.956,0.000
125147.500,121776.300,138812.000,129127.500,122731.100,132103.800,130585.000,125007.100,-0.131,0.941,-0.299,-7.446,0.458,-2.350,66.667,197.000,1.000,2.433,0.000
125144.600,121774.000,138810.400,129130.700,122729.300,132101.800,130585.000,125007.200,-0.126,0.934,-0.308,-7.111,0.519,-2.014,66.667,198.000,1.000,3.150,0.000
125143.300,121782.900,138811.400,129122.700,122733.300,132111.300,130595.400,125014.600,-0.123,0.924,-0.309,-6.561,0.671,-1.556,66.667,199.000,1.000,0.008,0.000
125136.200,121777.900,138805.900,129112.500,122728.900,132104.500,130589.600,125010.300,-0.126,0.908,-0.314,-5.249,1.038,-1.129,66.667,200.000,1.000,8.106,0.000
125136.800,121772.100,138807.100,129113.800,122730.900,132101.600,130587.000,125007.900,-0.131,0.902,-0.316,-4.242,1.160,-0.824,66.667,201.000,1.000,3.109,0.000
125141.100,121778.500,138813.600,129126.600,122737.700,132106.500,130592.600,125015.500,-0.137,0.899,-0.321,-2.960,1.465,-0.458,66.667,202.000,1.000,0.010,0.000
125146.400,121782.900,138820.000,129143.000,122743.900,132110.300,130600.200,125026.100,-0.144,0.898,-0.322,-1.862,1.648,-0.305,66.667,203.000,1.000,1.923,0.000
125137.400,121768.900,138806.100,129117.400,122733.000,132104.500,130594.900,125014.100,-0.154,0.902,-0.328,-0.763,1.556,-0.183,66.667,204.000,1.000,8.688,0.000
125145.500,121778.500,138808.200,129115.800,122735.600,132109.600,130596.600,125011.700,-0.162,0.907,-0.328,0.244,1.587,-0.031,66.667,205.000,1.000,2.488,0.000
125160.900,121793.700,138822.300,129131.200,122749.200,132122.100,130601.800,125021.300,-0.169,0.915,-0.330,1.129,1.373,0.366,66.667,206.000,1.000,3.825,0.000
125150.400,121783.000,138816.100,129128.400,122746.700,132118.800,130598.400,125021.500,-0.172,0.919,-0.332,2.045,1.129,0.580,66.667,207.000,1.000,3.747,0.000
125146.200,121780.000,138812.000,129124.900,122742.200,132114.700,130600.000,125020.300,-0.176,0.922,-0.331,2.777,0.824,0.854,66.667,208.000,1.000,11.857,0.000
125142.200,121780.300,138810.200,129119.800,122739.200,132113.800,130602.900,125018.800,-0.178,0.924,-0.336,3.174,0.397,1.129,66.667,209.000,1.000,0.014,0.000
125142.400,121785.200,138812.200,129124.400,122738.600,132118.000,130596.600,125014.500,-0.181,0.925,-0.338,3.784,0.061,1.373,66.667,210.000,1.000,1.863,0.000
125159.600,121801.600,138827.900,129140.700,122752.800,132133.800,130604.100,125028.200,-0.185,0.926,-0.334,4.242,-0.336,1.587,66.667,211.000,1.000,3.703,0.000
125143.100,121785.200,138810.900,129115.500,122737.100,132117.100,130588.600,125011.900,-0.187,0.931,-0.335,4.669,-0.580,1.770,66.667,212.000,1.000,4.339,0.000
125140.000,121769.300,138805.900,129116.100,122732.300,132109.400,130587.900,125006.900,-0.189,0.939,-0.334,4.944,-0.977,1.892,66.667,213.000,1.000,0.012,0.000
125150.800,121780.900,138817.000,129136.800,122742.100,132115.800,130600.300,125018.900,-0.186,0.950,-0.339,5.188,-1.160,1.953,66.667,214.000,1.000,8.205,0.000
125152.500,121785.500,138815.300,129123.400,122742.300,132115.200,130598.700,125016.000,-0.183,0.962,-0.338,5.035,-1.526,2.289,66.667,215.000,1.000,9.296,0.000
125153.800,121795.100,138817.600,129126.800,122746.100,132119.000,130598.200,125019.000,-0.176,0.970,-0.339,4.578,-1.953,2.380,66.667,216.000,1.000,0.009,0.000
125154.800,121784.500,138821.400,129140.300,122748.700,132121.400,130600.300,125020.400,-0.173,0.974,-0.338,4.211,-2.167,2.594,66.667,217.000,1.000,1.744,0.000
125147.700,121780.600,138815.000,129125.200,122744.200,132116.100,130605.900,125024.100,-0.167,0.976,-0.341,3.662,-2.289,2.686,66.667,218.000,1.000,6.426,0.000
125143.100,121781.200,138812.400,129133.600,122742.400,132109.200,130600.000,125023.100,-0.161,0.975,-0.344,3.082,-2.258,2.716,66.667,219.000,1.000,2.483,0.000
125136.900,121773.500,138800.900,129106.500,122729.700,132093.300,130577.500,125003.600,-0.154,0.969,-0.343,2.411,-2.228,2.808,66.667,220.000,1.000,4.982,0.000
125143.800,121786.300,138811.100,129130.100,122738.600,132097.600,130576.000,125005.800,-0.145,0.963,-0.342,1.953,-2.167,2.991,66.667,221.000,1.000,2.569,0.000
125145.100,121772.300,138810.400,129128.600,122739.900,132101.300,130580.800,125011.600,-0.134,0.958,-0.342,1.526,-1.953,2.991,66.667,222.000,1.000,11.190,0.000
125149.600,121781.600,138807.900,129122.000,122739.800,132105.000,130592.500,125018.400,-0.127,0.953,-0.339,0.977,-1.465,3.082,66.667,223.000,1.000,2.479,0.000
125148.300,121782.300,138800.800,129110.300,122733.300,132103.200,130592.300,125009.800,-0.122,0.949,-0.334,0.427,-0.824,3.143,66.667,224.000,1.000,3.162,0.000
125149.800,121774.000,138801.900,129121.700,122736.800,132106.000,130594.300,125014.700,-0.116,0.946,-0.333,-0.214,-0.122,3.174,66.667,225.000,1.000,0.010,0.000
125149.400,121777.100,138802.600,129114.100,122737.900,132110.300,130590.100,125009.000,-0.113,0.939,-0.330,-0.702,0.580,3.082,66.667,226.000,1.000,6.864,0.000
125159.000,121792.800,138811.100,129125.800,122741.800,132109.500,130588.100,125012.200,-0.107,0.932,-0.327,-1.190,1.404,3.174,66.667,227.000,1.000,2.448,0.000
125158.200,121790.300,138809.300,129128.200,122740.000,132105.000,130588.800,125016.400,-0.105,0.931,-0.326,-1.526,2.197,3.113,66.667,228.000,1.000,2.581,0.000
125157.800,121787.500,138810.600,129132.000,122742.300,132111.600,130598.900,125022.300,-0.100,0.930,-0.326,-1.862,2.991,2.991,66.667,229.000,1.000,2.487,0.000
125152.900,121778.000,138802.900,129119.600,122735.000,132112.000,130590.000,125010.700,-0.097,0.938,-0.327,-2.258,3.998,2.930,66.667,230.000,1.000,3.734,0.000
125170.500,121795.800,138814.500,129138.000,122739.100,132107.700,130578.400,125007.600,-0.100,0.945,-0.330,-2.686,5.005,2.808,66.667,231.000,1.000,6.861,0.000
125169.000,121794.500,138809.400,129122.100,122735.700,132103.800,130573.600,125002.400,-0.103,0.953,-0.328,-3.143,5.768,2.747,66.667,232.000,1.000,0.083,0.000
125165.700,121776.200,138805.800,129131.800,122734.100,132105.500,130577.900,125001.600,-0.105,0.964,-0.328,-3.662,6.470,2.747,66.667,233.000,1.000,7.995,0.000
125171.300,121776.400,138805.900,129133.600,122736.500,132110.400,130585.200,125003.200,-0.106,0.979,-0.328,-4.272,7.050,2.655,66.667,234.000,1.000,2.476,0.000
125177.900,121799.000,138811.200,129137.000,122739.400,132114.800,130584.600,125004.500,-0.108,0.987,-0.332,-5.035,7.660,2.472,66.667,235.000,1.000,2.515,0.000
125173.100,121784.600,138801.800,129109.900,122727.700,132110.700,130572.100,124987.900,-0.112,0.993,-0.334,-5.859,8.301,2.289,66.667,236.000,1.000,2.495,0.000
125175.000,121771.100,138801.500,129126.100,122726.400,132104.600,130569.300,124988.300,-0.115,0.994,-0.331,-6.561,8.820,2.045,66.667,237.000,1.000,2.564,0.000
125177.700,121783.400,138806.800,129136.400,122729.800,132105.900,130576.000,124997.700,-0.118,0.993,-0.331,-7.477,9.216,1.892,66.667,238.000,1.000,8.697,0.000
125158.000,121768.300,138788.600,129100.600,122712.000,132090.900,130564.200,124980.800,-0.118,0.989,-0.326,-8.179,9.705,1.709,66.667,239.000,1.000,4.318,0.000
125162.300,121764.300,138795.700,129116.600,122723.100,132100.300,130577.600,124995.500,-0.119,0.986,-0.331,-8.789,9.949,1.556,66.667,240.000,1.000,0.009,0.000
125176.000,121777.500,138806.700,129134.700,122735.000,132110.200,130588.900,125009.100,-0.117,0.988,-0.334,-9.369,10.284,1.312,66.667,241.000,1.000,3.122,0.000
125181.800,121780.300,138807.200,129129.100,122735.100,132114.400,130583.500,125002.200,-0.117,0.988,-0.336,-9.888,10.529,1.251,66.667,242.000,1.000,13.781,0.000
125174.200,121778.400,138796.400,129117.800,122725.100,132105.000,130574.400,124990.100,-0.115,0.981,-0.335,-10.315,10.742,1.190,66.667,243.000,1.000,16.889,0.000
125163.900,121767.500,138788.600,129118.300,122723.400,132102.400,130586.000,125002.600,-0.115,0.975,-0.332,-10.681,10.986,1.129,66.667,244.000,1.000,0.018,0.000
125161.200,121770.300,138788.300,129122.900,122722.800,132097.400,130574.800,125001.600,-0.114,0.964,-0.333,-11.017,11.230,1.129,66.667,245.000,1.000,1.833,0.000
125188.600,121789.700,138811.800,129153.700,122741.300,132108.100,130582.300,125012.500,-0.111,0.951,-0.331,-11.292,11.566,1.099,66.667,246.000,1.000,2.598,0.000
125192.400,121803.500,138817.000,129143.800,122746.600,132116.300,130589.300,125013.900,-0.108,0.940,-0.327,-11.230,11.932,1.190,66.667,247.000,1.000,2.463,0.000
125195.300,121795.000,138819.000,129140.300,122747.900,132116.500,130594.800,125019.800,-0.110,0.928,-0.322,-10.925,12.299,1.373,66.667,248.000,1.000,4.942,0.000
125205.400,121817.400,138831.400,129153.700,122760.200,132129.500,130608.800,125033.400,-0.110,0.922,-0.318,-10.803,12.390,1.373,66.667,249.000,1.000,2.548,0.000
125201.300,121815.000,138825.600,129144.900,122753.900,132119.700,130596.600,125025.300,-0.106,0.909,-0.310,-10.559,12.634,1.251,66.667,250.000,1.000,2.514,0.000
125198.000,121809.900,138828.900,129156.300,122760.500,132123.800,130594.500,125026.300,-0.105,0.900,-0.305,-10.101,12.939,1.129,66.667,251.000,1.000,2.470,0.000
125181.200,121784.300,138817.800,129125.900,122755.100,132121.800,130591.600,125016.100,-0.108,0.893,-0.306,-9.613,13.031,1.190,66.667,252.000,1.000,8.742,0.000
125193.600,121807.000,138832.500,129144.000,122765.600,132130.600,130604.700,125026.500,-0.106,0.890,-0.308,-8.972,13.214,1.221,66.667,253.000,1.000,2.486,0.000
125196.700,121827.900,138836.200,129150.300,122768.600,132134.000,130610.100,125027.800,-0.104,0.891,-0.311,-8.148,13.336,1.312,66.667,254.000,1.000,5.612,0.000
125186.800,121809.100,138823.600,129130.300,122759.300,132130.000,130599.900,125012.200,-0.104,0.895,-0.309,-7.141,13.245,1.251,66.667,255.000,1.000,0.009,0.000
125212.100,121825.600,138847.800,129178.700,122782.300,132150.100,130615.600,125036.000,-0.104,0.901,-0.310,-6.348,13.306,1.190,66.667,256.000,1.000,1.873,0.000
125206.100,121821.100,138841.700,129168.300,122776.000,132140.800,130611.000,125032.400,-0.104,0.909,-0.312,-5.524,13.275,1.129,66.667,257.000,1.000,2.461,0.000
125189.300,121803.500,138824.500,129129.200,122757.400,132122.900,130599.500,125017.200,-0.105,0.916,-0.310,-4.791,13.275,1.190,66.667,258.000,1.000,3.183,0.000
125191.200,121804.900,138826.800,129142.000,122757.000,132123.700,130603.400,125022.800,-0.111,0.918,-0.312,-4.181,13.275,1.465,66.667,259.000,1.000,0.008,0.000
125206.500,121816.700,138838.900,129162.200,122767.800,132134.900,130608.200,125032.500,-0.112,0.920,-0.316,-3.418,13.245,1.495,66.667,260.000,1.000,1.872,0.000
125189.100,121805.100,138820.000,129134.600,122751.100,132121.900,130588.700,125015.000,-0.117,0.922,-0.319,-2.777,13.153,1.495,66.667,261.000,1.000,13.774,0.000
125216.000,121832.600,138843.200,129164.400,122770.500,132140.900,130603.700,125031.000,-0.121,0.929,-0.323,-2.197,13.000,1.434,66.667,262.000,1.000,4.402,0.000
125228.300,121831.600,138854.800,129198.000,122780.000,132142.300,130616.100,125045.100,-0.125,0.934,-0.325,-1.526,12.543,1.587,66.667,263.000,1.000,0.011,0.000
125199.100,121805.000,138823.700,129127.500,122757.400,132124.600,130603.400,125025.900,-0.127,0.939,-0.329,-0.671,11.871,1.465,66.667,264.000,1.000,25.015,0.000
125197.400,121802.900,138821.300,129130.300,122756.500,132123.800,130596.000,125019.700,-0.128,0.936,-0.328,-0.275,11.536,1.556,66.667,265.000,1.000,0.019,0.000
125216.800,121816.700,138838.300,129160.800,122771.800,132138.200,130604.000,125032.200,-0.128,0.932,-0.324,0.092,11.047,1.465,66.667,266.000,1.000,12.350,0.000
125232.200,121837.100,138851.800,129169.700,122781.200,132146.900,130608.700,125036.900,-0.129,0.926,-0.318,0.610,10.712,1.556,66.667,267.000,1.000,0.013,0.000
125225.400,121829.700,138848.000,129160.100,122777.300,132140.400,130610.500,125034.000,-0.125,0.916,-0.319,0.946,10.345,1.648,66.667,268.000,1.000,3.680,0.000
125225.600,121834.000,138849.400,129166.900,122779.300,132140.700,130612.700,125031.800,-0.123,0.912,-0.316,1.221,9.949,1.709,66.667,269.000,1.000,0.008,0.000
125226.400,121844.400,138850.700,129161.000,122781.200,132142.700,130607.400,125030.000,-0.120,0.911,-0.314,1.740,9.460,1.862,66.667,270.000,1.000,0.003,0.000
125219.900,121818.400,138840.500,129159.600,122772.100,132131.700,130592.700,125020.600,-0.116,0.911,-0.314,2.014,9.308,2.075,66.667,271.000,1.000,0.003,0.000
125234.700,121842.100,138854.700,129178.200,122780.900,132139.800,130595.100,125026.800,-0.115,0.921,-0.313,2.167,8.972,2.411,66.667,272.000,1.000,2.558,0.000
125223.900,121825.800,138846.200,129162.000,122776.200,132135.100,130596.600,125031.700,-0.110,0.932,-0.312,2.197,8.636,2.747,66.667,273.000,1.000,0.006,0.000
125215.000,121827.800,138834.800,129138.000,122763.700,132128.000,130588.400,125015.100,-0.108,0.939,-0.304,2.197,8.331,3.082,66.667,274.000,1.000,1.923,0.000
125239.400,121859.200,138859.700,129183.200,122783.300,132145.400,130604.500,125031.900,-0.107,0.941,-0.297,1.923,8.118,3.357,66.667,275.000,1.000,6.222,0.000
125224.100,121823.200,138848.300,129170.600,122773.100,132135.600,130590.800,125021.700,-0.105,0.937,-0.296,1.404,7.996,3.632,66.667,276.000,1.000,5.010,0.000
125211.200,121810.300,138833.700,129141.200,122764.100,132128.700,130586.300,125014.800,-0.104,0.937,-0.299,0.824,7.904,3.937,66.667,277.000,1.000,3.201,0.000
125194.700,121800.900,138816.500,129120.100,122751.400,132118.300,130580.500,125004.200,-0.103,0.932,-0.300,0.488,7.843,4.120,66.667,278.000,1.000,0.009,0.000
125207.100,121828.900,138829.600,129148.000,122765.000,132126.800,130594.100,125019.000,-0.098,0.929,-0.298,0.183,7.721,4.120,66.667,279.000,1.000,4.232,0.000
125205.800,121835.300,138827.900,129141.700,122768.600,132129.900,130598.700,125024.000,-0.096,0.928,-0.305,-0.183,7.538,3.937,66.667,280.000,1.000,2.561,0.000
125208.800,121798.800,138827.500,129149.400,122775.600,132138.600,130613.700,125039.900,-0.095,0.924,-0.308,-0.458,7.538,4.028,66.667,281.000,1.000,2.452,0.000
125219.400,121819.000,138835.500,129161.900,122774.600,132132.900,130597.900,125032.300,-0.092,0.919,-0.310,-0.580,7.599,3.693,66.667,282.000,1.000,9.357,0.000
125217.300,121822.000,138837.000,129168.800,122770.400,132124.400,130589.500,125025.600,-0.092,0.913,-0.313,-0.519,7.721,3.387,66.667,283.000,1.000,0.006,0.000
125217.900,121837.900,138843.500,129179.900,122775.100,132131.700,130594.900,125027.700,-0.092,0.902,-0.315,-0.488,7.904,3.082,66.667,284.000,1.000,1.881,0.000
125208.500,121820.600,138835.500,129174.400,122765.000,132120.000,130582.800,125020.600,-0.088,0.892,-0.316,-0.336,7.904,2.808,66.667,285.000,1.000,3.738,0.000
125227.800,121837.900,138846.700,129153.400,122773.500,132130.200,130590.300,125027.700,-0.085,0.883,-0.321,0.031,8.057,2.289,66.667,286.000,1.000,15.046,0.000
125231.100,121824.600,138849.200,129167.100,122776.400,132133.300,130594.400,125030.300,-0.087,0.883,-0.329,0.702,8.270,1.831,66.667,287.000,1.000,0.022,0.000
125231.800,121840.600,138853.200,129167.100,122781.400,132139.300,130603.200,125036.000,-0.090,0.888,-0.335,1.221,8.484,1.343,66.667,288.000,1.000,0.007,0.000
125212.900,121813.600,138838.100,129161.000,122770.600,132129.800,130599.500,125030.100,-0.091,0.898,-0.338,2.045,8.698,0.793,66.667,289.000,1.000,7.546,0.000
125197.800,121804.500,138819.500,129131.000,122756.200,132123.500,130585.900,125014.500,-0.095,0.909,-0.337,2.655,8.911,0.061,66.667,290.000,1.000,2.438,0.000
125215.900,121834.400,138836.000,129162.500,122768.600,132136.500,130588.400,125019.000,-0.094,0.916,-0.337,3.113,9.033,-0.641,66.667,291.000,1.000,2.503,0.000
125226.200,121839.400,138853.100,129207.100,122783.600,132145.800,130603.400,125036.600,-0.096,0.922,-0.338,3.357,9.094,-1.221,66.667,292.000,1.000,8.704,0.000
125219.800,121837.000,138843.300,129162.300,122776.600,132143.000,130608.800,125039.400,-0.099,0.926,-0.344,3.387,9.277,-1.526,66.667,293.000,1.000,2.459,0.000
125192.900,121792.000,138804.000,129098.500,122738.200,132112.000,130582.400,124998.700,-0.103,0.927,-0.346,3.448,9.338,-1.801,66.667,294.000,1.000,2.568,0.000
125219.900,121838.400,138830.400,129144.500,122759.000,132130.500,130592.000,125016.700,-0.110,0.939,-0.349,3.723,9.369,-2.136,66.667,295.000,1.000,5.012,0.000
125231.300,121837.800,138842.000,129175.000,122769.600,132133.500,130594.400,125027.500,-0.115,0.949,-0.351,3.754,9.338,-2.563,66.667,296.000,1.000,2.474,0.000
125236.500,121834.400,138844.400,129176.000,122771.000,132125.900,130593.000,125032.400,-0.122,0.961,-0.352,3.571,9.125,-2.808,66.667,297.000,1.000,6.305,0.000
125225.600,121834.400,138834.200,129148.500,122766.400,132120.800,130591.100,125027.400,-0.124,0.968,-0.350,3.235,8.667,-3.113,66.667,298.000,1.000,4.921,0.000
125220.200,121813.400,138824.500,129131.800,122762.000,132113.500,130592.800,125030.600,-0.125,0.970,-0.350,2.808,8.484,-3.387,66.667,299.000,1.000,3.123,0.000
125227.800,121816.900,138831.500,129159.900,122767.900,132115.600,130594.200,125035.500,-0.123,0.970,-0.348,2.167,8.331,-3.510,66.667,300.000,1.000,0.006,0.000
125250.800,121821.800,138855.100,129222.800,122784.300,132114.500,130597.100,125045.000,-0.120,0.963,-0.344,1.648,8.026,-3.571,66.667,301.000,1.000,1.874,0.000
125249.900,121851.100,138854.800,129183.700,122786.700,132118.500,130601.300,125047.200,-0.119,0.953,-0.345,0.916,7.965,-3.448,66.667,302.000,1.000,2.528,0.000
125247.900,121891.700,138857.200,129174.400,122789.500,132124.900,130608.500,125044.800,-0.121,0.939,-0.344,0.214,7.751,-3.204,66.667,303.000,1.000,3.755,0.000
125234.900,121839.800,138847.100,129190.900,122784.800,132127.300,130611.900,125038.300,-0.126,0.925,-0.342,-0.153,7.660,-3.021,66.667,304.000,1.000,14.979,0.000
125212.600,121804.700,138817.600,129104.000,122759.500,132114.700,130586.900,125009.600,-0.128,0.919,-0.350,-0.336,7.568,-3.021,66.667,305.000,1.000,3.133,0.000
125236.900,121802.100,138839.700,129162.300,122775.300,132127.100,130593.300,125022.300,-0.128,0.920,-0.355,-0.305,7.355,-2.991,66.667,306.000,1.000,0.006,0.000
125241.500,121832.600,138842.200,129153.900,122776.300,132134.000,130595.500,125026.500,-0.130,0.931,-0.358,-0.397,7.172,-2.960,66.667,307.000,1.000,1.875,0.000
125267.100,121883.100,138872.300,129211.300,122796.800,132154.300,130617.700,125044.100,-0.131,0.938,-0.358,-0.671,6.989,-2.777,66.667,308.000,1.000,2.523,0.000
125274.300,121905.700,138878.400,129213.600,122798.300,132157.600,130621.100,125046.000,-0.130,0.947,-0.358,-1.099,6.866,-2.686,66.667,309.000,1.000,5.004,0.000
125243.900,121867.400,138852.100,129172.000,122780.000,132151.800,130610.500,125033.800,-0.129,0.953,-0.354,-1.648,6.805,-2.411,66.667,310.000,1.000,7.502,0.000
125234.500,121806.200,138837.500,129186.200,122767.700,132133.100,130598.300,125034.000,-0.130,0.958,-0.356,-2.197,6.775,-2.075,66.667,311.000,1.000,3.097,0.000
125232.700,121859.300,138833.900,129148.200,122756.300,132119.300,130581.400,125010.000,-0.133,0.961,-0.355,-2.777,6.744,-1.648,66.667,312.000,1.000,0.008,0.000
125268.200,121832.700,138867.600,129251.100,122783.400,132129.400,130604.600,125038.200,-0.132,0.962,-0.353,-3.571,6.622,-1.343,66.667,313.000,1.000,5.622,0.000
125235.600,121832.600,138844.500,129192.300,122772.600,132127.100,130601.600,125034.800,-0.131,0.964,-0.354,-4.211,6.500,-1.038,66.667,314.000,1.000,2.502,0.000
125229.100,121806.400,138830.500,129159.800,122762.900,132114.300,130593.500,125025.900,-0.133,0.964,-0.348,-5.005,6.256,-0.885,66.667,315.000,1.000,2.427,0.000
125242.000,121838.000,138850.700,129197.400,122782.300,132121.600,130603.100,125050.100,-0.134,0.962,-0.352,-5.737,5.981,-0.793,66.667,316.000,1.000,2.547,0.000
125217.900,121837.400,138825.400,129095.500,122766.000,132115.500,130591.700,125028.200,-0.137,0.959,-0.347,-6.439,5.707,-0.580,66.667,317.000,1.000,11.263,0.000
125264.000,121881.300,138869.100,129210.000,122794.100,132131.300,130610.000,125045.600,-0.137,0.957,-0.347,-7.019,5.493,-0.610,66.667,318.000,1.000,3.061,0.000
125317.900,121884.200,138915.100,129318.500,122832.000,132148.500,130647.100,125093.000,-0.135,0.956,-0.351,-7.446,5.219,-0.671,66.667,319.000,1.000,0.016,0.000
125177.000,121799.700,138793.500,129080.700,122745.900,132089.100,130578.700,125011.000,-0.130,0.960,-0.353,-7.782,5.005,-0.702,66.667,320.000,1.000,1.866,0.000
125225.900,121909.000,138848.700,129173.900,122788.100,132127.700,130600.400,125040.200,-0.124,0.963,-0.354,-8.270,4.822,-0.763,66.667,321.000,1.000,8.743,0.000
125207.000,121744.000,138810.500,129133.500,122753.900,132083.900,130581.400,125014.100,-0.120,0.965,-0.351,-8.789,4.669,-0.824,66.667,322.000,1.000,20.680,0.000
125204.600,121809.300,138810.700,129078.700,122754.400,132092.800,130583.800,125006.800,-0.117,0.967,-0.347,-9.399,4.700,-0.854,66.667,323.000,1.000,0.019,0.000
125236.900,121843.300,138840.400,129141.000,122771.800,132107.800,130592.000,125014.200,-0.114,0.962,-0.347,-10.101,4.822,-0.854,66.667,324.000,1.000,15.567,0.000
125231.700,121845.100,138837.200,129140.200,122763.700,132103.400,130579.400,125001.900,-0.114,0.957,-0.343,-10.803,4.852,-0.885,66.667,325.000,1.000,2.483,0.000
125263.800,121847.700,138860.500,129206.300,122775.300,132112.400,130583.500,125005.900,-0.115,0.951,-0.339,-11.444,5.035,-0.977,66.667,326.000,1.000,5.050,0.000
125234.700,121837.800,138829.300,129127.400,122752.800,132093.500,130568.800,124988.700,-0.114,0.949,-0.334,-11.902,5.188,-1.068,66.667,327.000,1.000,16.216,0.000
125253.700,121848.800,138844.800,129154.200,122764.500,132107.000,130586.900,124999.700,-0.112,0.947,-0.331,-12.207,5.219,-1.312,66.667,328.000,1.000,2.538,0.000
125245.500,121810.600,138840.800,129201.000,122760.300,132103.400,130585.200,125005.100,-0.109,0.946,-0.326,-12.604,5.493,-1.404,66.667,329.000,1.000,2.511,0.000
125275.500,121898.400,138870.400,129227.300,122780.500,132120.100,130591.100,125023.200,-0.108,0.946,-0.323,-12.909,5.707,-1.587,66.667,330.000,1.000,4.951,0.000
125268.200,121894.400,138860.000,129161.300,122774.000,132118.400,130587.500,125020.500,-0.108,0.945,-0.323,-13.245,5.859,-1.923,66.667,331.000,1.000,2.547,0.000
125276.400,121883.800,138870.800,129220.700,122781.500,132119.700,130590.600,125028.300,-0.108,0.945,-0.320,-13.672,6.042,-2.258,66.667,332.000,1.000,2.529,0.000
125246.600,121794.800,138840.200,129182.300,122756.900,132099.800,130578.300,125010.400,-0.107,0.948,-0.323,-13.977,6.195,-2.625,66.667,333.000,1.000,2.415,0.000
125218.300,121817.500,138814.400,129105.600,122740.900,132084.200,130566.100,124999.100,-0.107,0.952,-0.324,-14.191,6.561,-2.991,66.667,334.000,1.000,2.466,0.000
125244.800,121826.900,138836.900,129174.400,122758.700,132102.800,130573.800,125016.800,-0.108,0.959,-0.326,-14.374,6.744,-3.387,66.667,335.000,1.000,2.491,0.000
125287.000,121866.300,138865.900,129203.400,122785.200,132117.000,130594.600,125046.300,-0.110,0.968,-0.327,-14.526,6.897,-3.906,66.667,336.000,1.000,2.615,0.000
125258.900,121855.500,138852.100,129186.300,122779.300,132109.600,130590.300,125041.800,-0.107,0.972,-0.323,-14.862,6.989,-4.333,66.667,337.000,1.000,2.390,0.000
125215.000,121788.800,138804.600,129102.300,122746.000,132077.900,130571.600,125018.400,-0.102,0.969,-0.324,-15.228,7.172,-4.791,66.667,338.000,1.000,5.025,0.000
125261.000,121906.100,138848.300,129168.900,122776.800,132099.200,130587.300,125035.500,-0.098,0.964,-0.322,-15.472,7.385,-5.066,66.667,339.000,1.000,2.564,0.000
125243.000,121853.300,138840.400,129174.800,122783.600,132110.800,130603.000,125050.200,-0.095,0.955,-0.321,-15.564,7.629,-5.463,66.667,340.000,1.000,2.452,0.000
125199.600,121740.900,138787.900,129090.500,122746.000,132079.400,130570.900,125015.200,-0.094,0.949,-0.324,-15.656,7.904,-5.585,66.667,341.000,1.000,2.528,0.000
125272.300,121927.100,138860.100,129181.700,122792.500,132134.700,130593.500,125024.900,-0.097,0.941,-0.319,-15.381,8.179,-5.768,66.667,342.000,1.000,2.461,0.000
125272.300,121873.800,138866.600,129245.500,122802.100,132128.700,130616.400,125062.100,-0.100,0.936,-0.315,-14.984,8.362,-5.829,66.667,343.000,1.000,3.045,0.000
125233.300,121747.200,138814.000,129193.700,122752.900,132077.900,130585.400,125015.000,-0.099,0.934,-0.314,-14.587,8.606,-5.951,66.667,344.000,1.000,0.009,0.000
125215.000,121825.400,138805.000,129126.300,122744.600,132086.800,130570.600,124991.300,-0.097,0.933,-0.310,-14.191,8.881,-5.890,66.667,345.000,1.000,2.648,0.000
125236.000,121866.700,138819.600,129085.300,122753.500,132106.200,130574.600,124994.400,-0.097,0.930,-0.308,-13.733,9.094,-5.859,66.667,346.000,1.000,0.011,0.000
125241.300,121785.600,138815.400,129118.100,122745.700,132092.700,130575.900,124997.900,-0.097,0.934,-0.308,-13.306,9.308,-5.676,66.667,347.000,1.000,5.528,0.000
125232.000,121786.400,138812.000,129136.200,122738.200,132095.100,130571.200,124988.200,-0.104,0.938,-0.308,-12.848,9.552,-5.646,66.667,348.000,1.000,3.125,0.000
125233.100,121854.900,138830.100,129168.700,122749.100,132106.100,130581.400,124994.400,-0.113,0.941,-0.304,-12.451,9.644,-5.402,66.667,349.000,1.000,0.009,0.000
125251.000,121875.500,138844.000,129155.600,122759.600,132121.000,130587.400,124998.200,-0.119,0.946,-0.302,-12.024,9.674,-5.280,66.667,350.000,1.000,1.907,0.000
125197.700,121774.300,138787.400,129088.300,122713.600,132082.700,130550.300,124948.900,-0.123,0.946,-0.300,-11.688,9.583,-5.127,66.667,351.000,1.000,2.528,0.000
125240.900,121824.700,138823.900,129141.800,122740.000,132104.900,130569.200,124971.100,-0.120,0.948,-0.300,-11.261,9.521,-4.913,66.667,352.000,1.000,3.038,0.000
125245.900,121920.200,138847.000,129167.700,122763.700,132138.000,130587.000,124986.200,-0.123,0.951,-0.302,-10.834,9.430,-4.883,66.667,353.000,1.000,0.015,0.000
125207.500,121794.800,138803.100,129115.800,122729.900,132088.200,130564.200,124963.200,-0.123,0.954,-0.296,-10.437,9.186,-4.700,66.667,354.000,1.000,13.839,0.000
125227.700,121797.300,138817.800,129153.200,122740.500,132096.400,130562.400,124964.900,-0.127,0.955,-0.296,-10.193,8.942,-4.425,66.667,355.000,1.000,0.013,0.000
125207.700,121801.500,138798.600,129072.800,122733.500,132086.600,130551.500,124966.500,-0.128,0.948,-0.292,-9.979,8.667,-4.181,66.667,356.000,1.000,2.370,0.000
125219.500,121785.800,138819.500,129153.200,122755.600,132102.300,130570.800,124997.200,-0.128,0.941,-0.294,-9.644,8.362,-3.906,66.667,357.000,1.000,0.010,0.000
125238.300,121813.300,138831.000,129182.200,122758.300,132095.800,130569.400,125003.000,-0.127,0.937,-0.296,-9.247,8.148,-3.723,66.667,358.000,1.000,3.073,0.000
125223.300,121857.500,138827.900,129147.800,122759.900,132099.100,130574.400,125012.500,-0.125,0.936,-0.297,-8.820,8.057,-3.448,66.667,359.000,1.000,14.443,0.000
125206.500,121804.400,138808.300,129110.100,122743.200,132080.800,130560.000,124998.800,-0.123,0.936,-0.297,-8.209,7.843,-3.204,66.667,360.000,1.000,0.008,0.000
125229.100,121902.500,138832.300,129132.600,122762.200,132100.300,130562.600,125002.800,-0.123,0.936,-0.299,-7.690,7.599,-2.808,66.667,361.000,1.000,8.100,0.000
125254.800,121927.500,138860.500,129188.100,122792.400,132131.400,130597.800,125042.200,-0.122,0.936,-0.298,-7.172,7.446,-2.563,66.667,362.000,1.000,0.006,0.000
125204.400,121768.200,138798.200,129104.500,122744.700,132085.900,130574.300,125001.500,-0.123,0.936,-0.299,-6.714,7.263,-2.350,66.667,363.000,1.000,0.004,0.000
125204.900,121741.100,138796.200,129135.700,122742.000,132068.200,130572.500,125004.200,-0.119,0.936,-0.300,-6.226,7.111,-2.167,66.667,364.000,1.000,11.898,0.000
125218.700,121825.100,138805.000,129116.600,122741.800,132073.300,130560.300,124993.900,-0.116,0.937,-0.297,-5.768,6.989,-2.045,66.667,365.000,1.000,0.009,0.000
125220.500,121747.500,138809.800,129210.200,122750.700,132077.300,130566.900,125015.400,-0.115,0.940,-0.296,-5.341,6.866,-2.045,66.667,366.000,1.000,8.115,0.000
125234.700,121822.900,138813.600,129108.400,122749.800,132089.600,130563.800,124990.600,-0.116,0.944,-0.296,-4.974,6.775,-1.984,66.667,367.000,1.000,2.498,0.000
125241.800,121847.100,138825.300,129118.700,122759.300,132097.800,130576.600,125005.800,-0.120,0.952,-0.293,-4.639,6.592,-1.923,66.667,368.000,1.000,2.458,0.000
125224.400,121814.300,138814.700,129144.300,122744.200,132083.500,130565.600,124991.500,-0.123,0.957,-0.290,-4.486,6.409,-2.014,66.667,369.000,1.000,3.085,0.000
125232.400,121814.100,138816.600,129134.500,122745.400,132107.000,130565.900,124984.500,-0.123,0.961,-0.290,-4.364,6.104,-2.167,66.667,370.000,1.000,0.011,0.000
125238.100,121803.900,138816.500,129155.800,122739.300,132095.500,130556.300,124976.500,-0.121,0.969,-0.293,-4.395,5.859,-2.441,66.667,371.000,1.000,1.959,0.000
125223.100,121803.400,138806.900,129146.100,122738.200,132102.600,130561.700,124980.800,-0.122,0.973,-0.295,-4.425,5.585,-2.625,66.667,372.000,1.000,11.164,0.000
125240.700,121829.500,138823.100,129156.100,122748.900,132116.700,130579.700,124993.700,-0.125,0.976,-0.295,-4.395,5.249,-2.777,66.667,373.000,1.000,8.773,0.000
125188.900,121752.100,138763.000,129038.500,122698.700,132074.300,130545.500,124942.900,-0.124,0.974,-0.296,-4.639,4.974,-2.991,66.667,374.000,1.000,0.011,0.000
125248.100,121872.800,138830.500,129145.300,122755.300,132131.300,130584.100,124987.300,-0.127,0.975,-0.293,-4.730,4.578,-3.143,66.667,375.000,1.000,0.006,0.000
125253.200,121822.400,138831.100,129168.800,122753.900,132117.900,130577.900,124988.400,-0.129,0.973,-0.293,-4.791,4.120,-3.357,66.667,376.000,1.000,2.511,0.000
125239.000,121820.700,138822.200,129175.300,122750.600,132107.600,130569.900,124991.900,-0.133,0.974,-0.302,-4.852,3.723,-3.479,66.667,377.000,1.000,2.548,0.000
125225.500,121802.300,138797.500,129083.900,122735.900,132089.300,130562.800,124991.700,-0.138,0.974,-0.305,-4.852,3.357,-3.845,66.667,378.000,1.000,8.711,0.000
125222.100,121824.700,138801.100,129109.100,122738.800,132091.100,130559.600,124978.600,-0.138,0.975,-0.302,-4.913,2.777,-4.211,66.667,379.000,1.000,3.134,0.000
125212.800,121757.500,138789.900,129110.400,122737.900,132084.500,130556.500,124982.300,-0.137,0.974,-0.306,-4.974,2.258,-4.425,66.667,380.000,1.000,0.007,0.000
125253.500,121875.900,138835.000,129162.800,122776.500,132124.900,130577.900,125005.200,-0.133,0.969,-0.307,-5.005,1.740,-4.608,66.667,381.000,1.000,5.501,0.000
125255.300,121820.100,138838.800,129171.800,122788.300,132129.300,130595.400,125029.200,-0.128,0.964,-0.303,-5.035,1.282,-4.822,66.667,382.000,1.000,9.432,0.000
125233.600,121871.500,138827.800,129109.300,122782.100,132132.600,130589.500,125012.700,-0.126,0.955,-0.303,-4.974,0.854,-4.913,66.667,383.000,1.000,0.012,0.000
125235.900,121853.100,138831.500,129136.500,122782.100,132126.700,130590.800,125014.200,-0.125,0.951,-0.305,-4.913,0.549,-5.096,66.667,384.000,1.000,4.403,0.000
125202.900,121732.600,138797.100,129127.000,122754.500,132095.900,130571.600,124998.900,-0.123,0.948,-0.306,-4.761,0.214,-5.249,66.667,385.000,1.000,2.436,0.000
125236.600,121802.000,138822.100,129120.300,122770.300,132112.100,130576.600,125007.900,-0.122,0.943,-0.308,-4.547,0.000,-5.310,66.667,386.000,1.000,11.847,0.000
125243.900,121844.100,138835.700,129170.200,122774.600,132112.100,130571.200,125007.100,-0.119,0.939,-0.312,-4.364,-0.305,-5.310,66.667,387.000,1.000,0.015,0.000
125220.700,121819.100,138814.300,129128.100,122754.600,132099.500,130558.000,124986.400,-0.119,0.940,-0.310,-4.120,-0.488,-5.432,66.667,388.000,1.000,1.907,0.000
125242.700,121781.200,138825.000,129145.800,122754.300,132088.100,130563.600,124990.300,-0.119,0.938,-0.313,-3.754,-0.519,-5.341,66.667,389.000,1.000,7.511,0.000
125223.700,121814.500,138814.900,129122.300,122744.300,132081.900,130552.000,124978.400,-0.121,0.940,-0.316,-3.540,-0.732,-5.280,66.667,390.000,1.000,2.491,0.000
125239.600,121796.800,138822.900,129134.400,122746.900,132090.100,130551.500,124976.300,-0.125,0.950,-0.320,-3.204,-0.916,-5.341,66.667,391.000,1.000,7.562,0.000
125270.000,121909.900,138865.000,129220.900,122777.100,132117.400,130572.600,124996.600,-0.125,0.959,-0.319,-3.021,-1.129,-5.280,66.667,392.000,1.000,2.477,0.000
125257.200,121939.200,138848.500,129118.200,122763.800,132122.400,130570.000,124987.000,-0.127,0.969,-0.318,-3.052,-1.282,-5.188,66.667,393.000,1.000,2.457,0.000
125225.900,121804.600,138803.700,129072.000,122722.500,132090.200,130543.500,124946.300,-0.123,0.978,-0.315,-3.143,-1.404,-5.188,66.667,394.000,1.000,3.070,0.000
125246.000,121800.300,138824.600,129161.300,122737.600,132092.500,130555.700,124971.400,-0.120,0.980,-0.308,-3.326,-1.526,-5.127,66.667,395.000,1.000,0.005,0.000
125224.400,121749.300,138802.100,129125.800,122725.300,132085.700,130549.900,124972.000,-0.121,0.979,-0.309,-3.662,-1.465,-5.005,66.667,396.000,1.000,1.936,0.000
125231.400,121789.500,138806.700,129117.400,122729.200,132092.300,130553.400,124978.800,-0.128,0.984,-0.310,-3.967,-1.556,-4.974,66.667,397.000,1.000,3.731,0.000
125213.600,121781.000,138792.400,129098.400,122722.300,132096.000,130556.300,124975.200,-0.134,0.989,-0.307,-4.211,-1.770,-4.669,66.667,398.000,1.000,14.344,0.000
125232.000,121860.700,138812.300,129122.600,122742.300,132114.600,130571.700,124992.400,-0.140,0.990,-0.305,-4.730,-2.167,-4.517,66.667,399.000,1.000,0.014,0.000
125268.800,121889.300,138849.800,129187.500,122777.200,132138.100,130595.300,125027.300,-0.141,0.989,-0.301,-5.127,-2.472,-4.517,66.667,400.000,1.000,9.411,0.000
125209.500,121731.000,138786.100,129091.000,122735.900,132094.600,130565.400,124993.900,-0.141,0.988,-0.296,-5.463,-2.625,-4.425,66.667,401.000,1.000,2.469,0.000
125252.200,121848.800,138836.500,129179.600,122782.300,132137.900,130595.300,125032.900,-0.138,0.983,-0.294,-5.798,-2.899,-4.333,66.667,402.000,1.000,2.551,0.000
125267.500,121875.700,138849.800,129175.100,122794.800,132148.200,130613.400,125045.600,-0.136,0.978,-0.286,-6.165,-3.082,-4.150,66.667,403.000,1.000,12.471,0.000
125259.500,121832.800,138832.700,129126.100,122779.300,132122.900,130603.600,125035.000,-0.135,0.972,-0.285,-6.531,-3.204,-3.937,66.667,404.000,1.000,2.532,0.000
125249.600,121815.400,138827.900,129145.300,122778.200,132134.000,130593.000,125019.200,-0.133,0.961,-0.283,-6.775,-3.479,-3.723,66.667,405.000,1.000,2.462,0.000
125248.300,121803.500,138827.000,129179.100,122777.400,132118.800,130584.100,125025.200,-0.127,0.952,-0.282,-7.050,-3.510,-3.326,66.667,406.000,1.000,8.072,0.000
125256.300,121844.100,138833.000,129137.800,122781.400,132129.500,130583.600,125020.100,-0.125,0.942,-0.283,-7.019,-3.448,-2.869,66.667,407.000,1.000,0.012,0.000
125248.500,121845.300,138833.200,129125.000,122781.100,132127.900,130590.800,125022.800,-0.123,0.936,-0.287,-6.866,-3.357,-2.502,66.667,408.000,1.000,4.427,0.000
125283.400,121886.700,138864.300,129206.000,122801.300,132142.600,130603.800,125035.500,-0.116,0.930,-0.288,-6.622,-3.296,-2.167,66.667,409.000,1.000,2.535,0.000
125246.000,121808.900,138826.500,129157.100,122779.200,132134.500,130591.000,125020.100,-0.111,0.925,-0.290,-6.165,-2.991,-1.770,66.667,410.000,1.000,2.486,0.000
125251.900,121836.700,138825.900,129111.500,122775.500,132143.200,130581.200,125010.100,-0.108,0.922,-0.288,-5.768,-2.655,-1.373,66.667,411.000,1.000,2.468,0.000
125248.500,121846.400,138823.700,129110.400,122761.000,132122.500,130567.500,124995.000,-0.105,0.915,-0.290,-5.341,-2.228,-0.916,66.667,412.000,1.000,8.102,0.000
125261.300,121823.500,138832.700,129167.900,122759.200,132115.800,130574.400,125005.600,-0.099,0.910,-0.292,-4.761,-1.678,-0.275,66.667,413.000,1.000,0.010,0.000
125236.300,121823.900,138807.100,129110.200,122733.800,132111.600,130559.900,124983.700,-0.094,0.910,-0.294,-4.150,-1.099,0.153,66.667,414.000,1.000,1.869,0.000
125216.700,121787.000,138787.100,129091.500,122713.500,132101.900,130547.300,124970.700,-0.091,0.912,-0.294,-3.326,-0.427,0.641,66.667,415.000,1.000,2.467,0.000
125253.900,121842.600,138819.900,129140.900,122733.100,132122.400,130561.300,124987.900,-0.087,0.920,-0.291,-2.838,0.305,0.946,66.667,416.000,1.000,3.262,0.000
125240.100,121855.100,138806.300,129113.400,122720.600,132114.400,130553.700,124968.500,-0.087,0.927,-0.289,-2.411,1.007,1.129,66.667,417.000,1.000,1.743,0.000
125231.500,121777.000,138795.600,129143.300,122716.900,132104.100,130561.300,124972.100,-0.083,0.934,-0.289,-2.014,1.678,1.373,66.667,418.000,1.000,8.123,0.000
125218.000,121814.900,138790.300,129110.300,122719.700,132111.600,130561.700,124967.200,-0.085,0.940,-0.290,-1.648,2.411,1.495,66.667,419.000,1.000,0.012,0.000
125207.900,121775.200,138774.900,129077.800,122710.700,132085.900,130548.100,124959.900,-0.086,0.949,-0.289,-1.495,3.082,1.434,66.667,420.000,1.000,1.819,0.000
125225.800,121772.800,138793.800,129128.900,122731.600,132096.700,130551.400,124972.700,-0.088,0.955,-0.288,-1.343,3.723,1.282,66.667,421.000,1.000,3.775,0.000
125247.200,121839.200,138822.500,129144.000,122761.900,132117.200,130569.400,124993.300,-0.095,0.956,-0.286,-1.343,4.364,1.068,66.667,422.000,1.000,9.435,0.000
125265.700,121891.900,138846.500,129155.600,122785.600,132131.300,130588.200,125013.300,-0.103,0.958,-0.287,-1.312,4.883,0.610,66.667,423.000,1.000,0.016,0.000
125266.000,121915.000,138853.400,129160.100,122796.700,132140.800,130594.600,125021.200,-0.109,0.954,-0.283,-1.404,5.157,0.092,66.667,424.000,1.000,2.411,0.000
125258.600,121808.300,138840.600,129173.900,122790.400,132109.300,130586.300,125027.600,-0.111,0.954,-0.283,-1.556,5.341,-0.427,66.667,425.000,1.000,0.079,0.000
125258.800,121787.100,138842.700,129182.000,122798.400,132118.800,130588.000,125038.600,-0.110,0.950,-0.288,-1.495,5.402,-1.007,66.667,426.000,1.000,24.370,0.000
125242.500,121822.900,138830.000,129120.500,122787.800,132114.400,130579.600,125021.300,-0.110,0.947,-0.290,-1.526,5.554,-1.526,66.667,427.000,1.000,2.414,0.000
125274.300,121920.300,138865.300,129171.600,122811.000,132136.200,130599.900,125032.300,-0.107,0.943,-0.287,-1.404,5.524,-2.014,66.667,428.000,1.000,2.429,0.000
125253.900,121817.800,138838.400,129155.400,122792.700,132121.300,130597.500,125030.100,-0.109,0.940,-0.286,-1.251,5.676,-2.502,66.667,429.000,1.000,6.294,0.000
125252.200,121783.400,138832.400,129164.500,122788.500,132112.600,130593.900,125032.300,-0.114,0.936,-0.285,-1.190,5.676,-2.899,66.667,430.000,1.000,2.448,0.000
125269.300,121880.300,138849.600,129156.300,122797.600,132138.400,130592.000,125030.200,-0.121,0.938,-0.289,-1.129,5.646,-3.296,66.667,431.000,1.000,2.569,0.000
125282.100,121861.500,138853.300,129172.800,122789.900,132126.400,130591.100,125029.900,-0.125,0.936,-0.288,-1.007,5.493,-3.540,66.667,432.000,1.000,7.452,0.000
125288.900,121846.200,138857.000,129202.900,122792.500,132139.000,130602.900,125039.900,-0.130,0.936,-0.290,-0.793,5.219,-3.937,66.667,433.000,1.000,5.033,0.000
125262.500,121854.000,138837.600,129170.200,122776.400,132134.700,130598.300,125027.300,-0.133,0.934,-0.296,-0.702,4.913,-4.211,66.667,434.000,1.000,2.484,0.000
125233.300,121741.800,138795.300,129101.100,122736.000,132098.100,130572.600,124999.600,-0.133,0.933,-0.294,-0.458,4.486,-4.395,66.667,435.000,1.000,7.470,0.000
125268.400,121814.400,138824.500,129141.900,122752.600,132119.500,130580.100,125009.400,-0.137,0.935,-0.294,-0.397,4.120,-4.486,66.667,436.000,1.000,2.449,0.000
125289.900,121923.700,138853.600,129186.500,122770.600,132147.100,130587.800,125017.900,-0.141,0.933,-0.298,-0.214,3.540,-4.547,66.667,437.000,1.000,2.585,0.000
125267.900,121843.800,138829.000,129164.400,122748.500,132132.300,130579.000,125006.100,-0.144,0.934,-0.293,-0.214,3.052,-4.578,66.667,438.000,1.000,3.099,0.000
125232.400,121743.300,138784.800,129090.800,122708.000,132090.700,130550.400,124971.600,-0.142,0.936,-0.296,-0.336,2.563,-4.761,66.667,439.000,1.000,0.014,0.000
125263.500,121853.400,138825.700,129136.000,122740.000,132129.300,130560.100,124984.900,-0.138,0.940,-0.301,-0.275,2.136,-4.730,66.667,440.000,1.000,1.868,0.000
125261.400,121834.100,138823.200,129139.500,122738.300,132114.500,130551.500,124977.200,-0.133,0.946,-0.300,-0.275,1.678,-4.700,66.667,441.000,1.000,2.389,0.000
125278.200,121864.400,138842.100,129166.400,122760.100,132133.900,130566.700,124994.200,-0.132,0.952,-0.307,-0.366,1.251,-4.547,66.667,442.000,1.000,2.536,0.000
125289.800,121869.800,138858.800,129222.300,122783.600,132148.300,130587.200,125019.000,-0.133,0.957,-0.306,-0.641,0.854,-4.364,66.667,443.000,1.000,3.131,0.000
125262.100,121902.100,138840.900,129180.500,122776.600,132133.000,130577.400,125014.400,-0.133,0.961,-0.305,-1.007,0.549,-4.120,66.667,444.000,1.000,0.011,0.000
125226.600,121764.800,138791.200,129087.500,122739.200,132087.900,130549.000,124982.900,-0.135,0.961,-0.309,-1.495,0.153,-3.723,66.667,445.000,1.000,4.337,0.000
125259.500,121834.600,138832.400,129152.100,122777.700,132111.300,130569.000,125013.700,-0.136,0.954,-0.310,-1.984,-0.183,-3.540,66.667,446.000,1.000,2.547,0.000
125272.000,121872.400,138849.700,129160.100,122800.300,132138.300,130593.500,125036.900,-0.134,0.955,-0.313,-2.197,-0.610,-3.235,66.667,447.000,1.000,3.747,0.000
125280.200,121856.600,138858.100,129188.700,122815.100,132148.300,130618.700,125063.900,-0.133,0.954,-0.317,-2.472,-0.916,-3.082,66.667,448.000,1.000,11.942,0.000
125231.400,121756.300,138806.000,129126.700,122773.000,132107.400,130588.400,125028.400,-0.133,0.955,-0.318,-2.777,-1.160,-2.808,66.667,449.000,1.000,0.014,0.000
125250.100,121841.200,138829.000,129158.600,122786.700,132126.200,130589.400,125028.600,-0.136,0.948,-0.314,-3.143,-1.526,-2.441,66.667,450.000,1.000,11.156,0.000
125270.000,121882.300,138850.300,129178.600,122802.600,132135.300,130600.200,125045.900,-0.138,0.943,-0.316,-3.632,-1.892,-2.197,66.667,451.000,1.000,0.010,0.000
125257.000,121786.300,138830.200,129163.300,122786.500,132120.400,130599.900,125040.200,-0.139,0.937,-0.319,-3.815,-2.075,-2.075,66.667,452.000,1.000,14.987,0.000
125263.000,121808.300,138839.700,129163.700,122799.100,132146.700,130626.400,125057.800,-0.140,0.935,-0.319,-3.906,-2.472,-1.923,66.667,453.000,1.000,0.013,0.000
125284.700,121890.300,138863.900,129191.900,122811.800,132162.800,130629.400,125060.600,-0.136,0.933,-0.316,-3.998,-2.777,-1.923,66.667,454.000,1.000,1.904,0.000
125268.800,121860.900,138845.100,129188.500,122784.200,132135.000,130592.800,125023.100,-0.134,0.933,-0.310,-4.211,-3.021,-1.740,66.667,455.000,1.000,2.491,0.000
125241.500,121799.000,138810.100,129106.300,122751.600,132109.400,130569.400,124994.000,-0.131,0.935,-0.309,-4.303,-3.265,-1.709,66.667,456.000,1.000,3.689,0.000
125258.400,121852.600,138830.500,129139.700,122767.900,132132.400,130585.500,125009.600,-0.130,0.934,-0.308,-4.639,-3.448,-1.678,66.667,457.000,1.000,0.006,0.000
125253.300,121815.100,138823.900,129161.400,122765.000,132136.500,130595.000,125016.900,-0.130,0.935,-0.309,-4.883,-3.693,-1.617,66.667,458.000,1.000,0.005,0.000
125261.700,121813.500,138831.800,129196.200,122768.900,132138.600,130603.500,125024.200,-0.128,0.935,-0.303,-4.944,-3.754,-1.617,66.667,459.000,1.000,2.523,0.000
125255.200,121865.200,138827.200,129130.400,122762.900,132156.100,130593.000,125005.900,-0.131,0.940,-0.302,-5.280,-3.876,-1.678,66.667,460.000,1.000,2.489,0.000
125247.400,121884.400,138818.100,129103.100,122753.600,132151.400,130579.000,124996.600,-0.129,0.944,-0.303,-5.615,-3.906,-1.831,66.667,461.000,1.000,2.483,0.000
125247.600,121827.800,138812.700,129129.800,122750.700,132144.200,130580.100,125000.000,-0.126,0.947,-0.299,-5.798,-4.211,-1.892,66.667,462.000,1.000,8.811,0.000
125258.600,121797.100,138809.300,129141.400,122749.900,132137.000,130579.600,125004.000,-0.125,0.946,-0.295,-6.012,-4.028,-2.106,66.667,463.000,1.000,9.292,0.000
125250.400,121809.800,138801.100,129122.800,122743.900,132127.500,130572.900,125000.200,-0.123,0.946,-0.298,-6.287,-3.998,-2.350,66.667,464.000,1.000,0.007,0.000
125251.200,121839.000,138808.600,129123.900,122751.400,132135.400,130569.600,125000.200,-0.123,0.944,-0.296,-6.531,-3.876,-2.289,66.667,465.000,1.000,16.915,0.000
125262.700,121823.100,138822.300,129171.300,122762.900,132141.000,130575.700,125016.400,-0.125,0.938,-0.293,-6.775,-3.815,-2.289,66.667,466.000,1.000,0.015,0.000
125265.500,121840.800,138825.300,129149.400,122769.100,132151.200,130581.100,125019.200,-0.128,0.939,-0.290,-6.805,-3.662,-2.319,66.667,467.000,1.000,0.005,0.000
125278.900,121910.500,138843.000,129151.800,122782.300,132154.300,130595.300,125030.600,-0.128,0.939,-0.288,-6.897,-3.571,-2.380,66.667,468.000,1.000,2.450,0.000
125269.200,121840.200,138833.700,129148.200,122777.200,132147.600,130595.700,125031.800,-0.130,0.937,-0.286,-6.958,-3.540,-2.441,66.667,469.000,1.000,6.311,0.000
125278.200,121780.900,138839.800,129187.600,122787.800,132153.200,130605.500,125054.200,-0.129,0.933,-0.289,-7.202,-3.448,-2.380,66.667,470.000,1.000,2.420,0.000
125283.000,121812.100,138838.900,129163.000,122781.400,132141.200,130591.200,125038.000,-0.126,0.932,-0.287,-7.111,-3.265,-2.258,66.667,471.000,1.000,5.054,0.000
125286.500,121853.500,138845.400,129159.000,122784.800,132150.600,130589.500,125027.500,-0.127,0.931,-0.284,-7.111,-3.174,-2.106,66.667,472.000,1.000,2.538,0.000
125275.200,121849.100,138835.300,129157.200,122774.800,132139.100,130587.400,125022.600,-0.126,0.929,-0.282,-7.050,-2.991,-2.075,66.667,473.000,1.000,2.436,0.000
125266.900,121800.600,138821.000,129149.400,122767.000,132125.400,130588.100,125019.900,-0.126,0.929,-0.282,-6.989,-2.838,-1.923,66.667,474.000,1.000,3.036,0.000
125273.000,121834.200,138831.300,129149.800,122776.200,132133.600,130590.400,125022.600,-0.128,0.929,-0.276,-6.866,-2.563,-1.801,66.667,475.000,1.000,0.007,0.000
125278.100,121885.200,138836.900,129145.200,122780.600,132141.900,130592.700,125024.000,-0.130,0.932,-0.277,-6.836,-2.411,-1.892,66.667,476.000,1.000,1.997,0.000
125275.200,121843.400,138832.100,129152.700,122776.600,132140.100,130596.900,125024.800,-0.132,0.934,-0.275,-6.653,-2.197,-1.801,66.667,477.000,1.000,24.295,0.000
125262.200,121797.700,138817.200,129135.500,122765.000,132123.400,130596.200,125017.100,-0.132,0.940,-0.274,-6.714,-2.136,-1.587,66.667,478.000,1.000,0.014,0.000
125296.800,121868.700,138851.000,129178.200,122791.900,132149.300,130620.800,125037.200,-0.133,0.944,-0.276,-6.744,-1.984,-1.434,66.667,479.000,1.000,2.574,0.000
125300.600,121844.700,138850.600,129220.800,122788.100,132137.100,130612.600,125039.200,-0.129,0.949,-0.276,-6.775,-1.862,-1.495,66.667,480.000,1.000,0.010,0.000
125259.100,121821.800,138808.200,129117.900,122750.400,132124.500,130578.700,124990.300,-0.129,0.954,-0.276,-6.897,-1.648,-1.282,66.667,481.000,1.000,4.979,0.000
125251.400,121779.700,138801.500,129113.000,122744.100,132116.900,130579.000,124993.100,-0.128,0.955,-0.274,-7.080,-1.495,-1.190,66.667,482.000,1.000,0.008,0.000
125260.700,121822.800,138815.800,129132.500,122755.900,132138.800,130589.400,125003.400,-0.129,0.957,-0.273,-7.263,-1.312,-1.038,66.667,483.000,1.000,1.814,0.000
125273.000,121867.800,138832.700,129152.100,122770.100,132153.900,130600.000,125019.000,-0.133,0.957,-0.273,-7.446,-1.129,-0.916,66.667,484.000,1.000,2.478,0.000
125273.700,121879.900,138835.800,129144.300,122771.300,132161.900,130592.700,125012.700,-0.134,0.956,-0.272,-7.568,-1.007,-0.854,66.667,485.000,1.000,2.510,0.000
125273.600,121905.100,138844.800,129174.600,122786.100,132182.300,130595.300,125023.100,-0.134,0.954,-0.272,-7.660,-0.885,-0.824,66.667,486.000,1.000,9.363,0.000
125271.300,121886.200,138842.200,129161.000,122789.000,132185.500,130605.500,125038.700,-0.133,0.950,-0.272,-7.721,-0.702,-0.702,66.667,487.000,1.000,0.018,0.000
125239.200,121769.700,138805.000,129137.200,122758.800,132139.300,130586.100,125022.200,-0.135,0.945,-0.273,-7.721,-0.427,-0.641,66.667,488.000,1.000,4.996,0.000
125246.300,121840.300,138826.600,129158.800,122777.500,132159.300,130597.300,125033.000,-0.132,0.937,-0.276,-7.568,-0.336,-0.671,66.667,489.000,1.000,0.004,0.000
125267.500,121848.100,138844.300,129187.500,122787.900,132154.300,130596.700,125044.000,-0.132,0.929,-0.279,-7.385,-0.061,-0.641,66.667,490.000,1.000,1.883,0.000
125253.000,121870.500,138832.000,129150.300,122781.200,132160.400,130584.000,125028.000,-0.134,0.924,-0.278,-6.989,0.061,-0.519,66.667,491.000,1.000,3.772,0.000
125240.600,121828.500,138818.800,129142.300,122773.900,132154.400,130589.400,125027.800,-0.135,0.920,-0.276,-6.592,0.244,-0.366,66.667,492.000,1.000,14.366,0.000
125251.200,121826.500,138822.800,129148.100,122773.600,132136.500,130597.500,125035.600,-0.137,0.916,-0.277,-6.134,0.427,-0.397,66.667,493.000,1.000,0.017,0.000
125247.800,121833.300,138826.700,129156.300,122780.900,132144.300,130611.400,125043.400,-0.140,0.918,-0.277,-5.707,0.519,-0.244,66.667,494.000,1.000,1.941,0.000
125246.300,121835.300,138823.300,129145.200,122781.100,132155.400,130603.200,125032.300,-0.140,0.922,-0.275,-5.341,0.610,-0.153,66.667,495.000,1.000,2.383,0.000
125244.300,121813.300,138822.800,129147.000,122779.800,132149.900,130604.500,125032.400,-0.142,0.925,-0.273,-5.066,0.732,-0.092,66.667,496.000,1.000,2.592,0.000
125271.700,121910.700,138851.800,129168.500,122799.700,132172.800,130612.300,125038.700,-0.143,0.928,-0.276,-4.608,0.610,0.000,66.667,497.000,1.000,8.649,0.000
125259.400,121833.300,138834.400,129167.200,122783.700,132141.600,130609.100,125040.000,-0.144,0.933,-0.275,-4.333,0.549,0.092,66.667,498.000,1.000,2.506,0.000
125228.900,121728.800,138791.700,129122.500,122742.100,132094.000,130579.600,125008.200,-0.147,0.940,-0.275,-4.120,0.519,0.275,66.667,499.000,1.000,2.519,0.000
125258.100,121821.800,138818.700,129138.800,122756.900,132114.800,130583.600,125013.100,-0.148,0.948,-0.275,-3.998,0.488,0.305,66.667,500.000,1.000,4.356,0.000
125272.500,121851.300,138826.800,129148.500,122757.700,132117.200,130578.400,125014.000,-0.146,0.957,-0.276,-4.028,0.305,0.397,66.667,501.000,1.000,0.009,0.000
125289.100,121890.300,138841.100,129170.100,122763.800,132122.900,130581.200,125017.400,-0.146,0.967,-0.277,-4.059,0.214,0.641,66.667,502.000,1.000,8.162,0.000
125266.900,121772.100,138815.800,129168.700,122748.700,132098.500,130579.200,125018.100,-0.145,0.971,-0.276,-4.211,0.153,0.793,66.667,503.000,1.000,2.489,0.000
125275.200,121816.200,138827.500,129166.400,122759.700,132105.400,130583.700,125021.600,-0.146,0.978,-0.276,-4.456,0.153,0.946,66.667,504.000,1.000,10.042,0.000
125280.500,121816.800,138831.100,129149.200,122768.800,132117.700,130583.500,125014.800,-0.148,0.982,-0.278,-4.700,0.061,1.038,66.667,505.000,1.000,3.127,0.000
125310.200,121889.300,138867.300,129186.200,122803.000,132153.600,130598.800,125036.500,-0.147,0.984,-0.279,-5.127,-0.153,1.068,66.667,506.000,1.000,0.015,0.000
125284.500,121853.600,138847.600,129172.000,122794.800,132157.500,130593.300,125029.800,-0.146,0.979,-0.279,-5.493,-0.275,1.160,66.667,507.000,1.000,1.830,0.000
125280.200,121870.800,138841.100,129166.600,122788.700,132138.300,130591.900,125027.500,-0.143,0.974,-0.279,-5.859,-0.458,1.373,66.667,508.000,1.000,11.288,0.000
125278.000,121828.500,138834.100,129157.900,122789.400,132137.500,130594.300,125036.000,-0.142,0.966,-0.279,-5.981,-0.488,1.465,66.667,509.000,1.000,2.954,0.000
125264.800,121830.800,138822.900,129139.400,122779.300,132131.800,130580.100,125016.500,-0.140,0.961,-0.278,-5.890,-0.366,1.587,66.667,510.000,1.000,0.009,0.000
125276.800,121835.400,138834.300,129150.400,122789.500,132146.200,130587.800,125027.100,-0.138,0.955,-0.283,-5.829,-0.397,1.740,66.667,511.000,1.000,1.962,0.000
125285.200,121828.700,138842.300,129168.100,122796.600,132146.600,130595.500,125040.200,-0.135,0.948,-0.288,-5.768,-0.305,1.801,66.667,512.000,1.000,5.013,0.000
125304.200,121907.600,138863.200,129194.300,122816.900,132177.200,130617.300,125059.400,-0.131,0.944,-0.289,-5.646,-0.214,2.014,66.667,513.000,1.000,5.024,0.000
125283.400,121863.000,138840.600,129174.700,122797.200,132160.800,130608.300,125043.600,-0.125,0.938,-0.287,-5.249,-0.031,2.197,66.667,514.000,1.000,2.475,0.000
125281.400,121795.600,138828.700,129162.500,122783.400,132132.300,130602.100,125036.400,-0.120,0.936,-0.287,-4.883,0.244,2.533,66.667,515.000,1.000,3.741,0.000
125285.800,121824.400,138837.400,129178.700,122789.700,132143.700,130595.300,125036.000,-0.117,0.932,-0.283,-4.547,0.549,2.747,66.667,516.000,1.000,13.743,0.000
125280.500,121856.000,138829.700,129153.600,122779.800,132135.600,130585.000,125021.300,-0.118,0.927,-0.282,-4.181,0.946,3.052,66.667,517.000,1.000,3.093,0.000
125270.300,121837.800,138821.400,129150.400,122778.000,132141.500,130597.800,125025.000,-0.117,0.926,-0.287,-3.815,1.251,3.357,66.667,518.000,1.000,0.013,0.000
125280.800,121833.400,138828.600,129175.000,122783.900,132148.300,130610.000,125032.900,-0.119,0.927,-0.285,-3.296,1.556,3.479,66.667,519.000,1.000,1.911,0.000
125276.900,121878.500,138831.400,129152.000,122789.700,132157.500,130614.300,125037.400,-0.124,0.932,-0.281,-2.899,1.862,3.601,66.667,520.000,1.000,2.523,0.000
125280.900,121889.100,138838.000,129145.500,122796.500,132167.600,130617.300,125040.700,-0.125,0.940,-0.280,-2.625,1.953,3.662,66.667,521.000,1.000,2.384,0.000
125266.900,121791.600,138814.900,129150.700,122769.400,132123.800,130598.700,125027.000,-0.130,0.948,-0.279,-2.411,2.258,3.723,66.667,522.000,1.000,11.356,0.000
125282.700,121826.700,138829.200,129178.200,122773.300,132124.700,130604.200,125033.100,-0.131,0.954,-0.281,-2.380,2.289,3.693,66.667,523.000,1.000,3.096,0.000
125298.200,121883.400,138849.800,129200.100,122786.500,132145.500,130612.600,125044.700,-0.134,0.958,-0.280,-2.319,2.289,3.632,66.667,524.000,1.000,0.009,0.000
125265.100,121827.700,138814.700,129132.500,122757.200,132124.700,130587.300,125016.000,-0.134,0.966,-0.284,-2.319,2.258,3.448,66.667,525.000,1.000,1.904,0.000
125272.000,121799.700,138815.900,129147.600,122753.200,132106.500,130579.600,125015.400,-0.132,0.974,-0.282,-2.380,2.197,3.296,66.667,526.000,1.000,13.670,0.000
125271.300,121843.200,138822.500,129143.700,122759.600,132120.500,130580.600,125010.500,-0.128,0.981,-0.280,-2.502,2.228,3.082,66.667,527.000,1.000,2.480,0.000
125249.100,121811.300,138805.300,129132.700,122750.800,132111.000,130576.900,125003.500,-0.124,0.984,-0.276,-2.747,2.380,2.869,66.667,528.000,1.000,3.870,0.000
125258.600,121837.700,138818.700,129139.800,122763.700,132125.000,130583.800,125010.100,-0.119,0.982,-0.274,-3.174,2.502,2.716,66.667,529.000,1.000,12.455,0.000
125262.700,121882.600,138831.700,129141.600,122780.200,132147.300,130587.900,125016.300,-0.119,0.973,-0.276,-3.754,2.808,2.411,66.667,530.000,1.000,2.472,0.000
125259.900,121840.500,138826.200,129150.000,122777.600,132130.500,130580.100,125015.700,-0.120,0.968,-0.277,-3.998,2.991,2.075,66.667,531.000,1.000,2.575,0.000
125268.300,121852.000,138835.900,129163.500,122789.700,132130.600,130589.300,125027.100,-0.120,0.961,-0.275,-3.937,3.174,1.923,66.667,532.000,1.000,2.451,0.000
125263.700,121834.300,138830.800,129155.000,122788.900,132126.900,130590.000,125024.800,-0.118,0.954,-0.277,-3.998,3.143,1.495,66.667,533.000,1.000,11.259,0.000
125265.900,121853.000,138832.700,129153.700,122793.000,132131.700,130595.600,125025.600,-0.118,0.947,-0.276,-4.028,3.235,1.282,66.667,534.000,1.000,3.084,0.000
125276.900,121828.900,138838.100,129169.700,122798.700,132137.500,130601.200,125032.400,-0.118,0.939,-0.275,-3.967,3.326,1.068,66.667,535.000,1.000,0.012,0.000
125277.200,121828.500,138835.500,129158.400,122797.800,132131.800,130598.900,125032.100,-0.117,0.933,-0.276,-3.876,3.540,0.732,66.667,536.000,1.000,1.868,0.000
125284.500,121831.000,138837.800,129164.300,122797.700,132127.000,130602.500,125038.800,-0.117,0.931,-0.277,-3.510,3.571,0.336,66.667,537.000,1.000,3.107,0.000
125276.100,121827.500,138829.600,129153.800,122791.200,132130.200,130599.600,125030.500,-0.120,0.927,-0.276,-3.265,3.784,0.244,66.667,538.000,1.000,0.018,0.000
125263.300,121834.800,138820.800,129146.600,122781.500,132124.700,130592.900,125017.000,-0.121,0.929,-0.277,-2.899,3.906,-0.031,66.667,539.000,1.000,1.913,0.000
125274.200,121840.600,138831.100,129159.900,122787.900,132132.000,130590.300,125017.800,-0.124,0.933,-0.274,-2.655,3.784,-0.275,66.667,540.000,1.000,2.512,0.000
125280.100,121845.900,138835.900,129158.000,122791.500,132133.800,130595.700,125023.100,-0.127,0.935,-0.274,-2.533,3.723,-0.488,66.667,541.000,1.000,2.471,0.000
125289.000,121906.700,138850.800,129168.900,122806.000,132153.400,130612.600,125035.000,-0.134,0.938,-0.278,-2.441,3.510,-0.610,66.667,542.000,1.000,4.388,0.000
125287.400,121887.500,138846.800,129170.400,122799.400,132146.100,130611.200,125033.900,-0.137,0.942,-0.274,-2.380,3.326,-0.854,66.667,543.000,1.000,0.013,0.000
125255.800,121777.500,138810.900,129153.600,122767.500,132108.400,130588.400,125014.700,-0.137,0.944,-0.273,-2.441,3.082,-1.099,66.667,544.000,1.000,8.045,0.000
125259.900,121806.100,138818.100,129160.400,122769.600,132112.700,130584.900,125013.800,-0.139,0.945,-0.271,-2.380,2.686,-1.160,66.667,545.000,1.000,14.272,0.000
125265.800,121830.300,138822.700,129158.000,122767.100,132115.600,130576.900,125008.200,-0.139,0.947,-0.272,-2.319,2.411,-1.221,66.667,546.000,1.000,0.013,0.000
125269.700,121859.600,138829.800,129163.300,122771.600,132127.200,130582.700,125015.000,-0.139,0.949,-0.274,-2.319,2.197,-1.251,66.667,547.000,1.000,3.787,0.000
125262.200,121822.600,138821.500,129155.500,122762.900,132118.800,130582.000,125012.400,-0.139,0.950,-0.272,-2.441,1.770,-1.282,66.667,548.000,1.000,0.012,0.000
125265.100,121818.900,138823.000,129161.400,122760.200,132110.800,130575.500,125010.100,-0.139,0.951,-0.273,-2.441,1.373,-1.221,66.667,549.000,1.000,11.222,0.000
125272.900,121884.200,138834.400,129147.900,122769.600,132132.900,130575.800,125010.700,-0.135,0.952,-0.273,-2.625,1.068,-0.916,66.667,550.000,1.000,0.013,0.000
125279.900,121905.600,138844.700,129160.600,122777.100,132134.800,130573.000,125015.500,-0.133,0.953,-0.275,-2.747,0.824,-0.885,66.667,551.000,1.000,6.830,0.000
125248.200,121794.600,138809.400,129129.000,122751.400,132110.500,130556.700,124998.900,-0.135,0.952,-0.272,-2.838,0.549,-0.671,66.667,552.000,1.000,0.015,0.000
125258.600,121829.400,138820.400,129140.500,122762.000,132120.400,130566.300,125009.000,-0.134,0.953,-0.271,-2.960,0.488,-0.427,66.667,553.000,1.000,0.009,0.000
125261.200,121842.200,138821.100,129140.100,122762.700,132119.600,130566.900,125009.400,-0.133,0.953,-0.273,-2.960,0.214,-0.183,66.667,554.000,1.000,2.568,0.000
125254.400,121818.600,138812.500,129131.800,122763.300,132131.400,130568.900,125005.200,-0.133,0.954,-0.275,-3.052,0.000,0.153,66.667,555.000,1.000,2.426,0.000
125272.900,121857.800,138835.500,129151.300,122791.400,132156.300,130591.300,125028.600,-0.131,0.958,-0.276,-3.082,-0.244,0.275,66.667,556.000,1.000,6.331,0.000
125264.800,121833.100,138824.500,129150.300,122783.000,132137.300,130590.300,125025.700,-0.132,0.957,-0.277,-3.296,-0.336,0.458,66.667,557.000,1.000,3.770,0.000
125266.900,121850.400,138826.100,129156.300,122784.000,132143.200,130595.400,125024.800,-0.129,0.958,-0.273,-3.540,-0.366,0.641,66.667,558.000,1.000,8.003,0.000
125262.200,121844.400,138828.300,129162.600,122791.500,132150.700,130604.500,125031.700,-0.130,0.957,-0.277,-3.693,-0.458,0.732,66.667,559.000,1.000,0.008,0.000
125264.500,121846.700,138832.500,129148.000,122797.700,132151.600,130607.600,125033.800,-0.127,0.953,-0.272,-3.754,-0.519,0.854,66.667,560.000,1.000,8.796,0.000
125260.000,121827.300,138824.100,129147.900,122791.100,132141.900,130601.100,125025.600,-0.126,0.951,-0.270,-3.967,-0.549,0.977,66.667,561.000,1.000,0.015,0.000
125275.100,121870.500,138835.700,129167.300,122800.800,132154.600,130613.000,125035.000,-0.125,0.951,-0.272,-3.967,-0.458,0.946,66.667,562.000,1.000,2.375,0.000
125261.700,121847.000,138818.600,129149.400,122784.800,132136.200,130606.300,125021.600,-0.124,0.953,-0.270,-4.120,-0.458,0.854,66.667,563.000,1.000,0.008,0.000
125251.400,121801.300,138805.400,129133.300,122774.300,132128.400,130606.500,125016.300,-0.123,0.956,-0.270,-4.303,-0.427,0.824,66.667,564.000,1.000,13.274,0.000
125256.400,121806.900,138813.200,129150.400,122775.100,132128.800,130603.100,125016.500,-0.119,0.959,-0.267,-4.486,-0.488,0.824,66.667,565.000,1.000,4.871,0.000
125265.800,121837.500,138823.300,129157.600,122773.900,132121.300,130587.000,125013.700,-0.118,0.959,-0.267,-4.761,-0.397,0.641,66.667,566.000,1.000,0.010,0.000
125280.500,121861.100,138838.200,129162.500,122781.800,132124.200,130592.400,125021.200,-0.118,0.955,-0.265,-4.883,-0.183,0.702,66.667,567.000,1.000,0.020,0.000
125305.000,121899.200,138863.300,129187.200,122801.900,132153.700,130614.600,125034.800,-0.116,0.949,-0.270,-4.974,-0.214,0.580,66.667,568.000,1.000,5.097,0.000
125287.900,121856.400,138841.300,129164.300,122781.200,132134.000,130594.600,125013.500,-0.116,0.943,-0.270,-4.913,0.061,0.305,66.667,569.000,1.000,2.330,0.000
125271.700,121817.600,138822.000,129147.800,122764.900,132117.200,130577.100,124994.400,-0.118,0.935,-0.275,-4.730,0.336,0.275,66.667,570.000,1.000,3.736,0.000
125293.900,121853.500,138848.300,129179.900,122788.800,132152.100,130593.000,125011.300,-0.119,0.929,-0.276,-4.517,0.458,0.122,66.667,571.000,1.000,16.367,0.000
125288.200,121907.800,138851.100,129163.900,122794.900,132163.900,130597.300,125016.800,-0.116,0.926,-0.276,-4.120,0.610,0.031,66.667,572.000,1.000,3.628,0.000
125272.800,121813.100,138828.300,129171.500,122777.200,132139.400,130588.600,125011.900,-0.113,0.929,-0.275,-3.693,0.885,-0.031,66.667,573.000,1.000,0.011,0.000
125281.300,121846.900,138839.400,129169.000,122786.700,132139.900,130591.800,125021.600,-0.114,0.930,-0.277,-3.174,1.312,-0.122,66.667,574.000,1.000,0.009,0.000
125289.200,121864.700,138849.000,129175.200,122799.000,132145.800,130591.800,125035.800,-0.113,0.929,-0.273,-2.716,1.495,-0.183,66.667,575.000,1.000,2.603,0.000
125265.400,121827.900,138823.500,129142.000,122780.600,132139.400,130573.800,125009.900,-0.114,0.927,-0.271,-2.289,1.770,-0.244,66.667,576.000,1.000,2.407,0.000
125278.000,121871.400,138838.000,129157.600,122793.600,132150.600,130584.400,125022.200,-0.114,0.927,-0.273,-1.678,2.075,-0.458,66.667,577.000,1.000,2.538,0.000
125272.700,121852.600,138832.800,129147.400,122791.400,132148.200,130587.400,125025.800,-0.114,0.931,-0.271,-1.221,2.228,-0.397,66.667,578.000,1.000,8.808,0.000
125260.300,121818.300,138818.300,129137.400,122779.900,132134.900,130579.200,125021.300,-0.115,0.933,-0.268,-0.763,2.533,-0.427,66.667,579.000,1.000,2.549,0.000
125263.000,121845.100,138822.900,129144.200,122784.000,132144.100,130577.100,125022.200,-0.119,0.936,-0.269,-0.397,2.625,-0.488,66.667,580.000,1.000,3.660,0.000
125284.600,121853.300,138839.900,129167.700,122798.800,132157.600,130589.300,125036.500,-0.121,0.941,-0.267,-0.122,2.869,-0.732,66.667,581.000,1.000,13.174,0.000
125279.800,121851.500,138835.800,129152.700,122797.300,132152.400,130595.700,125037.300,-0.123,0.943,-0.268,0.183,2.991,-0.793,66.667,582.000,1.000,0.022,0.000
125283.000,121852.100,138841.800,129175.500,122802.800,132158.200,130607.500,125042.900,-0.125,0.947,-0.264,0.366,3.143,-0.946,66.667,583.000,1.000,24.307,0.000
125279.500,121836.400,138834.700,129166.600,122794.100,132150.600,130602.900,125034.900,-0.126,0.950,-0.262,0.458,3.143,-1.068,66.667,584.000,1.000,2.519,0.000
125263.500,121840.600,138817.300,129137.300,122772.100,132129.600,130579.400,125009.600,-0.126,0.955,-0.262,0.519,3.174,-1.190,66.667,585.000,1.000,4.953,0.000
125270.200,121830.800,138821.100,129143.700,122771.800,132132.700,130577.000,125010.300,-0.127,0.960,-0.266,0.427,3.235,-1.160,66.667,586.000,1.000,2.487,0.000
125278.300,121864.000,138833.300,129157.700,122783.800,132147.500,130593.800,125020.400,-0.127,0.964,-0.268,0.305,3.174,-1.160,66.667,587.000,1.000,2.494,0.000
125264.000,121814.100,138814.300,129143.500,122766.600,132120.700,130583.400,125008.500,-0.125,0.966,-0.267,0.214,3.204,-1.099,66.667,588.000,1.000,6.242,0.000
125274.200,121855.100,138829.000,129173.200,122781.400,132134.500,130592.800,125018.200,-0.126,0.965,-0.269,-0.061,3.174,-1.038,66.667,589.000,1.000,2.472,0.000
125273.500,121842.900,138824.100,129161.600,122779.400,132130.800,130590.900,125023.200,-0.126,0.962,-0.264,-0.275,3.113,-1.038,66.667,590.000,1.000,2.553,0.000
125278.000,121825.000,138822.900,129148.700,122778.700,132125.800,130588.600,125022.800,-0.127,0.958,-0.265,-0.397,3.021,-0.946,66.667,591.000,1.000,2.417,0.000
125278.000,121835.800,138828.200,129151.800,122784.200,132132.300,130597.900,125028.400,-0.128,0.957,-0.266,-0.610,3.021,-0.702,66.667,592.000,1.000,2.601,0.000
125279.000,121857.600,138835.900,129162.600,122792.200,132147.400,130606.800,125035.200,-0.127,0.955,-0.265,-0.763,2.869,-0.793,66.667,593.000,1.000,2.470,0.000
125284.400,121877.900,138845.000,129169.200,122802.300,132164.900,130613.000,125041.300,-0.133,0.951,-0.265,-1.007,2.716,-0.763,66.667,594.000,1.000,2.476,0.000
125292.500,121873.700,138854.200,129180.000,122811.200,132169.800,130621.000,125052.700,-0.135,0.948,-0.267,-1.007,2.441,-0.763,66.667,595.000,1.000,7.448,0.000
125301.000,121959.500,138867.900,129179.100,122818.800,132183.600,130615.500,125047.600,-0.134,0.948,-0.266,-1.190,2.289,-0.702,66.667,596.000,1.000,0.014,0.000
125278.700,121818.900,138834.000,129173.500,122793.700,132148.500,130606.200,125042.500,-0.134,0.948,-0.266,-1.343,2.075,-0.732,66.667,597.000,1.000,0.007,0.000
125260.300,121809.100,138819.400,129151.500,122782.300,132140.200,130595.700,125027.400,-0.135,0.948,-0.268,-1.434,1.801,-0.732,66.667,598.000,1.000,2.577,0.000
125263.500,121856.300,138829.900,129142.700,122793.000,132155.800,130596.700,125026.000,-0.136,0.949,-0.270,-1.556,1.526,-0.763,66.667,599.000,1.000,5.524,0.000
125263.000,121849.000,138830.900,129142.000,122794.600,132161.000,130599.000,125024.700,-0.136,0.951,-0.268,-1.648,1.282,-0.732,66.667,600.000,1.000,0.018,0.000
125262.100,121832.800,138827.200,129143.600,122792.300,132160.500,130599.100,125024.600,-0.135,0.948,-0.270,-1.923,0.854,-0.732,66.667,601.000,1.000,1.880,0.000
125274.300,121885.100,138839.800,129161.700,122800.300,132168.500,130600.000,125029.700,-0.133,0.943,-0.269,-2.075,0.580,-0.763,66.667,602.000,1.000,2.560,0.000
125267.700,121851.300,138832.400,129157.700,122800.400,132163.400,130616.700,125043.600,-0.134,0.941,-0.271,-2.167,0.305,-0.824,66.667,603.000,1.000,2.464,0.000
125262.800,121847.200,138826.200,129137.500,122795.900,132162.600,130610.400,125032.400,-0.134,0.942,-0.270,-2.197,-0.031,-0.854,66.667,604.000,1.000,2.543,0.000
125265.400,121858.800,138830.100,129139.800,122798.200,132164.100,130606.000,125029.300,-0.131,0.941,-0.269,-2.197,-0.397,-0.854,66.667,605.000,1.000,8.758,0.000
125279.700,121899.400,138844.500,129151.000,122807.200,132175.800,130608.200,125033.300,-0.129,0.939,-0.271,-2.167,-0.488,-1.038,66.667,606.000,1.000,3.079,0.000
125275.600,121876.000,138837.400,129150.900,122798.200,132164.200,130606.100,125027.100,-0.125,0.941,-0.270,-2.075,-0.885,-1.068,66.667,607.000,1.000,0.008,0.000
125260.600,121821.300,138822.000,129155.000,122784.700,132142.100,130604.200,125026.600,-0.121,0.945,-0.273,-1.953,-1.068,-1.068,66.667,608.000,1.000,1.901,0.000
125256.800,121839.000,138817.800,129142.800,122780.000,132142.600,130595.800,125021.400,-0.117,0.946,-0.276,-1.984,-1.099,-1.038,66.667,609.000,1.000,11.226,0.000
125268.400,121818.300,138819.800,129156.700,122778.200,132133.900,130589.800,125026.500,-0.117,0.952,-0.277,-1.984,-1.160,-1.038,66.667,610.000,1.000,3.165,0.000
125276.600,121844.500,138831.300,129174.700,122786.500,132139.900,130594.700,125036.700,-0.119,0.955,-0.280,-1.953,-1.160,-0.946,66.667,611.000,1.000,0.008,0.000
125267.600,121857.900,138826.200,129157.400,122782.700,132140.200,130594.900,125038.400,-0.119,0.959,-0.279,-1.984,-1.221,-0.946,66.667,612.000,1.000,1.831,0.000
125262.100,121837.500,138818.900,129159.600,122776.800,132129.700,130596.200,125044.600,-0.118,0.959,-0.278,-2.045,-1.312,-0.854,66.667,613.000,1.000,11.312,0.000
125265.700,121836.600,138815.800,129141.100,122772.000,132125.300,130588.900,125046.200,-0.116,0.955,-0.277,-2.075,-1.373,-0.793,66.667,614.000,1.000,3.016,0.000
125270.600,121833.000,138820.800,129157.300,122774.600,132121.300,130582.600,125051.900,-0.116,0.949,-0.282,-1.984,-1.434,-0.732,66.667,615.000,1.000,0.009,0.000
125267.400,121836.600,138818.700,129154.000,122770.200,132119.100,130573.300,125046.000,-0.116,0.945,-0.279,-1.862,-1.434,-0.824,66.667,616.000,1.000,1.959,0.000
125273.600,121865.200,138826.600,129154.500,122774.900,132126.900,130576.200,125046.800,-0.118,0.947,-0.281,-1.770,-1.465,-0.793,66.667,617.000,1.000,8.701,0.000
125274.600,121857.700,138827.700,129164.200,122780.300,132135.200,130588.100,125053.000,-0.121,0.948,-0.284,-1.465,-1.434,-0.793,66.667,618.000,1.000,3.172,0.000
125273.900,121826.700,138821.700,129153.900,122778.900,132133.500,130591.600,125049.300,-0.122,0.949,-0.281,-1.343,-1.404,-0.946,66.667,619.000,1.000,0.008,0.000
125293.400,121883.800,138846.500,129180.200,122804.000,132164.500,130602.900,125056.800,-0.122,0.950,-0.281,-1.129,-1.434,-0.916,66.667,620.000,1.000,3.016,0.000
125299.200,121866.300,138848.700,129175.100,122810.100,132163.300,130606.700,125055.900,-0.120,0.950,-0.277,-0.977,-1.373,-0.916,66.667,621.000,1.000,11.977,0.000
125293.100,121844.400,138840.200,129153.200,122804.200,132156.500,130606.300,125042.700,-0.119,0.949,-0.280,-0.824,-1.373,-1.038,66.667,622.000,1.000,0.010,0.000
125287.900,121873.400,138845.100,129158.900,122810.000,132168.000,130613.100,125040.900,-0.120,0.948,-0.282,-0.732,-1.465,-1.129,66.667,623.000,1.000,2.312,0.000
125286.000,121862.500,138846.100,129162.600,122813.300,132171.700,130617.600,125041.900,-0.123,0.950,-0.285,-0.610,-1.343,-1.251,66.667,624.000,1.000,0.004,0.000
125284.000,121891.800,138846.700,129151.900,122814.500,132174.100,130610.500,125033.800,-0.123,0.952,-0.281,-0.397,-1.343,-1.373,66.667,625.000,1.000,10.695,0.000
125273.600,121879.000,138839.000,129149.400,122810.200,132169.800,130604.500,125026.300,-0.122,0.956,-0.281,-0.183,-1.251,-1.312,66.667,626.000,1.000,3.142,0.000
125264.400,121833.100,138828.100,129149.100,122800.500,132160.500,130602.700,125021.000,-0.120,0.956,-0.281,-0.031,-1.129,-1.343,66.667,627.000,1.000,0.007,0.000
125257.300,121833.800,138823.200,129144.500,122794.800,132153.800,130601.100,125016.400,-0.119,0.956,-0.287,0.031,-1.038,-1.434,66.667,628.000,1.000,5.669,0.000
125258.800,121839.600,138823.800,129145.600,122791.900,132154.100,130596.200,125013.200,-0.118,0.958,-0.287,0.183,-0.977,-1.190,66.667,629.000,1.000,6.275,0.000
125270.600,121852.000,138833.000,129152.900,122797.600,132162.100,130598.700,125016.900,-0.116,0.956,-0.285,0.305,-0.763,-1.129,66.667,630.000,1.000,10.510,0.000
125281.200,121869.700,138839.900,129156.700,122801.900,132169.100,130600.600,125020.100,-0.116,0.956,-0.289,0.397,-0.580,-1.068,66.667,631.000,1.000,0.012,0.000
125272.000,121868.400,138831.500,129150.400,122794.400,132164.300,130598.400,125018.200,-0.115,0.952,-0.288,0.580,-0.458,-0.946,66.667,632.000,1.000,1.904,0.000
125267.000,121858.200,138827.800,129155.400,122791.500,132153.700,130602.000,125028.200,-0.115,0.951,-0.285,0.793,-0.153,-0.916,66.667,633.000,1.000,2.524,0.000
125258.100,121839.900,138819.400,129158.000,122782.900,132141.800,130596.200,125031.500,-0.115,0.949,-0.288,1.068,0.244,-0.916,66.667,634.000,1.000,2.473,0.000
125260.800,121863.500,138822.700,129150.200,122785.200,132150.800,130594.100,125035.600,-0.116,0.949,-0.288,1.221,0.366,-0.824,66.667,635.000,1.000,12.497,0.000
125257.300,121847.600,138815.700,129142.700,122778.000,132143.400,130589.100,125038.300,-0.117,0.948,-0.290,1.617,0.732,-0.702,66.667,636.000,1.000,3.028,0.000
125256.000,121822.200,138810.900,129145.100,122772.700,132130.500,130593.600,125048.700,-0.117,0.944,-0.288,1.953,0.854,-0.702,66.667,637.000,1.000,0.012,0.000
125249.600,121833.200,138808.300,129147.300,122772.800,132131.400,130598.100,125054.900,-0.115,0.938,-0.286,2.136,1.038,-0.702,66.667,638.000,1.000,1.875,0.000
125245.400,121824.900,138806.400,129151.300,122770.600,132122.300,130593.500,125054.300,-0.115,0.932,-0.288,2.411,1.343,-0.702,66.667,639.000,1.000,2.572,0.000
125240.500,121824.300,138801.600,129146.400,122767.500,132117.200,130583.900,125048.500,-0.116,0.928,-0.288,2.808,1.526,-0.671,66.667,640.000,1.000,6.298,0.000
125256.000,121839.400,138812.900,129160.500,122780.300,132123.600,130588.200,125055.700,-0.117,0.925,-0.293,3.174,1.862,-0.854,66.667,641.000,1.000,3.668,0.000
125250.200,121846.000,138804.400,129131.700,122775.700,132120.600,130586.300,125043.400,-0.119,0.927,-0.294,3.601,2.106,-0.854,66.667,642.000,1.000,9.473,0.000
125254.300,121852.600,138809.600,129142.800,122783.800,132128.700,130594.000,125043.800,-0.121,0.934,-0.296,4.028,2.167,-0.885,66.667,643.000,1.000,0.010,0.000
125259.400,121838.900,138813.600,129152.100,122791.600,132137.700,130599.900,125043.200,-0.122,0.937,-0.296,4.364,2.319,-0.916,66.667,644.000,1.000,13.653,0.000
125263.100,121835.400,138814.300,129143.400,122791.900,132139.600,130591.700,125031.100,-0.121,0.937,-0.291,4.578,2.289,-1.038,66.667,645.000,1.000,0.012,0.000
125281.400,121862.300,138831.100,129155.900,122806.600,132159.500,130601.200,125038.900,-0.124,0.931,-0.289,4.578,2.441,-1.007,66.667,646.000,1.000,6.831,0.000
125289.900,121865.200,138835.100,129157.000,122805.300,132162.200,130604.400,125028.700,-0.125,0.928,-0.296,4.730,2.441,-1.068,66.667,647.000,1.000,6.354,0.000
125284.600,121866.700,138831.800,129150.700,122801.800,132162.200,130607.800,125021.400,-0.131,0.930,-0.298,4.974,2.411,-1.221,66.667,648.000,1.000,4.966,0.000
125278.900,121847.700,138826.300,129145.500,122797.300,132158.800,130603.100,125015.800,-0.138,0.935,-0.296,4.944,2.228,-1.556,66.667,649.000,1.000,2.475,0.000
125288.700,121863.100,138839.700,129162.100,122808.800,132171.500,130604.600,125017.100,-0.144,0.939,-0.294,5.035,2.014,-1.892,66.667,650.000,1.000,3.046,0.000
125296.700,121879.400,138844.900,129161.900,122811.100,132172.700,130599.400,125011.600,-0.143,0.942,-0.292,4.852,1.740,-2.228,66.667,651.000,1.000,0.011,0.000
125293.500,121885.000,138843.300,129151.300,122808.100,132166.800,130597.800,125007.100,-0.147,0.944,-0.294,4.791,1.587,-2.502,66.667,652.000,1.000,1.977,0.000
125283.300,121864.200,138835.100,129147.900,122802.100,132158.600,130596.600,125002.500,-0.148,0.946,-0.295,4.761,1.221,-2.747,66.667,653.000,1.000,2.522,0.000
125281.900,121854.900,138827.500,129144.800,122793.600,132153.300,130589.400,124996.200,-0.150,0.950,-0.296,4.547,0.885,-2.899,66.667,654.000,1.000,2.447,0.000
125284.600,121850.600,138824.500,129146.400,122786.200,132143.900,130579.900,124993.900,-0.148,0.953,-0.299,4.303,0.519,-2.960,66.667,655.000,1.000,2.504,0.000
125285.000,121855.500,138824.900,129138.500,122782.300,132138.000,130576.100,124998.400,-0.147,0.958,-0.303,4.120,-0.031,-3.113,66.667,656.000,1.000,4.312,0.000
125283.900,121875.900,138832.100,129147.000,122786.400,132151.900,130585.200,125010.200,-0.145,0.963,-0.305,3.906,-0.336,-3.143,66.667,657.000,1.000,0.009,0.000
125269.700,121835.300,138813.900,129138.500,122767.800,132130.600,130580.500,125009.100,-0.143,0.968,-0.306,3.510,-0.549,-3.143,66.667,658.000,1.000,8.188,0.000
125269.400,121840.100,138815.100,129161.700,122769.700,132132.300,130584.400,125021.100,-0.144,0.968,-0.307,3.082,-0.671,-2.930,66.667,659.000,1.000,2.988,0.000
125269.600,121848.200,138814.700,129143.600,122775.800,132144.800,130591.800,125031.400,-0.145,0.966,-0.305,2.625,-0.854,-2.808,66.667,660.000,1.000,0.005,0.000
125268.500,121855.300,138816.500,129146.500,122782.400,132147.200,130596.000,125039.300,-0.144,0.965,-0.306,2.228,-1.160,-2.655,66.667,661.000,1.000,15.790,0.000
125253.900,121841.900,138808.200,129138.500,122778.900,132139.400,130594.500,125035.000,-0.145,0.964,-0.309,2.014,-1.282,-2.502,66.667,662.000,1.000,3.051,0.000
125247.000,121843.700,138807.700,129133.800,122781.400,132136.600,130592.500,125034.000,-0.148,0.959,-0.308,1.648,-1.495,-2.380,66.667,663.000,1.000,0.017,0.000
125246.000,121853.600,138811.600,129134.400,122786.600,132138.400,130590.400,125035.900,-0.150,0.957,-0.306,1.373,-1.831,-2.258,66.667,664.000,1.000,1.838,0.000
125246.300,121859.300,138816.600,129135.700,122797.000,132153.700,130593.200,125035.300,-0.148,0.954,-0.306,1.099,-2.045,-2.197,66.667,665.000,1.000,2.536,0.000
125255.400,121848.900,138821.900,129138.600,122801.000,132145.300,130594.600,125034.500,-0.144,0.949,-0.306,0.885,-2.380,-2.045,66.667,666.000,1.000,3.782,0.000
125258.300,121851.300,138825.100,129150.000,122806.100,132151.800,130604.200,125037.700,-0.142,0.946,-0.308,0.732,-2.502,-1.801,66.667,667.000,1.000,4.277,0.000
125251.000,121836.800,138814.800,129138.600,122797.900,132143.900,130604.800,125035.200,-0.142,0.941,-0.303,0.549,-2.625,-1.648,66.667,668.000,1.000,0.032,0.000
125256.900,121845.100,138817.700,129135.900,122799.500,132144.300,130605.600,125025.200,-0.140,0.943,-0.307,0.580,-2.777,-1.404,66.667,669.000,1.000,13.175,0.000
125264.400,121856.600,138824.700,129143.300,122803.000,132146.900,130596.000,125015.200,-0.140,0.946,-0.307,0.519,-2.869,-1.160,66.667,670.000,1.000,2.483,0.000
125260.400,121867.400,138823.400,129140.300,122799.600,132148.200,130588.400,125005.100,-0.139,0.943,-0.305,0.427,-2.808,-1.007,66.667,671.000,1.000,2.440,0.000
125250.800,121841.000,138813.100,129143.000,122791.200,132144.100,130584.100,124997.100,-0.137,0.942,-0.300,0.275,-2.777,-0.763,66.667,672.000,1.000,2.571,0.000
125254.500,121840.800,138815.100,129141.500,122790.100,132138.400,130588.900,124999.000,-0.138,0.938,-0.298,0.244,-2.808,-0.671,66.667,673.000,1.000,9.269,0.000
125260.100,121851.200,138815.600,129127.900,122785.200,132137.300,130583.900,124990.700,-0.136,0.936,-0.296,0.366,-2.716,-0.641,66.667,674.000,1.000,0.011,0.000
125263.900,121845.400,138817.000,129140.000,122780.600,132128.000,130576.000,124986.400,-0.133,0.934,-0.292,0.397,-2.563,-0.580,66.667,675.000,1.000,4.481,0.000
125273.800,121855.700,138825.400,129147.000,122785.600,132130.800,130579.600,124994.000,-0.133,0.935,-0.296,0.549,-2.411,-0.488,66.667,676.000,1.000,2.497,0.000
125271.800,121852.400,138819.200,129133.700,122776.200,132127.200,130578.300,124988.200,-0.128,0.934,-0.290,0.732,-2.106,-0.519,66.667,677.000,1.000,3.713,0.000
125275.700,121847.800,138821.100,129140.700,122776.400,132130.800,130586.300,124994.900,-0.126,0.933,-0.291,0.916,-1.831,-0.458,66.667,678.000,1.000,7.482,0.000
125281.200,121858.000,138826.500,129151.300,122780.500,132139.200,130589.900,125000.900,-0.123,0.931,-0.293,1.007,-1.587,-0.336,66.667,679.000,1.000,6.879,0.000
125279.700,121855.900,138817.000,129140.200,122768.900,132132.600,130573.500,124985.200,-0.121,0.932,-0.290,1.160,-1.129,-0.275,66.667,680.000,1.000,0.029,0.000
125283.400,121856.100,138817.000,129143.300,122765.900,132131.700,130566.300,124980.100,-0.120,0.932,-0.290,1.404,-0.763,-0.061,66.667,681.000,1.000,1.843,0.000
125282.500,121869.400,138823.500,129141.800,122773.900,132145.200,130579.100,124992.700,-0.119,0.933,-0.293,1.526,-0.305,0.122,66.667,682.000,1.000,2.541,0.000
125269.800,121849.400,138812.800,129126.400,122765.600,132134.300,130578.800,124994.600,-0.119,0.933,-0.293,1.678,0.244,0.061,66.667,683.000,1.000,13.721,0.000
125267.000,121843.200,138807.800,129128.200,122760.200,132127.500,130569.400,124991.500,-0.118,0.937,-0.294,1.892,0.793,0.153,66.667,684.000,1.000,3.129,0.000
125277.100,121859.300,138823.300,129144.700,122779.300,132138.600,130580.100,125012.200,-0.120,0.937,-0.294,2.014,1.312,0.153,66.667,685.000,1.000,0.011,0.000
125270.700,121853.200,138818.900,129134.800,122780.100,132131.100,130570.500,125008.700,-0.116,0.935,-0.292,2.136,1.862,0.183,66.667,686.000,1.000,1.807,0.000
125268.800,121857.200,138819.300,129135.200,122786.300,132138.200,130574.900,125011.200,-0.114,0.935,-0.291,2.197,2.411,0.122,66.667,687.000,1.000,5.027,0.000
125261.800,121852.500,138818.000,129144.500,122790.600,132138.000,130585.100,125016.500,-0.113,0.932,-0.291,2.289,2.960,0.061,66.667,688.000,1.000,3.967,0.000
125261.800,121850.300,138821.600,129155.800,122797.600,132143.500,130593.100,125025.600,-0.113,0.933,-0.291,2.502,3.418,-0.092,66.667,689.000,1.000,4.839,0.000
125264.000,121851.600,138820.700,129129.200,122797.800,132146.200,130591.200,125022.000,-0.114,0.936,-0.294,2.655,4.089,-0.061,66.667,690.000,1.000,3.050,0.000
125269.700,121860.600,138824.900,129137.400,122800.300,132150.400,130590.900,125021.700,-0.115,0.937,-0.294,2.808,4.578,-0.244,66.667,691.000,1.000,0.009,0.000
125261.800,121849.700,138816.900,129134.400,122790.000,132143.800,130586.900,125013.700,-0.118,0.940,-0.293,2.869,5.035,-0.305,66.667,692.000,1.000,1.930,0.000
125252.700,121841.000,138807.100,129126.800,122776.900,132134.000,130581.300,125003.900,-0.119,0.942,-0.295,2.838,5.554,-0.488,66.667,693.000,1.000,13.752,0.000
125260.100,121850.700,138816.300,129136.900,122782.400,132140.300,130586.200,125009.600,-0.119,0.942,-0.296,2.930,5.890,-0.702,66.667,694.000,1.000,3.079,0.000
125272.900,121852.400,138827.900,129149.100,122791.800,132149.800,130590.700,125015.300,-0.122,0.942,-0.298,2.960,6.256,-0.885,66.667,695.000,1.000,0.018,0.000
125274.500,121853.900,138826.300,129136.900,122787.300,132146.400,130583.200,125005.900,-0.124,0.941,-0.299,2.960,6.683,-1.282,66.667,696.000,1.000,1.837,0.000
125265.800,121846.400,138817.300,129135.100,122775.600,132135.700,130575.200,124997.600,-0.127,0.941,-0.301,3.021,6.897,-1.373,66.667,697.000,1.000,2.480,0.000
125260.900,121850.000,138812.700,129131.800,122770.400,132139.000,130577.200,124992.800,-0.131,0.941,-0.297,3.052,7.111,-1.617,66.667,698.000,1.000,13.837,0.000
125250.100,121833.600,138799.500,129122.000,122756.500,132126.200,130565.000,124978.100,-0.132,0.941,-0.300,2.960,7.416,-1.862,66.667,699.000,1.000,4.911,0.000
125249.700,121831.700,138798.000,129122.700,122753.000,132125.500,130562.200,124975.000,-0.135,0.940,-0.302,2.960,7.477,-2.045,66.667,700.000,1.000,0.009,0.000
125257.600,121840.600,138806.800,129133.000,122760.300,132134.200,130568.100,124985.100,-0.137,0.940,-0.301,3.052,7.660,-2.258,66.667,701.000,1.000,0.003,0.000
125258.700,121842.100,138805.800,129120.500,122757.400,132130.300,130572.400,124985.800,-0.140,0.938,-0.304,3.113,7.751,-2.319,66.667,702.000,1.000,7.548,0.000
125250.800,121841.900,138798.200,129124.100,122751.800,132124.700,130571.200,124986.200,-0.141,0.938,-0.303,2.930,7.568,-2.533,66.667,703.000,1.000,2.485,0.000
125252.800,121834.800,138796.600,129125.900,122749.800,132117.400,130564.200,124989.000,-0.141,0.936,-0.304,2.991,7.477,-2.594,66.667,704.000,1.000,2.501,0.000
125263.300,121846.000,138809.800,129145.200,122766.200,132129.600,130577.900,125012.000,-0.144,0.935,-0.305,2.960,7.355,-2.563,66.667,705.000,1.000,2.472,0.000
125263.300,121854.200,138808.600,129136.600,122767.100,132128.200,130578.500,125018.600,-0.147,0.934,-0.311,3.082,7.263,-2.502,66.667,706.000,1.000,3.697,0.000
125251.200,121817.300,138792.800,129127.700,122755.700,132111.400,130571.000,125011.800,-0.150,0.934,-0.311,3.174,7.111,-2.472,66.667,707.000,1.000,31.896,0.000
125249.900,121826.500,138794.500,129129.400,122763.000,132116.200,130583.300,125019.800,-0.156,0.930,-0.312,3.113,6.714,-2.411,66.667,708.000,1.000,0.023,0.000
125252.300,121833.000,138798.900,129139.200,122774.600,132121.300,130592.900,125033.300,-0.158,0.928,-0.315,3.204,6.348,-2.380,66.667,709.000,1.000,5.090,0.000
125250.200,121836.000,138799.800,129144.900,122780.500,132120.500,130589.400,125033.300,-0.155,0.926,-0.316,3.204,5.920,-2.319,66.667,710.000,1.000,0.018,0.000
125243.500,121823.800,138793.400,129127.800,122775.200,132109.900,130580.300,125020.600,-0.149,0.927,-0.317,3.418,5.585,-2.106,66.667,711.000,1.000,0.010,0.000
125243.300,121827.100,138795.900,129127.200,122778.500,132113.400,130588.300,125022.300,-0.147,0.929,-0.319,3.510,5.341,-1.984,66.667,712.000,1.000,0.008,0.000
125244.000,121827.800,138795.700,129124.100,122778.000,132116.800,130595.200,125021.000,-0.147,0.935,-0.322,3.632,5.188,-1.740,66.667,713.000,1.000,0.009,0.000
125250.100,121835.100,138803.300,129134.000,122784.400,132123.300,130597.900,125022.200,-0.148,0.938,-0.320,3.540,4.944,-1.465,66.667,714.000,1.000,9.196,0.000
125250.300,121839.700,138803.500,129136.900,122782.200,132121.900,130587.000,125013.600,-0.146,0.941,-0.319,3.418,4.822,-1.251,66.667,715.000,1.000,0.008,0.000
125248.400,121833.900,138797.600,129119.400,122775.500,132119.300,130578.700,125002.500,-0.146,0.944,-0.323,3.296,4.547,-1.129,66.667,716.000,1.000,0.003,0.000
125257.700,121839.000,138805.500,129132.600,122782.300,132133.700,130595.500,125011.300,-0.144,0.947,-0.322,3.113,4.242,-1.007,66.667,717.000,1.000,2.604,0.000
125253.700,121841.000,138803.300,129132.400,122776.600,132133.500,130593.300,125003.800,-0.141,0.951,-0.320,2.899,4.150,-0.885,66.667,718.000,1.000,4.933,0.000
125251.000,121847.200,138799.700,129119.000,122768.100,132135.100,130578.700,124986.000,-0.139,0.954,-0.319,2.655,4.028,-0.702,66.667,719.000,1.000,2.464,0.000
125267.300,121854.700,138815.100,129137.300,122778.700,132148.200,130589.900,124991.800,-0.138,0.956,-0.317,2.411,3.815,-0.519,66.667,720.000,1.000,2.542,0.000
125261.700,121839.500,138805.200,129112.400,122763.700,132129.400,130573.900,124974.500,-0.137,0.955,-0.317,2.045,3.693,-0.275,66.667,721.000,1.000,4.994,0.000
125260.000,121842.700,138804.100,129121.900,122758.900,132121.900,130568.100,124969.900,-0.134,0.957,-0.315,1.709,3.723,-0.092,66.667,722.000,1.000,2.492,0.000
125255.900,121845.400,138802.500,129121.500,122759.200,132119.500,130575.400,124974.200,-0.132,0.953,-0.314,1.343,3.693,0.000,66.667,723.000,1.000,8.807,0.000
125257.800,121847.000,138805.400,129126.200,122763.100,132120.800,130577.400,124978.300,-0.130,0.955,-0.315,0.977,3.693,0.061,66.667,724.000,1.000,11.789,0.000
125255.100,121847.900,138802.800,129129.500,122762.900,132118.300,130571.500,124983.700,-0.130,0.953,-0.318,0.763,3.754,0.183,66.667,725.000,1.000,0.016,0.000
125250.100,121835.300,138796.300,129114.900,122760.700,132113.200,130567.000,124990.900,-0.132,0.952,-0.315,0.366,3.815,0.092,66.667,726.000,1.000,1.857,0.000
125247.000,121834.900,138800.200,129127.500,122767.200,132114.500,130577.900,125009.100,-0.132,0.950,-0.317,0.000,3.876,0.092,66.667,727.000,1.000,5.038,0.000
125254.400,121847.500,138813.500,129147.000,122784.500,132127.100,130599.600,125039.100,-0.128,0.948,-0.318,-0.244,3.967,0.122,66.667,728.000,1.000,2.463,0.000
125244.800,121834.900,138800.700,129134.800,122772.000,132116.600,130582.700,125027.900,-0.126,0.945,-0.316,-0.336,4.059,0.122,66.667,729.000,1.000,2.513,0.000
125235.400,121825.100,138787.900,129117.700,122761.900,132108.200,130569.400,125019.000,-0.122,0.942,-0.318,-0.549,4.181,-0.061,66.667,730.000,1.000,2.455,0.000
125247.600,121840.800,138801.800,129133.800,122777.300,132121.000,130581.900,125034.100,-0.122,0.940,-0.315,-0.610,4.333,0.122,66.667,731.000,1.000,2.568,0.000
125246.800,121840.500,138806.500,129138.900,122784.700,132126.600,130593.700,125040.900,-0.121,0.940,-0.318,-0.671,4.486,-0.122,66.667,732.000,1.000,2.445,0.000
125241.000,121825.600,138801.800,129135.100,122780.600,132121.900,130596.000,125037.700,-0.120,0.941,-0.319,-0.641,4.700,-0.244,66.667,733.000,1.000,11.865,0.000
125243.800,121829.200,138802.800,129133.000,122779.600,132121.100,130593.900,125033.100,-0.123,0.941,-0.317,-0.671,4.852,-0.427,66.667,734.000,1.000,0.017,0.000
125249.900,121840.800,138806.800,129134.700,122781.200,132126.700,130591.300,125028.300,-0.124,0.941,-0.320,-0.793,5.035,-0.519,66.667,735.000,1.000,2.471,0.000
125263.700,121849.300,138817.800,129145.700,122790.700,132141.900,130598.800,125033.100,-0.122,0.939,-0.316,-0.763,5.280,-0.641,66.667,736.000,1.000,0.007,0.000
125277.600,121858.300,138828.800,129157.700,122799.200,132150.900,130611.200,125040.800,-0.124,0.939,-0.317,-0.763,5.341,-0.671,66.667,737.000,1.000,1.879,0.000
125261.200,121843.900,138809.500,129130.600,122778.500,132134.200,130595.800,125015.500,-0.126,0.936,-0.320,-0.702,5.554,-0.793,66.667,738.000,1.000,8.721,0.000
125263.100,121843.700,138807.900,129129.600,122775.300,132130.900,130589.300,125007.300,-0.125,0.936,-0.318,-0.885,5.676,-1.038,66.667,739.000,1.000,3.121,0.000
125271.900,121858.700,138818.500,129138.000,122783.900,132140.400,130590.300,125009.800,-0.126,0.936,-0.316,-0.732,5.920,-1.190,66.667,740.000,1.000,0.009,0.000
125269.700,121851.300,138817.700,129137.800,122781.900,132139.200,130587.200,125007.100,-0.125,0.938,-0.317,-0.793,5.859,-1.312,66.667,741.000,1.000,3.088,0.000
125272.100,121853.800,138818.100,129138.200,122782.000,132141.500,130594.200,125010.100,-0.126,0.945,-0.320,-1.007,5.829,-1.617,66.667,742.000,1.000,7.523,0.000
125253.800,121835.300,138796.800,129116.700,122760.400,132122.500,130577.600,124989.500,-0.127,0.948,-0.318,-1.160,5.890,-1.862,66.667,743.000,1.000,2.565,0.000
125256.000,121841.100,138800.400,129117.500,122765.000,132133.500,130581.500,124989.000,-0.129,0.949,-0.321,-1.434,5.981,-1.953,66.667,744.000,1.000,27.496,0.000
125270.600,121858.400,138814.100,129131.000,122778.500,132149.700,130590.300,124997.800,-0.132,0.949,-0.320,-1.587,5.829,-2.045,66.667,745.000,1.000,3.011,0.000
