EEG 1, EEG 2, EEG 3, EEG 4, EEG 5, EEG 6, EEG 7, EEG 8, ACC X, ACC Y, ACC Z, GYR X, GYR Y, GYR Z, BAT, CNT, VALID, DT, TRIG
136578.600,136578.600,24727.470,119754.300,136578.600,136578.600,136578.600,136578.600,-0.087,0.915,-0.271,0.000,0.000,0.000,73.333,1.000,1.000,0.000,0.000
469382.100,469382.100,93912.700,393576.000,423522.300,456525.100,469382.100,469382.100,-0.077,0.924,-0.284,0.000,0.000,0.000,73.333,2.000,1.000,15.432,0.000
693161.500,731059.300,197717.000,592402.000,458415.800,618459.300,731059.300,717402.200,-0.083,0.937,-0.289,0.000,0.000,0.000,73.333,3.000,1.000,2.436,0.000
659368.600,801568.300,359452.300,666904.200,127405.900,479810.100,801568.300,742193.800,-0.087,0.953,-0.284,0.000,0.000,0.000,73.333,4.000,1.000,2.495,0.000
574683.300,805597.100,536772.400,737692.600,-210860.100,321676.500,814894.100,710857.300,-0.089,0.958,-0.283,-5.737,5.402,-7.690,73.333,5.000,1.000,2.685,0.000
505378.600,710164.800,621283.700,772789.300,-472158.300,287526.400,797996.100,704645.800,-0.094,0.947,-0.287,-5.676,6.317,-5.737,73.333,6.000,1.000,2.333,0.000
390557.000,451692.800,644153.300,738386.300,-740121.600,315932.100,731418.800,685595.400,-0.097,0.940,-0.292,-3.204,4.425,-1.617,73.333,7.000,1.000,8.699,0.000
389573.000,287816.900,687519.000,718551.700,-681974.300,403916.300,695083.400,683979.900,-0.102,0.950,-0.296,-1.953,3.845,-0.336,73.333,8.000,1.000,4.416,0.000
589004.600,429353.900,725983.300,742548.300,-83266.570,573632.300,725707.700,733425.800,-0.103,0.966,-0.296,-1.587,3.510,-0.092,73.333,9.000,1.000,0.024,0.000
775768.800,666264.500,735678.100,770316.200,575113.600,756716.000,775234.200,793209.100,-0.103,0.980,-0.294,-1.801,3.326,-0.214,73.333,10.000,1.000,10.503,0.000
810156.000,770041.300,747211.300,764699.300,844352.400,812808.900,781121.700,792149.600,-0.102,0.988,-0.291,-2.197,3.113,-0.641,73.333,11.000,1.000,2.514,0.000
754183.300,771545.900,760253.900,722946.900,839338.400,729301.400,727119.200,720846.300,-0.103,0.986,-0.283,-2.777,2.960,-0.793,73.333,12.000,1.000,3.199,0.000
711931.800,762078.400,756264.800,707891.200,802520.500,679507.100,693304.600,680449.600,-0.107,0.975,-0.283,-3.632,2.777,-0.854,73.333,13.000,1.000,0.026,0.000
713791.300,737479.900,734131.100,729357.900,760802.900,729165.900,705111.500,710711.100,-0.111,0.961,-0.288,-4.395,2.594,-0.671,73.333,14.000,1.000,24.309,0.000
742921.800,713521.400,717468.100,751496.700,703915.100,765509.200,699703.900,734594.300,-0.117,0.951,-0.294,-4.700,2.289,-0.763,73.333,15.000,1.000,2.526,0.000
745648.900,695893.900,727520.800,746447.400,652224.600,689182.900,622303.600,663899.600,-0.121,0.947,-0.294,-4.730,1.831,-0.916,73.333,16.000,1.000,2.474,0.000
675837.600,645949.700,742694.800,713445.800,597357.900,527526.900,487780.800,514000.300,-0.121,0.946,-0.295,-4.608,1.404,-1.282,73.333,17.000,1.000,2.524,0.000
573720.300,568880.900,740799.100,701097.400,534892.100,410181.300,379480.000,395780.100,-0.119,0.949,-0.294,-4.425,1.038,-1.678,73.333,18.000,1.000,2.405,0.000
487180.300,468347.900,722479.400,716695.400,436063.100,377158.900,328385.800,348666.600,-0.117,0.954,-0.288,-4.425,0.641,-1.984,73.333,19.000,1.000,2.579,0.000
429291.300,372878.600,708309.400,732800.400,332157.000,360233.300,307774.600,332471.300,-0.115,0.953,-0.285,-4.486,0.244,-1.984,73.333,20.000,1.000,2.500,0.000
378043.900,316084.000,715261.300,728551.700,287154.000,313901.800,279386.800,298577.200,-0.112,0.946,-0.281,-4.669,0.031,-2.014,73.333,21.000,1.000,2.500,0.000
323282.200,297904.500,726491.900,703549.600,290341.800,242129.200,226892.000,236189.900,-0.112,0.943,-0.275,-4.578,-0.183,-2.014,73.333,22.000,1.000,2.419,0.000
292003.500,298993.300,724639.900,693659.900,299245.700,205959.900,190189.400,196739.500,-0.108,0.936,-0.278,-4.395,-0.427,-1.862,73.333,23.000,1.000,2.602,0.000
285175.800,279713.600,710198.400,704146.300,269349.800,222648.300,188258.200,200915.000,-0.108,0.937,-0.281,-4.242,-0.397,-1.740,73.333,24.000,1.000,5.510,0.000
289715.800,249853.200,698801.200,715018.100,224978.700,242970.100,203360.400,220900.500,-0.110,0.934,-0.277,-3.601,-0.671,-1.587,73.333,25.000,1.000,0.018,0.000
286957.800,238633.300,703156.100,711425.600,219793.000,236278.700,208079.600,222708.000,-0.108,0.936,-0.279,-3.387,-0.763,-1.465,73.333,26.000,1.000,1.872,0.000
268840.700,246139.900,710844.600,693226.400,242930.700,202399.000,186728.200,194990.100,-0.112,0.938,-0.273,-2.747,-1.007,-1.251,73.333,27.000,1.000,3.817,0.000
253414.000,254861.300,708957.900,685453.600,257015.600,181994.900,165300.700,171926.300,-0.108,0.936,-0.277,-2.777,-1.282,-1.251,73.333,28.000,1.000,11.871,0.000
246623.800,239686.700,697866.300,691669.800,232740.800,191769.500,161985.000,172940.800,-0.117,0.947,-0.275,-2.136,-1.251,-0.916,73.333,29.000,1.000,0.021,0.000
247006.400,215110.100,688888.700,698165.400,196741.100,203610.500,170580.800,184852.200,-0.112,0.949,-0.274,-1.984,-1.709,-0.854,73.333,30.000,1.000,2.387,0.000
244748.900,206158.700,691062.900,695091.800,192821.500,199274.600,174174.000,186437.900,-0.115,0.957,-0.276,-1.740,-1.709,-0.671,73.333,31.000,1.000,0.010,0.000
233762.200,213091.600,695729.800,682494.100,212170.000,177768.300,160886.100,168891.000,-0.117,0.961,-0.274,-1.740,-2.045,-0.458,73.333,32.000,1.000,8.189,0.000
223780.800,220454.600,693787.600,676488.100,223466.400,163994.900,146246.400,153193.600,-0.109,0.963,-0.273,-1.984,-2.075,-0.641,73.333,33.000,1.000,9.365,0.000
217660.000,209124.000,685501.500,679255.200,204618.600,168583.700,142367.900,152124.600,-0.117,0.967,-0.272,-1.678,-2.350,-0.397,73.333,34.000,1.000,0.016,0.000
215950.800,190325.200,678565.100,682205.900,177137.600,174557.800,146652.300,158440.900,-0.110,0.964,-0.279,-2.014,-2.533,-0.519,73.333,35.000,1.000,3.801,0.000
213942.400,183246.200,678966.100,679526.400,174153.300,171948.400,149153.800,159644.700,-0.110,0.969,-0.278,-2.045,-2.411,-0.427,73.333,36.000,1.000,0.012,0.000
207867.500,188790.500,681137.900,671393.000,189260.000,159727.300,141743.200,149635.800,-0.107,0.965,-0.280,-2.289,-2.594,-0.610,73.333,37.000,1.000,13.693,0.000
201679.600,194289.900,679127.900,666817.100,197535.900,150898.100,132235.100,139501.400,-0.103,0.968,-0.273,-2.411,-2.472,-0.549,73.333,38.000,1.000,0.016,0.000
196004.200,185931.800,673118.400,666897.100,183206.300,151345.500,127931.300,136781.000,-0.104,0.975,-0.275,-2.411,-2.319,-0.671,73.333,39.000,1.000,6.833,0.000
192637.800,171926.500,667852.400,667073.400,162923.700,152665.600,128777.500,138640.900,-0.098,0.979,-0.273,-2.869,-2.075,-0.793,73.333,40.000,1.000,0.030,0.000
190596.000,166247.800,666861.800,663198.100,160491.700,151137.500,130149.300,139261.600,-0.097,0.985,-0.272,-2.838,-1.862,-0.671,73.333,41.000,1.000,0.008,0.000
187947.800,170207.500,667040.700,653334.300,171540.500,145788.700,126986.800,134788.600,-0.094,0.982,-0.273,-3.448,-1.556,-0.916,73.333,42.000,1.000,5.202,0.000
184444.800,173820.300,664957.800,641784.500,177001.100,140640.000,121340.100,128846.500,-0.094,0.979,-0.272,-3.662,-1.068,-0.916,73.333,43.000,1.000,4.802,0.000
179129.600,167742.300,660734.600,631145.600,166379.600,137949.500,116768.000,124908.600,-0.089,0.973,-0.270,-4.028,-0.488,-1.007,73.333,44.000,1.000,2.502,0.000
174559.800,157628.000,656792.300,620782.100,152030.300,135747.400,114978.500,123364.900,-0.090,0.971,-0.273,-4.272,0.153,-0.977,73.333,45.000,1.000,6.903,0.000
172438.900,153088.400,654753.500,610755.100,149987.800,134922.500,115351.700,123420.100,-0.085,0.965,-0.270,-4.242,0.580,-0.854,73.333,46.000,1.000,0.016,0.000
172202.600,155615.200,653398.600,601894.500,157514.300,134598.400,115253.900,122987.500,-0.081,0.960,-0.275,-4.425,1.251,-0.793,73.333,47.000,1.000,4.923,0.000
170628.400,157585.800,650319.400,593390.700,160598.900,132228.600,112540.800,120214.400,-0.080,0.954,-0.275,-4.120,1.801,-0.641,73.333,48.000,1.000,0.010,0.000
165694.900,153284.900,644027.600,584143.300,153003.700,127380.800,107927.500,115516.600,-0.078,0.946,-0.275,-4.211,2.533,-0.671,73.333,49.000,1.000,10.635,0.000
160344.700,146266.600,635370.600,574568.500,143410.600,122682.700,104255.000,111516.400,-0.082,0.945,-0.275,-3.815,3.296,-0.366,73.333,50.000,1.000,4.391,0.000
158097.400,142597.300,626097.600,566508.400,141590.300,122238.900,103774.600,111016.600,-0.081,0.939,-0.275,-3.540,3.967,-0.214,73.333,51.000,1.000,0.013,0.000
159410.400,143836.500,617202.300,560989.100,146113.100,125324.500,105709.500,113306.500,-0.084,0.936,-0.274,-3.113,4.608,-0.122,73.333,52.000,1.000,13.668,0.000
159153.700,144426.900,608963.200,554552.500,147253.400,124920.900,105095.000,112802.300,-0.090,0.935,-0.274,-2.472,5.096,0.061,73.333,53.000,1.000,0.017,0.000
154644.600,141491.800,601817.900,545833.400,142089.100,118731.500,100623.500,107752.200,-0.092,0.933,-0.278,-2.167,5.585,0.000,73.333,54.000,1.000,2.410,0.000
148925.600,136920.700,595028.800,536771.100,136260.400,112447.900,95758.320,102173.000,-0.100,0.938,-0.274,-1.526,6.104,0.061,73.333,55.000,1.000,0.010,0.000
146623.100,133992.600,587233.300,530234.400,134643.000,112219.700,94648.530,101248.100,-0.103,0.940,-0.274,-1.038,6.348,-0.031,73.333,56.000,1.000,1.935,0.000
148864.100,134194.800,579261.600,527093.700,136764.700,117466.800,97849.390,105266.100,-0.104,0.944,-0.277,-0.824,6.561,0.061,73.333,57.000,1.000,8.721,0.000
149445.000,133697.500,572333.500,522148.900,136395.200,118393.600,98673.280,106316.200,-0.109,0.949,-0.277,-0.458,6.592,-0.092,73.333,58.000,1.000,3.221,0.000
145383.000,131790.300,567001.700,513967.700,133125.100,111533.800,94474.020,101228.800,-0.111,0.951,-0.277,-0.458,6.592,-0.427,73.333,59.000,1.000,0.007,0.000
139611.100,129086.600,561772.800,505449.500,130157.800,104397.500,88947.590,94760.280,-0.115,0.957,-0.272,-0.153,6.409,-0.488,73.333,60.000,1.000,8.147,0.000
137281.200,126735.500,554716.100,500028.200,128680.200,104239.300,87362.450,93492.310,-0.118,0.954,-0.275,-0.153,6.012,-0.763,73.333,61.000,1.000,2.458,0.000
139955.900,126106.400,547325.500,498445.400,128926.400,110651.700,91209.710,98433.790,-0.120,0.957,-0.281,-0.427,5.768,-1.038,73.333,62.000,1.000,3.677,0.000
141037.800,124810.600,541429.100,494570.600,127460.900,112425.600,92965.380,100479.300,-0.129,0.966,-0.277,-0.336,5.219,-1.129,73.333,63.000,1.000,6.327,0.000
137461.400,123673.900,537449.600,486968.900,125648.700,105427.200,89159.610,95602.910,-0.125,0.969,-0.280,-0.580,4.639,-1.526,73.333,64.000,1.000,3.018,0.000
131884.900,122349.600,533354.100,479027.100,124781.700,98000.450,83412.210,88788.820,-0.133,0.973,-0.276,-0.641,4.120,-1.556,73.333,65.000,1.000,0.010,0.000
129588.700,120473.500,526945.300,474433.600,123427.800,97827.380,81521.050,87283.380,-0.130,0.967,-0.275,-0.854,3.143,-1.862,73.333,66.000,1.000,10.665,0.000
132364.900,119249.400,520121.300,473811.500,122300.000,104667.400,85566.260,92561.100,-0.126,0.959,-0.282,-1.343,2.533,-1.953,73.333,67.000,1.000,2.976,0.000
133659.300,117381.800,515009.100,470669.800,120065.000,106874.300,87814.590,95135.740,-0.127,0.953,-0.281,-1.465,1.801,-1.801,73.333,68.000,1.000,0.016,0.000
130533.300,116765.000,511942.700,463659.600,119290.600,100082.800,84424.420,90609.880,-0.116,0.941,-0.286,-1.831,1.038,-2.014,73.333,69.000,1.000,5.790,0.000
125346.200,116444.400,508663.100,456358.200,119902.000,92805.710,78794.970,83885.420,-0.120,0.946,-0.284,-1.587,0.610,-1.740,73.333,70.000,1.000,2.508,0.000
123163.600,114978.400,502867.400,452422.600,118687.500,92598.700,76767.330,82270.300,-0.120,0.942,-0.287,-1.526,-0.305,-1.831,73.333,71.000,1.000,2.393,0.000
125801.100,113337.100,496586.900,452319.100,116603.800,99326.160,80690.580,87455.430,-0.116,0.935,-0.286,-1.709,-0.671,-1.923,73.333,72.000,1.000,8.767,0.000
127117.700,111104.700,492078.400,449673.400,113887.600,101677.900,83123.970,90220.080,-0.123,0.933,-0.288,-1.465,-1.495,-1.770,73.333,73.000,1.000,4.388,0.000
124434.400,110845.900,489626.200,443291.700,113850.600,95377.890,80187.910,86157.950,-0.120,0.928,-0.287,-1.434,-2.258,-2.014,73.333,74.000,1.000,0.009,0.000
119733.700,111187.000,486898.600,436651.400,115425.300,88557.250,74903.730,79809.150,-0.125,0.929,-0.289,-1.251,-2.869,-1.984,73.333,75.000,1.000,8.134,0.000
117679.000,110031.600,481645.400,433199.800,114330.300,88291.170,72842.630,78147.960,-0.126,0.930,-0.298,-1.373,-3.540,-2.228,73.333,76.000,1.000,9.335,0.000
120038.500,108161.100,475913.100,433303.800,111663.500,94565.390,76446.300,82961.710,-0.130,0.948,-0.304,-1.251,-4.120,-2.533,73.333,77.000,1.000,0.008,0.000
121272.400,105769.800,471907.100,430995.000,108724.400,96878.060,78858.480,85690.220,-0.129,0.980,-0.305,-1.312,-4.944,-2.991,73.333,78.000,1.000,2.515,0.000
119008.300,105736.100,469842.800,425237.400,109162.400,91219.760,76367.950,82138.980,-0.115,1.008,-0.303,-1.526,-5.615,-3.387,73.333,79.000,1.000,0.007,0.000
114858.100,106480.200,467471.200,419263.300,111284.200,85027.800,71571.120,76354.410,-0.107,1.022,-0.289,-1.831,-6.104,-3.754,73.333,80.000,1.000,18.173,0.000
112948.100,105555.900,462691.800,416182.100,110284.800,84670.790,69550.400,74704.910,-0.101,1.020,-0.276,-3.052,-6.561,-3.418,73.333,81.000,1.000,3.033,0.000
114909.300,103548.300,457448.500,416252.300,107282.000,90225.370,72685.250,78944.960,-0.097,1.000,-0.274,-4.700,-6.714,-2.594,73.333,82.000,1.000,0.009,0.000
115952.900,101105.500,453831.300,414141.900,104279.400,92343.320,74918.280,81458.710,-0.100,0.979,-0.278,-5.615,-6.927,-2.106,73.333,83.000,1.000,1.929,0.000
114062.400,101198.100,452016.300,408994.200,104994.600,87423.130,72848.760,78433.330,-0.103,0.963,-0.283,-6.317,-6.989,-1.648,73.333,84.000,1.000,2.491,0.000
110470.700,102147.500,449891.700,403651.600,107350.000,81967.050,68602.360,73312.680,-0.106,0.954,-0.284,-6.348,-7.263,-1.404,73.333,85.000,1.000,2.504,0.000
108719.900,101398.100,445563.400,400843.900,106435.600,81519.120,66669.540,71714.470,-0.106,0.945,-0.283,-6.439,-7.538,-1.434,73.333,86.000,1.000,2.434,0.000
110290.100,99393.550,440823.000,400789.300,103350.700,86265.410,69291.130,75318.780,-0.110,0.948,-0.274,-6.256,-7.751,-1.373,73.333,87.000,1.000,3.840,0.000
111151.700,97042.870,437548.300,398850.400,100464.400,88140.730,71285.030,77557.850,-0.111,0.949,-0.266,-6.134,-7.874,-1.373,73.333,88.000,1.000,9.390,0.000
109593.900,97180.910,435840.500,394283.600,101307.000,83973.890,69619.850,75044.980,-0.114,0.956,-0.268,-6.042,-7.874,-1.312,73.333,89.000,1.000,0.022,0.000
106530.300,98172.540,433824.300,389528.800,103659.100,79279.480,65970.510,70632.760,-0.119,0.955,-0.267,-5.920,-7.935,-1.343,73.333,90.000,1.000,2.400,0.000
104957.800,97572.360,429907.100,386954.300,102846.500,78781.700,64206.910,69154.390,-0.119,0.950,-0.268,-6.042,-8.026,-1.526,73.333,91.000,1.000,0.008,0.000
106143.300,95660.620,425649.600,386697.700,99855.440,82702.570,66329.260,72111.380,-0.122,0.947,-0.270,-5.676,-7.996,-1.709,73.333,92.000,1.000,8.128,0.000
106762.600,93435.790,422633.600,384813.900,97138.390,84248.740,67993.620,73985.690,-0.117,0.943,-0.270,-5.371,-8.057,-1.862,73.333,93.000,1.000,2.410,0.000
105456.500,93536.160,420946.300,380733.000,97963.820,80770.750,66630.420,71914.210,-0.115,0.945,-0.268,-4.883,-7.874,-1.770,73.333,94.000,1.000,8.830,0.000
102897.400,94478.230,419005.400,376514.900,100164.500,76837.500,63554.450,68199.780,-0.113,0.952,-0.262,-4.425,-7.507,-1.678,73.333,95.000,1.000,2.454,0.000
101497.600,93980.450,415463.400,374106.600,99434.510,76299.050,61960.710,66835.160,-0.105,0.956,-0.262,-4.211,-7.233,-1.404,73.333,96.000,1.000,2.548,0.000
102307.100,92188.590,411635.500,373589.900,96627.440,79390.650,63576.340,69136.000,-0.101,0.963,-0.265,-4.120,-6.744,-1.099,73.333,97.000,1.000,3.763,0.000
102712.800,90155.750,408851.900,371762.200,94164.750,80620.310,64920.140,70648.740,-0.094,0.961,-0.262,-4.181,-6.348,-0.580,73.333,98.000,1.000,9.357,0.000
101652.000,90227.950,407167.300,368179.100,94939.800,77825.950,63860.640,69003.100,-0.090,0.958,-0.262,-4.272,-5.676,-0.061,73.333,99.000,1.000,0.012,0.000
99560.080,91070.880,405260.500,364475.800,96901.130,74622.410,61348.660,65963.440,-0.090,0.960,-0.262,-4.181,-4.913,0.793,73.333,100.000,1.000,2.459,0.000
98323.150,90645.270,402038.400,362208.700,96240.160,74055.420,59945.080,64731.690,-0.086,0.966,-0.265,-4.303,-4.242,1.434,73.333,101.000,1.000,0.005,0.000
98787.110,89001.300,398582.000,361425.500,93676.680,76377.860,61100.590,66428.170,-0.089,0.974,-0.265,-4.211,-3.662,2.075,73.333,102.000,1.000,15.674,0.000
98974.540,87169.480,395970.700,359607.500,91474.070,77284.130,62115.080,67574.350,-0.090,0.976,-0.266,-4.395,-3.052,2.625,73.333,103.000,1.000,3.094,0.000
98097.380,87170.320,394241.000,356433.000,92119.640,75064.590,61283.310,66274.380,-0.087,0.976,-0.268,-4.639,-2.502,2.960,73.333,104.000,1.000,0.008,0.000
96415.650,87867.390,392342.900,353178.800,93777.590,72505.420,59272.090,63843.140,-0.088,0.977,-0.264,-4.822,-2.014,3.265,73.333,105.000,1.000,1.892,0.000
95340.890,87501.590,389416.300,351044.300,93189.760,71933.990,58062.460,62765.110,-0.084,0.975,-0.274,-5.157,-1.587,3.510,73.333,106.000,1.000,2.441,0.000
95509.140,86023.130,386293.200,350021.400,90910.650,73568.450,58808.880,63933.570,-0.085,0.973,-0.273,-5.463,-1.190,3.906,73.333,107.000,1.000,2.549,0.000
95508.940,84404.590,383833.800,348211.200,88983.910,74177.020,59516.560,64742.360,-0.084,0.970,-0.274,-5.737,-0.977,4.211,73.333,108.000,1.000,11.934,0.000
94788.270,84338.700,382067.800,345399.300,89491.570,72474.250,58877.720,63742.030,-0.082,0.969,-0.272,-6.104,-0.916,4.395,73.333,109.000,1.000,0.017,0.000
93431.430,84847.520,380150.800,342506.200,90807.360,70472.240,57285.370,61828.810,-0.088,0.965,-0.274,-6.226,-0.702,4.730,73.333,110.000,1.000,1.789,0.000
92470.040,84485.280,377452.900,340442.100,90251.280,69883.750,56230.070,60862.400,-0.091,0.966,-0.271,-6.287,-0.763,4.822,73.333,111.000,1.000,2.444,0.000
92401.480,83179.510,374632.000,339206.800,88274.480,70939.190,56640.950,61567.900,-0.096,0.970,-0.272,-6.683,-0.671,4.700,73.333,112.000,1.000,9.393,0.000
92238.850,81766.110,372303.500,337397.100,86618.240,71292.480,57083.750,62066.160,-0.103,0.977,-0.270,-6.836,-0.824,4.578,73.333,113.000,1.000,0.017,0.000
91619.340,81611.880,370482.500,334874.400,86964.380,70007.230,56588.310,61301.200,-0.108,0.978,-0.268,-7.233,-1.068,4.364,73.333,114.000,1.000,1.810,0.000
90556.470,81957.970,368568.500,332314.100,87968.690,68492.080,55376.630,59861.970,-0.114,0.970,-0.263,-7.782,-1.465,4.181,73.333,115.000,1.000,3.742,0.000
89724.240,81618.900,366090.800,330343.300,87463.320,67914.690,54483.800,59028.410,-0.118,0.958,-0.262,-8.087,-2.014,3.906,73.333,116.000,1.000,15.053,0.000
89447.410,80460.840,363503.100,328915.700,85757.520,68462.590,54594.480,59332.850,-0.117,0.944,-0.260,-8.118,-2.594,3.510,73.333,117.000,1.000,0.021,0.000
89146.090,79233.430,361274.500,327100.900,84339.650,68581.800,54792.250,59553.980,-0.117,0.928,-0.260,-7.996,-3.296,3.113,73.333,118.000,1.000,0.008,0.000
88629.780,79023.020,359432.800,324844.500,84543.820,67653.360,54415.080,58977.950,-0.119,0.917,-0.262,-7.446,-4.059,2.625,73.333,119.000,1.000,2.490,0.000
87812.950,79221.680,357532.900,322567.400,85258.740,66553.270,53521.590,57914.110,-0.120,0.921,-0.263,-7.050,-4.700,1.984,73.333,120.000,1.000,2.465,0.000
87082.330,78889.810,355239.800,320662.300,84793.160,66000.120,52773.040,57196.070,-0.126,0.936,-0.267,-6.287,-5.493,1.556,73.333,121.000,1.000,7.527,0.000
86650.210,77879.260,352862.700,319082.100,83358.860,66152.850,52661.270,57231.820,-0.125,0.944,-0.266,-5.951,-6.317,0.824,73.333,122.000,1.000,2.500,0.000
86247.750,76836.100,350735.000,317275.000,82179.590,66092.950,52677.300,57292.940,-0.121,0.947,-0.262,-5.798,-7.111,0.092,73.333,123.000,1.000,2.472,0.000
85797.140,76574.470,348871.200,315232.600,82253.790,65444.440,52389.340,56891.340,-0.118,0.942,-0.256,-5.493,-7.935,-0.549,73.333,124.000,1.000,16.902,0.000
85146.230,76614.800,346955.100,313171.200,82683.110,64650.110,51726.980,56124.580,-0.111,0.941,-0.259,-5.310,-8.514,-1.129,73.333,125.000,1.000,0.015,0.000
84492.480,76270.650,344799.000,311322.300,82228.340,64101.580,51087.640,55491.270,-0.106,0.941,-0.265,-5.157,-8.972,-1.465,73.333,126.000,1.000,18.134,0.000
83981.200,75418.590,342622.900,309659.300,81050.300,63964.640,50828.350,55293.570,-0.102,0.945,-0.271,-4.852,-9.338,-1.801,73.333,127.000,1.000,0.028,0.000
83528.880,74550.710,340602.700,307882.600,80086.310,63775.400,50706.480,55177.510,-0.099,0.948,-0.269,-4.486,-9.674,-2.167,73.333,128.000,1.000,0.009,0.000
83113.480,74223.560,338714.700,305989.000,80026.050,63319.020,50457.260,54856.430,-0.097,0.953,-0.266,-4.211,-9.888,-2.655,73.333,129.000,1.000,3.077,0.000
82579.200,74115.300,336785.000,304078.200,80203.750,62752.680,49968.390,54303.880,-0.094,0.958,-0.265,-4.089,-10.132,-2.838,73.333,130.000,1.000,0.011,0.000
81982.200,73753.250,334741.200,302269.800,79762.490,62222.550,49425.080,53751.690,-0.092,0.957,-0.264,-3.906,-10.040,-3.052,73.333,131.000,1.000,2.432,0.000
81391.160,73013.900,332705.100,300535.000,78791.740,61855.510,49039.720,53387.090,-0.090,0.954,-0.263,-3.754,-9.857,-3.052,73.333,132.000,1.000,0.009,0.000
80873.100,72272.760,330749.500,298775.000,77989.450,61542.070,48789.860,53131.480,-0.088,0.953,-0.265,-3.448,-9.705,-2.930,73.333,133.000,1.000,1.899,0.000
80473.730,71897.950,328853.800,297013.200,77817.040,61225.540,48569.750,52869.800,-0.089,0.955,-0.262,-3.204,-9.491,-2.930,73.333,134.000,1.000,5.017,0.000
80043.040,71690.230,326949.800,295258.100,77806.310,60853.650,48232.580,52494.440,-0.093,0.958,-0.262,-3.174,-9.338,-2.808,73.333,135.000,1.000,2.461,0.000
79508.140,71326.770,325019.600,293510.100,77389.540,60362.660,47779.050,52013.730,-0.098,0.957,-0.262,-2.869,-9.125,-2.716,73.333,136.000,1.000,3.764,0.000
78866.680,70678.200,323095.900,291725.000,76592.060,59834.850,47309.090,51521.210,-0.103,0.955,-0.261,-2.563,-8.759,-2.655,73.333,137.000,1.000,11.876,0.000
78309.950,70042.270,321199.900,289980.100,75930.290,59441.280,46979.590,51173.800,-0.105,0.953,-0.260,-2.228,-8.423,-2.533,73.333,138.000,1.000,0.010,0.000
77928.040,69639.910,319316.300,288319.600,75678.880,59234.560,46789.840,50978.210,-0.104,0.954,-0.260,-1.770,-7.996,-2.319,73.333,139.000,1.000,2.503,0.000
77556.520,69341.520,317428.500,286662.800,75505.550,58986.140,46548.290,50732.720,-0.106,0.949,-0.260,-1.373,-7.629,-2.106,73.333,140.000,1.000,0.005,0.000
77051.410,68959.790,315572.600,284946.700,75088.680,58509.360,46147.730,50300.890,-0.111,0.949,-0.259,-1.068,-7.202,-1.892,73.333,141.000,1.000,8.039,0.000
76384.400,68393.880,313743.200,283142.200,74430.770,57881.800,45623.660,49732.050,-0.113,0.949,-0.258,-0.610,-6.897,-1.587,73.333,142.000,1.000,9.432,0.000
75806.390,67849.500,311905.500,281422.300,73877.150,57437.350,45228.540,49312.850,-0.117,0.947,-0.260,-0.183,-6.622,-1.495,73.333,143.000,1.000,0.020,0.000
75429.210,67422.360,310035.400,279836.900,73551.460,57288.110,45038.870,49129.660,-0.119,0.945,-0.263,0.183,-6.348,-1.465,73.333,144.000,1.000,12.541,0.000
75112.270,67065.720,308177.200,278272.300,73262.290,57125.370,44874.380,48971.450,-0.120,0.938,-0.266,0.702,-5.981,-1.434,73.333,145.000,1.000,0.013,0.000
74664.180,66694.650,306405.500,276618.400,72874.230,56686.460,44545.020,48606.890,-0.120,0.930,-0.270,1.251,-5.646,-1.465,73.333,146.000,1.000,1.832,0.000
74010.780,66206.790,304661.000,274833.300,72344.730,56011.870,44007.770,48009.820,-0.119,0.936,-0.270,1.831,-5.219,-1.434,73.333,147.000,1.000,3.132,0.000
73434.020,65740.700,302875.600,273154.300,71886.340,55537.860,43577.530,47548.960,-0.121,0.955,-0.273,2.380,-4.730,-1.434,73.333,148.000,1.000,0.006,0.000
73066.660,65310.820,301037.200,271642.300,71521.260,55430.790,43391.380,47382.550,-0.118,0.966,-0.267,2.563,-4.517,-1.556,73.333,149.000,1.000,1.841,0.000
72769.580,64903.520,299206.300,270145.400,71140.830,55324.050,43266.070,47276.120,-0.112,0.964,-0.263,2.563,-4.272,-1.587,73.333,150.000,1.000,11.851,0.000
72321.220,64502.580,297470.000,268515.800,70741.390,54899.340,42962.690,46933.980,-0.104,0.949,-0.265,2.411,-3.632,-1.617,73.333,151.000,1.000,0.016,0.000
71659.210,64047.870,295771.200,266734.000,70288.810,54192.280,42414.800,46317.250,-0.095,0.935,-0.266,2.563,-2.808,-1.617,73.333,152.000,1.000,13.099,0.000
71082.460,63627.860,294029.100,265079.200,69893.770,53695.080,41961.410,45835.430,-0.093,0.926,-0.276,2.930,-1.953,-1.526,73.333,153.000,1.000,0.012,0.000
70711.080,63181.760,292218.700,263602.800,69486.560,53590.160,41760.860,45666.020,-0.088,0.923,-0.280,3.082,-1.007,-1.282,73.333,154.000,1.000,0.004,0.000
70433.690,62747.800,290429.800,262152.100,69046.410,53511.000,41659.400,45591.710,-0.088,0.932,-0.281,3.479,-0.122,-1.160,73.333,155.000,1.000,2.494,0.000
70024.610,62363.590,288757.900,260569.300,68666.630,53122.530,41397.300,45294.590,-0.089,0.944,-0.282,3.815,0.580,-1.099,73.333,156.000,1.000,2.519,0.000
69390.320,61956.460,287108.900,258821.700,68283.330,52423.350,40868.210,44692.920,-0.088,0.961,-0.280,3.937,1.312,-1.099,73.333,157.000,1.000,2.481,0.000
68821.750,61574.780,285396.400,257199.300,67933.590,51924.590,40418.060,44202.470,-0.092,0.972,-0.272,3.693,2.045,-1.068,73.333,158.000,1.000,2.516,0.000
68452.090,61134.490,283616.900,255764.300,67509.650,51825.210,40219.600,44026.230,-0.091,0.974,-0.272,3.143,2.625,-1.099,73.333,159.000,1.000,6.229,0.000
68179.490,60682.620,281860.200,254355.800,67031.050,51751.480,40120.530,43954.060,-0.094,0.977,-0.270,2.625,3.204,-1.068,73.333,160.000,1.000,4.275,0.000
67775.760,60281.400,280214.300,252805.100,66645.190,51371.750,39862.230,43661.630,-0.097,0.973,-0.273,1.923,3.723,-1.099,73.333,161.000,1.000,0.006,0.000
67160.830,59891.410,278593.600,251093.100,66300.920,50686.660,39343.530,43069.940,-0.102,0.969,-0.277,1.221,4.211,-1.099,73.333,162.000,1.000,10.761,0.000
66606.340,59532.250,276912.800,249503.500,65980.910,50186.700,38890.340,42581.880,-0.112,0.970,-0.279,0.793,4.517,-1.129,73.333,163.000,1.000,5.529,0.000
66228.760,59089.410,275163.600,248089.300,65542.090,50065.890,38673.890,42392.740,-0.115,0.966,-0.281,0.244,4.761,-1.251,73.333,164.000,1.000,0.011,0.000
65951.590,58633.060,273443.200,246705.300,65047.840,49987.500,38576.340,42316.940,-0.123,0.969,-0.281,-0.153,4.822,-1.282,73.333,165.000,1.000,1.885,0.000
65563.900,58244.830,271836.600,245191.600,64677.440,49637.140,38347.960,42046.270,-0.126,0.968,-0.281,-0.458,4.730,-1.495,73.333,166.000,1.000,2.438,0.000
64979.970,57882.270,270251.300,243526.500,64370.100,48994.680,37869.340,41493.180,-0.128,0.969,-0.282,-0.885,4.608,-1.648,73.333,167.000,1.000,8.863,0.000
64437.460,57535.920,268601.500,241966.700,64067.180,48504.080,37430.010,41023.970,-0.131,0.969,-0.278,-1.160,4.486,-1.740,73.333,168.000,1.000,5.023,0.000
64040.340,57083.470,266879.900,240556.600,63610.550,48344.290,37191.050,40819.380,-0.129,0.954,-0.273,-1.434,3.998,-1.923,73.333,169.000,1.000,9.271,0.000
63738.670,56608.980,265188.300,239175.000,63093.930,48229.890,37068.260,40723.370,-0.123,0.940,-0.280,-1.953,3.876,-2.319,73.333,170.000,1.000,0.013,0.000
63358.250,56218.580,263616.300,237688.100,62727.050,47894.490,36847.440,40464.100,-0.127,0.941,-0.286,-1.831,3.906,-2.411,73.333,171.000,1.000,1.889,0.000
62814.700,55880.770,262068.400,236071.500,62448.600,47306.660,36402.030,39949.940,-0.129,0.945,-0.288,-1.556,3.723,-2.777,73.333,172.000,1.000,2.556,0.000
62295.850,55553.910,260452.300,234542.800,62161.070,46848.630,35978.900,39493.800,-0.123,0.952,-0.295,-1.801,3.540,-2.960,73.333,173.000,1.000,24.983,0.000
61894.400,55114.100,258768.100,233147.100,61710.040,46680.240,35739.450,39269.460,-0.129,0.965,-0.290,-1.892,3.235,-2.777,73.333,174.000,1.000,2.425,0.000
61576.820,54645.800,257110.600,231780.000,61198.640,46543.840,35603.630,39150.500,-0.125,0.964,-0.286,-2.106,2.930,-2.747,73.333,175.000,1.000,2.545,0.000
61186.800,54247.600,255554.500,230314.700,60824.320,46197.060,35363.100,38887.130,-0.123,0.962,-0.287,-2.716,2.747,-2.563,73.333,176.000,1.000,2.418,0.000
60662.630,53908.340,254024.500,228741.900,60545.790,45629.770,34929.220,38402.980,-0.124,0.960,-0.281,-2.838,2.563,-2.319,73.333,177.000,1.000,2.600,0.000
60171.170,53590.930,252444.800,227258.400,60266.040,45188.550,34527.270,37974.020,-0.117,0.954,-0.282,-3.235,2.563,-2.472,73.333,178.000,1.000,2.452,0.000
59785.140,53174.770,250811.100,225897.200,59831.050,45006.160,34283.390,37744.210,-0.116,0.949,-0.286,-3.235,2.625,-2.380,73.333,179.000,1.000,2.487,0.000
59474.350,52730.820,249197.800,224563.800,59341.240,44862.150,34135.810,37609.470,-0.112,0.942,-0.286,-3.326,2.716,-2.472,73.333,180.000,1.000,2.494,0.000
59096.090,52341.930,247659.200,223137.100,58974.880,44541.180,33906.870,37352.640,-0.114,0.940,-0.284,-3.174,2.838,-2.472,73.333,181.000,1.000,2.573,0.000
58595.220,52004.660,246136.500,221606.500,58694.630,44022.160,33508.800,36898.820,-0.116,0.937,-0.282,-2.869,3.021,-2.319,73.333,182.000,1.000,2.429,0.000
58114.530,51687.080,244579.700,220143.800,58409.370,43599.850,33128.340,36484.250,-0.120,0.940,-0.280,-2.808,3.143,-2.380,73.333,183.000,1.000,3.052,0.000
57717.500,51280.390,242989.000,218778.600,57981.930,43390.650,32877.230,36240.230,-0.126,0.947,-0.276,-2.472,3.265,-2.258,73.333,184.000,1.000,0.006,0.000
57388.840,50849.300,241426.500,217438.400,57510.810,43223.020,32715.450,36086.850,-0.123,0.947,-0.275,-2.441,3.326,-2.563,73.333,185.000,1.000,1.896,0.000
57020.000,50476.420,239935.400,216034.500,57162.950,42930.710,32502.500,35846.620,-0.123,0.947,-0.276,-2.289,3.571,-2.594,73.333,186.000,1.000,4.409,0.000
56558.690,50155.250,238452.700,214554.600,56898.020,42478.440,32152.290,35447.670,-0.122,0.944,-0.275,-2.167,3.510,-2.747,73.333,187.000,1.000,0.009,0.000
56101.750,49835.010,236921.600,213123.700,56611.110,42081.080,31794.700,35064.980,-0.119,0.938,-0.276,-2.289,3.723,-2.777,73.333,188.000,1.000,8.204,0.000
55703.630,49427.820,235348.900,211770.700,56187.850,41842.490,31526.740,34807.640,-0.121,0.939,-0.273,-1.740,3.937,-2.625,73.333,189.000,1.000,3.055,0.000
55364.860,49002.570,233798.500,210446.500,55728.340,41641.590,31333.500,34621.590,-0.120,0.942,-0.276,-1.495,4.150,-2.655,73.333,190.000,1.000,0.005,0.000
54993.780,48625.750,232306.100,209073.000,55373.970,41338.590,31101.730,34366.660,-0.122,0.948,-0.278,-1.526,4.333,-2.380,73.333,191.000,1.000,5.623,0.000
54548.440,48296.480,230825.600,207638.600,55096.910,40907.790,30766.260,33989.770,-0.125,0.948,-0.276,-1.312,4.364,-2.106,73.333,192.000,1.000,14.315,0.000
54109.930,47978.330,229321.200,206245.100,54811.360,40529.430,30433.920,33627.980,-0.125,0.943,-0.276,-1.343,4.425,-2.136,73.333,193.000,1.000,0.012,0.000
53716.250,47591.150,227794.100,204910.300,54412.660,40276.890,30172.630,33364.190,-0.132,0.949,-0.278,-1.099,4.578,-1.678,73.333,194.000,1.000,1.864,0.000
53360.450,47177.270,226281.300,203589.200,53974.600,40049.410,29964.310,33158.540,-0.131,0.950,-0.279,-1.190,4.578,-1.801,73.333,195.000,1.000,5.105,0.000
52978.020,46797.280,224808.800,202225.800,53618.380,39746.570,29725.710,32902.900,-0.135,0.955,-0.279,-1.282,4.761,-1.678,73.333,196.000,1.000,4.976,0.000
52551.000,46468.750,223349.500,200824.300,53334.460,39354.670,29413.250,32558.270,-0.137,0.960,-0.277,-1.190,4.608,-1.709,73.333,197.000,1.000,7.461,0.000
52132.890,46154.100,221872.700,199459.300,53044.440,39004.040,29100.910,32223.000,-0.137,0.964,-0.276,-1.404,4.486,-1.770,73.333,198.000,1.000,2.542,0.000
51743.540,45778.060,220372.900,198138.100,52655.670,38743.820,28837.360,31955.650,-0.143,0.967,-0.277,-1.465,4.395,-1.648,73.333,199.000,1.000,3.076,0.000
51385.390,45378.870,218883.100,196830.200,52236.090,38502.150,28619.060,31733.990,-0.139,0.966,-0.280,-1.801,4.181,-1.801,73.333,200.000,1.000,0.005,0.000
51008.520,45007.130,217424.300,195488.900,51884.090,38203.110,28380.710,31477.390,-0.139,0.962,-0.281,-2.136,4.181,-1.740,73.333,201.000,1.000,1.927,0.000
50599.680,44680.640,215981.500,194122.800,51595.150,37840.770,28089.000,31157.940,-0.139,0.957,-0.283,-2.319,4.089,-1.801,73.333,202.000,1.000,2.470,0.000
50200.790,44370.970,214539.400,192793.600,51307.780,37514.910,27802.510,30848.370,-0.133,0.952,-0.287,-2.563,4.059,-1.953,73.333,203.000,1.000,11.216,0.000
49809.040,44002.360,213073.500,191485.200,50929.520,37241.520,27539.270,30574.120,-0.131,0.952,-0.288,-2.533,4.028,-1.892,73.333,204.000,1.000,3.155,0.000
49428.090,43603.070,211602.100,190173.200,50512.800,36972.570,27296.200,30320.040,-0.127,0.953,-0.289,-2.686,4.120,-2.045,73.333,205.000,1.000,0.010,0.000
49052.800,43239.240,210167.600,188853.300,50163.320,36680.370,27053.100,30053.190,-0.127,0.960,-0.289,-2.716,4.242,-1.740,73.333,206.000,1.000,1.855,0.000
48666.590,42917.120,208752.100,187523.300,49872.920,36346.640,26779.050,29750.890,-0.122,0.959,-0.286,-3.052,4.333,-1.648,73.333,207.000,1.000,3.701,0.000
48272.180,42592.340,207323.100,186203.800,49571.200,36022.990,26495.740,29450.000,-0.120,0.957,-0.284,-3.387,4.425,-1.465,73.333,208.000,1.000,9.375,0.000
47881.600,42226.880,205879.500,184901.800,49202.520,35737.290,26231.300,29176.810,-0.121,0.958,-0.282,-3.632,4.669,-1.068,73.333,209.000,1.000,0.011,0.000
47507.890,41848.690,204442.700,183609.200,48812.330,35462.770,25988.150,28921.030,-0.117,0.954,-0.292,-3.967,4.791,-1.007,73.333,210.000,1.000,1.885,0.000
47133.260,41489.470,203025.900,182308.600,48463.090,35169.330,25738.330,28651.730,-0.120,0.955,-0.289,-4.059,5.005,-0.854,73.333,211.000,1.000,6.260,0.000
46752.670,41162.630,201621.500,181006.300,48157.880,34852.650,25472.110,28363.640,-0.118,0.956,-0.291,-4.181,5.157,-0.946,73.333,212.000,1.000,9.396,0.000
46373.880,40842.020,200217.100,179720.700,47852.240,34548.200,25208.520,28080.540,-0.119,0.962,-0.290,-4.486,5.493,-0.916,73.333,213.000,1.000,0.020,0.000
45998.930,40493.470,198807.600,178449.600,47501.060,34266.230,24956.770,27813.290,-0.120,0.966,-0.285,-4.791,5.615,-0.824,73.333,214.000,1.000,1.843,0.000
45642.280,40140.980,197411.000,177194.100,47144.050,34000.270,24727.460,27569.820,-0.120,0.965,-0.281,-5.219,5.798,-0.793,73.333,215.000,1.000,3.784,0.000
45286.220,39800.220,196026.600,175934.900,46818.200,33723.790,24495.540,27324.980,-0.122,0.969,-0.280,-5.737,5.890,-0.793,73.333,216.000,1.000,16.835,0.000
44909.860,39465.370,194631.700,174656.100,46506.730,33412.340,24230.310,27049.380,-0.121,0.970,-0.276,-6.287,6.042,-0.702,73.333,217.000,1.000,0.013,0.000
44522.070,39125.670,193229.000,173374.700,46182.630,33093.020,23950.210,26758.550,-0.123,0.975,-0.278,-6.866,6.134,-0.732,73.333,218.000,1.000,1.854,0.000
44138.320,38773.350,191831.900,172105.900,45830.700,32788.860,23682.570,26478.730,-0.125,0.975,-0.277,-7.263,6.165,-0.824,73.333,219.000,1.000,2.482,0.000
43765.630,38418.250,190445.200,170849.400,45474.860,32500.880,23433.840,26217.660,-0.126,0.973,-0.276,-7.813,6.165,-0.824,73.333,220.000,1.000,2.482,0.000
43397.540,38072.130,189066.500,169593.600,45140.870,32219.880,23192.350,25959.720,-0.129,0.969,-0.277,-8.209,6.165,-0.854,73.333,221.000,1.000,2.582,0.000
43036.990,37747.660,187697.500,168344.200,44834.230,31940.550,22953.310,25700.320,-0.127,0.960,-0.280,-8.698,6.165,-0.946,73.333,222.000,1.000,6.822,0.000
42682.930,37433.360,186341.800,167110.000,44533.680,31665.150,22715.890,25446.690,-0.130,0.955,-0.281,-8.667,6.317,-0.916,73.333,223.000,1.000,0.010,0.000
42326.080,37108.460,184992.000,165882.000,44211.550,31385.540,22474.560,25194.770,-0.125,0.949,-0.280,-8.636,6.348,-1.007,73.333,224.000,1.000,1.898,0.000
41958.520,36765.590,183635.400,164643.600,43870.040,31098.100,22224.940,24934.450,-0.123,0.949,-0.279,-8.362,6.348,-0.977,73.333,225.000,1.000,10.040,0.000
41584.570,36416.460,182273.400,163394.500,43531.420,30811.110,21971.030,24666.470,-0.121,0.946,-0.275,-8.148,6.378,-0.885,73.333,226.000,1.000,3.055,0.000
41225.680,36089.070,180924.800,162157.900,43217.660,30536.700,21728.420,24408.570,-0.121,0.943,-0.275,-7.965,6.409,-0.793,73.333,227.000,1.000,0.008,0.000
40873.320,35773.290,179591.800,160932.000,42909.770,30263.000,21488.690,24155.540,-0.120,0.943,-0.274,-7.507,6.561,-0.610,73.333,228.000,1.000,1.942,0.000
40507.110,35444.800,178258.900,159702.400,42582.510,29974.000,21237.910,23892.630,-0.117,0.941,-0.277,-7.416,6.622,-0.427,73.333,229.000,1.000,30.575,0.000
40136.120,35108.310,176926.400,158475.500,42250.900,29687.580,20989.690,23630.580,-0.121,0.944,-0.274,-6.989,6.775,0.000,73.333,230.000,1.000,0.024,0.000
39778.000,34779.510,175600.700,157261.000,41933.100,29419.550,20759.970,23383.420,-0.115,0.939,-0.279,-6.927,6.775,0.122,73.333,231.000,1.000,1.859,0.000
39430.680,34460.480,174277.100,156055.300,41624.520,29157.330,20536.680,23140.740,-0.118,0.938,-0.278,-6.531,6.897,0.336,73.333,232.000,1.000,2.525,0.000
39073.710,34134.590,172949.000,154844.100,41304.380,28874.110,20290.110,22874.790,-0.113,0.934,-0.280,-6.287,6.805,0.366,73.333,233.000,1.000,2.494,0.000
38706.840,33803.540,171623.000,153631.500,40975.570,28571.960,20028.090,22593.710,-0.117,0.936,-0.281,-5.707,7.019,0.519,73.333,234.000,1.000,2.409,0.000
38341.140,33474.390,170304.900,152427.700,40651.920,28278.130,19775.940,22325.350,-0.111,0.934,-0.281,-5.310,7.080,0.488,73.333,235.000,1.000,2.540,0.000
37988.660,33151.350,168995.000,151240.300,40338.880,28008.790,19544.880,22079.870,-0.110,0.942,-0.278,-5.096,7.355,0.488,73.333,236.000,1.000,3.074,0.000
37657.970,32842.500,167699.400,150071.800,40042.530,27763.010,19334.860,21853.750,-0.112,0.942,-0.272,-4.852,7.294,0.458,73.333,237.000,1.000,0.010,0.000
37321.810,32530.360,166409.000,148893.500,39741.200,27506.860,19114.770,21617.170,-0.111,0.950,-0.272,-4.791,7.385,0.336,73.333,238.000,1.000,1.974,0.000
36960.610,32202.590,165111.000,147692.400,39421.130,27217.640,18866.700,21352.180,-0.114,0.952,-0.271,-4.456,7.294,0.336,73.333,239.000,1.000,2.987,0.000
36589.800,31866.070,163809.100,146487.700,39093.820,26918.600,18608.830,21076.200,-0.113,0.957,-0.274,-4.608,7.233,0.214,73.333,240.000,1.000,0.006,0.000
36235.390,31537.520,162513.300,145300.900,38773.700,26641.980,18365.800,20817.170,-0.118,0.958,-0.274,-4.517,7.080,0.183,73.333,241.000,1.000,13.924,0.000
35906.430,31228.880,161233.400,144139.500,38471.490,26395.710,18147.720,20585.830,-0.117,0.958,-0.274,-4.761,6.927,-0.092,73.333,242.000,1.000,0.015,0.000
35576.980,30924.110,159962.600,142982.300,38171.770,26144.050,17930.720,20356.530,-0.124,0.958,-0.273,-4.547,6.653,-0.122,73.333,243.000,1.000,2.340,0.000
35229.910,30612.870,158689.200,141814.100,37864.230,25864.430,17694.300,20107.020,-0.129,0.957,-0.274,-4.944,6.226,-0.397,73.333,244.000,1.000,0.004,0.000
34875.240,30298.410,157414.000,140644.300,37554.950,25581.180,17449.530,19845.530,-0.136,0.955,-0.274,-4.791,5.707,-0.458,73.333,245.000,1.000,8.763,0.000
34531.750,29987.450,156142.200,139487.800,37249.480,25319.210,17218.330,19595.710,-0.139,0.957,-0.274,-5.005,5.188,-0.793,73.333,246.000,1.000,0.008,0.000
34203.380,29681.490,154878.500,138344.800,36948.280,25075.380,17002.130,19364.050,-0.142,0.955,-0.271,-4.761,4.669,-1.160,73.333,247.000,1.000,13.848,0.000
33870.660,29372.200,153620.500,137197.800,36643.090,24819.250,16779.740,19128.020,-0.141,0.951,-0.273,-4.944,3.998,-1.648,73.333,248.000,1.000,0.015,0.000
33527.360,29063.620,152368.000,136045.400,36340.770,24541.420,16546.230,18879.150,-0.139,0.945,-0.268,-4.791,3.296,-1.892,73.333,249.000,1.000,2.382,0.000
33183.400,28758.190,151121.800,134898.200,36043.840,24264.060,16310.170,18628.090,-0.137,0.942,-0.270,-4.730,2.716,-2.289,73.333,250.000,1.000,0.010,0.000
32849.510,28454.040,149879.000,133760.800,35744.040,24004.530,16082.470,18388.370,-0.139,0.945,-0.266,-4.395,2.075,-2.411,73.333,251.000,1.000,1.922,0.000
32521.770,28146.320,148636.200,132626.600,35438.730,23756.790,15865.750,18160.210,-0.133,0.945,-0.268,-4.425,1.373,-2.716,73.333,252.000,1.000,18.153,0.000
32185.420,27831.400,147392.900,131484.400,35128.760,23496.890,15644.750,17924.390,-0.130,0.944,-0.266,-4.181,0.885,-2.930,73.333,253.000,1.000,0.024,0.000
31843.280,27522.870,146156.400,130342.100,34827.910,23225.030,15414.930,17677.310,-0.123,0.938,-0.269,-4.181,0.366,-3.021,73.333,254.000,1.000,2.903,0.000
31502.500,27222.530,144927.200,129208.300,34535.460,22958.000,15182.090,17429.930,-0.123,0.938,-0.273,-3.784,0.061,-2.869,73.333,255.000,1.000,0.006,0.000
31168.560,26922.250,143698.200,128084.300,34239.160,22703.310,14955.420,17192.960,-0.114,0.940,-0.278,-3.754,-0.183,-2.808,73.333,256.000,1.000,0.003,0.000
30839.320,26615.600,142466.600,126968.500,33936.700,22455.720,14738.440,16966.120,-0.114,0.949,-0.276,-3.387,-0.488,-2.441,73.333,257.000,1.000,2.603,0.000
30506.050,26303.340,141236.100,125854.100,33632.580,22197.980,14520.210,16735.510,-0.111,0.958,-0.275,-3.418,-0.580,-2.289,73.333,258.000,1.000,5.014,0.000
30173.550,26001.670,140015.900,124744.400,33341.300,21934.010,14298.800,16497.520,-0.110,0.966,-0.272,-3.387,-0.702,-1.953,73.333,259.000,1.000,2.451,0.000
29845.510,25710.340,138805.200,123641.200,33059.270,21676.630,14077.220,16257.870,-0.104,0.967,-0.270,-3.693,-0.885,-1.801,73.333,260.000,1.000,8.853,0.000
29525.240,25420.150,137598.300,122546.300,32774.860,21429.430,13860.750,16027.490,-0.104,0.971,-0.269,-3.967,-0.977,-1.526,73.333,261.000,1.000,11.790,0.000
29214.010,25129.950,136397.600,121460.200,32489.830,21193.780,13655.060,15810.830,-0.107,0.968,-0.272,-4.150,-1.190,-1.434,73.333,262.000,1.000,0.018,0.000
28899.760,24837.530,135201.100,120370.300,32202.530,20952.320,13448.240,15590.990,-0.112,0.968,-0.272,-4.333,-1.312,-1.221,73.333,263.000,1.000,2.394,0.000
28574.840,24542.950,134003.200,119270.300,31913.820,20693.840,13228.580,15354.540,-0.112,0.968,-0.274,-4.578,-1.678,-1.312,73.333,264.000,1.000,0.023,0.000
28245.550,24246.930,132805.600,118169.500,31624.670,20431.060,13001.410,15110.380,-0.112,0.968,-0.275,-4.608,-1.923,-1.373,73.333,265.000,1.000,1.946,0.000
27924.210,23952.210,131611.800,117081.000,31333.200,20178.440,12781.000,14876.840,-0.111,0.967,-0.272,-4.608,-2.167,-1.678,73.333,266.000,1.000,11.237,0.000
27611.560,23657.860,130423.000,116003.700,31039.400,19936.030,12572.000,14656.350,-0.109,0.967,-0.265,-4.791,-2.441,-1.862,73.333,267.000,1.000,6.827,0.000
27301.770,23366.380,129244.000,114927.500,30749.650,19691.470,12365.880,14436.250,-0.104,0.965,-0.265,-5.005,-2.655,-2.014,73.333,268.000,1.000,0.012,0.000
26992.670,23085.300,128077.300,113850.600,30472.690,19443.010,12154.970,14209.340,-0.102,0.967,-0.266,-5.341,-2.625,-2.014,73.333,269.000,1.000,1.913,0.000
26679.410,22805.640,126912.800,112774.000,30197.990,19193.030,11935.750,13975.680,-0.100,0.961,-0.268,-5.493,-2.655,-2.167,73.333,270.000,1.000,2.533,0.000
26363.370,22516.720,125741.100,111702.600,29913.470,18942.580,11715.340,13744.080,-0.101,0.961,-0.266,-5.646,-2.625,-2.258,73.333,271.000,1.000,2.363,0.000
26051.360,22222.970,124569.600,110641.500,29625.710,18699.720,11505.070,13522.000,-0.104,0.957,-0.267,-5.707,-2.686,-2.350,73.333,272.000,1.000,6.361,0.000
25745.180,21935.250,123408.600,109586.600,29345.130,18462.320,11303.060,13303.790,-0.108,0.959,-0.267,-5.829,-2.502,-2.380,73.333,273.000,1.000,3.132,0.000
25439.610,21656.090,122255.400,108531.600,29073.400,18221.180,11099.400,13082.690,-0.112,0.964,-0.267,-5.646,-2.380,-2.441,73.333,274.000,1.000,0.008,0.000
25129.650,21377.370,121102.000,107475.500,28800.920,17975.810,10890.090,12856.200,-0.112,0.966,-0.265,-5.768,-2.289,-2.472,73.333,275.000,1.000,8.108,0.000
24817.110,21092.190,119944.300,106420.100,28518.790,17729.660,10677.800,12627.090,-0.109,0.969,-0.264,-5.676,-2.075,-2.380,73.333,276.000,1.000,2.413,0.000
24503.900,20799.560,118785.600,105365.600,28228.370,17483.810,10464.700,12401.960,-0.111,0.973,-0.259,-5.920,-1.862,-2.380,73.333,277.000,1.000,8.695,0.000
24194.250,20510.840,117637.400,104315.500,27943.010,17239.590,10256.130,12182.940,-0.115,0.978,-0.254,-5.859,-1.434,-2.289,73.333,278.000,1.000,6.963,0.000
23886.130,20230.510,116499.400,103269.000,27669.370,16994.860,10052.880,11962.340,-0.117,0.979,-0.254,-6.134,-1.068,-2.106,73.333,279.000,1.000,0.017,0.000
23574.830,19950.930,115363.200,102224.500,27398.380,16748.150,9849.602,11737.860,-0.117,0.976,-0.258,-6.531,-0.793,-1.862,73.333,280.000,1.000,1.817,0.000
23271.420,19677.380,114234.600,101192.400,27131.250,16513.840,9653.538,11525.020,-0.117,0.970,-0.256,-6.775,-0.427,-1.617,73.333,281.000,1.000,8.763,0.000
22980.140,19412.280,113117.900,100174.600,26870.430,16295.980,9468.083,11325.380,-0.114,0.968,-0.254,-7.050,0.061,-1.312,73.333,282.000,1.000,5.048,0.000
22687.750,19144.730,112003.000,99156.990,26606.730,16072.350,9277.588,11119.250,-0.111,0.968,-0.256,-7.050,0.732,-1.038,73.333,283.000,1.000,2.566,0.000
22380.970,18863.590,110877.900,98126.100,26332.690,15828.560,9069.384,10894.870,-0.109,0.969,-0.258,-6.989,1.404,-0.732,73.333,284.000,1.000,2.419,0.000
22061.350,18570.420,109742.800,97084.530,26048.250,15573.170,8850.093,10660.100,-0.106,0.969,-0.256,-6.958,2.045,-0.488,73.333,285.000,1.000,2.531,0.000
21745.410,18281.430,108612.100,96051.200,25763.260,15324.700,8636.062,10432.730,-0.107,0.970,-0.251,-7.019,2.716,-0.153,73.333,286.000,1.000,2.459,0.000
21440.910,18003.320,107494.100,95032.130,25484.000,15092.250,8432.300,10217.240,-0.106,0.969,-0.249,-7.141,3.326,0.214,73.333,287.000,1.000,6.786,0.000
21143.540,17731.220,106385.500,94019.500,25209.880,14867.570,8232.662,10005.880,-0.106,0.965,-0.247,-7.324,4.089,0.488,73.333,288.000,1.000,0.009,0.000
20849.660,17461.910,105284.100,93013.070,24943.420,14640.320,8033.466,9797.275,-0.104,0.959,-0.246,-7.446,4.730,0.793,73.333,289.000,1.000,1.873,0.000
20558.710,17196.430,104191.600,92016.300,24685.090,14413.060,7837.886,9593.177,-0.100,0.950,-0.249,-7.385,5.463,0.854,73.333,290.000,1.000,8.787,0.000
20267.610,16932.580,103103.100,91023.610,24426.520,14190.850,7645.423,9386.909,-0.102,0.946,-0.251,-7.355,6.256,0.885,73.333,291.000,1.000,3.168,0.000
19966.970,16658.450,102008.300,90022.940,24155.820,13962.700,7445.778,9171.526,-0.102,0.939,-0.250,-7.111,6.927,0.671,73.333,292.000,1.000,0.008,0.000
19661.500,16379.200,100912.700,89017.980,23879.970,13724.870,7241.843,8954.937,-0.102,0.933,-0.254,-6.805,7.538,0.397,73.333,293.000,1.000,5.548,0.000
19368.690,16115.660,99833.670,88025.870,23619.350,13496.310,7048.827,8749.623,-0.102,0.932,-0.254,-6.409,8.179,0.214,73.333,294.000,1.000,11.961,0.000
19089.090,15866.210,98770.080,87047.930,23373.140,13283.290,6866.888,8554.433,-0.095,0.930,-0.251,-6.012,8.698,-0.122,73.333,295.000,1.000,0.009,0.000
18812.010,15616.230,97708.660,86073.790,23125.810,13074.410,6686.741,8360.408,-0.094,0.929,-0.249,-5.737,9.338,-0.488,73.333,296.000,1.000,1.773,0.000
18522.810,15350.730,96635.680,85088.950,22860.770,12852.350,6493.538,8153.897,-0.093,0.931,-0.254,-5.432,10.071,-0.702,73.333,297.000,1.000,7.579,0.000
18221.380,15072.130,95554.480,84094.130,22582.530,12616.880,6287.278,7937.211,-0.093,0.934,-0.254,-5.280,10.590,-1.068,73.333,298.000,1.000,5.040,0.000
17928.210,14804.650,94486.550,83112.260,22317.010,12389.610,6091.095,7730.268,-0.099,0.940,-0.254,-5.219,11.200,-1.404,73.333,299.000,1.000,8.718,0.000
17636.000,14541.960,93422.320,82137.500,22056.100,12165.330,5900.109,7524.966,-0.102,0.948,-0.255,-5.035,11.688,-1.984,73.333,300.000,1.000,2.526,0.000
17333.150,14269.310,92347.340,81156.890,21785.270,11933.790,5700.136,7310.458,-0.105,0.954,-0.254,-5.188,11.993,-2.502,73.333,301.000,1.000,2.470,0.000
17032.780,13997.610,91274.730,80180.620,21516.110,11704.820,5500.865,7096.451,-0.111,0.953,-0.254,-5.463,12.024,-3.082,73.333,302.000,1.000,2.515,0.000
16738.330,13731.120,90210.000,79208.800,21252.110,11479.390,5308.282,6886.785,-0.115,0.941,-0.252,-5.585,12.238,-3.723,73.333,303.000,1.000,3.793,0.000
16445.670,13466.120,89151.360,78238.000,20990.310,11253.770,5117.861,6681.003,-0.115,0.931,-0.259,-5.585,12.482,-4.303,73.333,304.000,1.000,4.918,0.000
16159.040,13206.700,88103.370,77275.620,20733.150,11031.480,4928.064,6479.242,-0.122,0.934,-0.268,-5.371,12.634,-4.883,73.333,305.000,1.000,2.451,0.000
15884.840,12958.040,87070.200,76328.520,20486.000,10820.890,4748.613,6285.830,-0.129,0.952,-0.266,-5.066,12.604,-5.554,73.333,306.000,1.000,2.581,0.000
15616.950,12711.440,86043.990,75390.380,20244.590,10616.940,4577.272,6098.836,-0.133,0.969,-0.265,-4.944,12.360,-6.104,73.333,307.000,1.000,3.056,0.000
15341.120,12454.220,85010.950,74447.700,19995.130,10399.870,4392.805,5903.098,-0.137,0.980,-0.260,-5.127,12.085,-6.653,73.333,308.000,1.000,0.015,0.000
15054.720,12190.230,83971.410,73497.060,19735.920,10169.040,4194.193,5695.462,-0.139,0.983,-0.257,-5.524,11.902,-7.172,73.333,309.000,1.000,18.155,0.000
14765.490,11929.370,82935.810,72545.660,19476.940,9941.423,3999.998,5489.792,-0.142,0.987,-0.254,-5.981,11.627,-7.568,73.333,310.000,1.000,5.563,0.000
14480.620,11673.130,81909.230,71601.360,19222.910,9720.783,3813.319,5291.531,-0.150,0.993,-0.257,-6.378,11.505,-7.965,73.333,311.000,1.000,0.015,0.000
14205.760,11422.880,80891.840,70668.430,18972.820,9502.996,3624.580,5096.132,-0.153,0.992,-0.252,-7.050,11.200,-8.057,73.333,312.000,1.000,1.917,0.000
13931.990,11172.410,79872.700,69737.160,18718.420,9282.280,3426.512,4896.651,-0.152,0.987,-0.251,-7.690,10.773,-8.087,73.333,313.000,1.000,2.482,0.000
13640.050,10905.750,78835.630,68790.660,18447.580,9050.238,3219.447,4684.353,-0.150,0.977,-0.250,-7.904,10.468,-8.087,73.333,314.000,1.000,2.525,0.000
13337.710,10628.070,77790.520,67837.830,18168.770,8813.490,3015.159,4467.676,-0.145,0.967,-0.250,-7.935,10.437,-8.209,73.333,315.000,1.000,2.430,0.000
13044.700,10357.340,76757.930,66898.230,17898.310,8582.399,2820.207,4262.359,-0.138,0.958,-0.254,-7.751,10.468,-8.270,73.333,316.000,1.000,2.559,0.000
12772.900,10109.220,75751.980,65983.330,17649.550,8372.858,2644.871,4077.825,-0.131,0.950,-0.256,-7.385,10.712,-8.331,73.333,317.000,1.000,2.475,0.000
12515.040,9878.580,74766.360,65082.700,17417.240,8183.794,2486.446,3903.170,-0.134,0.944,-0.254,-6.805,11.017,-8.057,73.333,318.000,1.000,2.456,0.000
12245.930,9637.569,73774.950,64168.420,17175.400,7983.401,2315.501,3713.362,-0.137,0.939,-0.253,-6.500,11.108,-7.660,73.333,319.000,1.000,14.375,0.000
11969.540,9388.091,72781.090,63245.460,16927.980,7772.570,2132.176,3515.980,-0.138,0.931,-0.257,-6.042,11.414,-7.294,73.333,320.000,1.000,0.007,0.000
11694.910,9140.483,71792.700,62325.520,16683.050,7562.772,1947.794,3322.361,-0.140,0.932,-0.258,-5.371,11.871,-6.989,73.333,321.000,1.000,6.854,0.000
11416.390,8889.436,70802.260,61403.730,16433.050,7347.989,1760.736,3125.906,-0.140,0.936,-0.254,-4.669,12.299,-6.714,73.333,322.000,1.000,0.021,0.000
11142.380,8641.194,69816.370,60488.540,16186.530,7137.476,1581.484,2931.935,-0.139,0.945,-0.249,-4.059,12.573,-6.500,73.333,323.000,1.000,0.011,0.000
10887.450,8410.357,68848.130,59594.970,15957.320,6944.792,1419.753,2752.712,-0.136,0.952,-0.243,-3.693,12.970,-6.042,73.333,324.000,1.000,2.556,0.000
10649.070,8196.229,67894.630,58719.830,15739.930,6761.274,1265.843,2584.594,-0.127,0.961,-0.239,-3.693,13.733,-5.310,73.333,325.000,1.000,4.908,0.000
10396.970,7968.073,66927.750,57834.860,15506.020,6558.967,1093.618,2401.811,-0.127,0.969,-0.245,-3.784,14.282,-4.517,73.333,326.000,1.000,2.529,0.000
10114.730,7709.102,65933.180,56927.380,15245.610,6332.885,897.356,2194.686,-0.122,0.969,-0.250,-4.364,14.893,-4.028,73.333,327.000,1.000,2.541,0.000
9833.504,7451.930,64941.070,56025.940,14991.100,6116.604,709.369,1992.351,-0.125,0.964,-0.255,-4.456,15.656,-3.479,73.333,328.000,1.000,3.768,0.000
9581.160,7222.657,63977.360,55154.020,14764.190,5925.924,547.744,1816.837,-0.124,0.954,-0.264,-4.852,16.174,-3.113,73.333,329.000,1.000,16.252,0.000
9337.548,6998.612,63022.780,54293.340,14540.860,5732.868,385.921,1647.389,-0.130,0.954,-0.273,-4.730,16.815,-2.686,73.333,330.000,1.000,28.633,0.000
9078.955,6758.356,62057.560,53421.640,14301.580,5522.047,206.129,1462.685,-0.132,0.956,-0.279,-4.608,17.334,-2.533,73.333,331.000,1.000,0.012,0.000
8812.277,6511.446,61090.330,52543.480,14057.960,5309.066,25.201,1271.681,-0.132,0.960,-0.284,-4.700,17.731,-2.441,73.333,332.000,1.000,0.004,0.000
8554.322,6275.158,60134.960,51673.900,13826.170,5112.772,-138.356,1089.521,-0.136,0.966,-0.284,-4.364,18.127,-2.350,73.333,333.000,1.000,3.092,0.000
8306.654,6050.575,59190.970,50814.340,13603.830,4930.444,-293.281,915.166,-0.134,0.964,-0.292,-4.456,18.555,-2.167,73.333,334.000,1.000,0.004,0.000
8048.146,5814.491,58238.750,49943.970,13368.580,4732.194,-467.706,728.632,-0.140,0.966,-0.297,-4.395,19.012,-1.831,73.333,335.000,1.000,3.178,0.000
7778.635,5565.297,57280.050,49061.890,13122.260,4517.346,-655.809,531.761,-0.140,0.959,-0.295,-4.425,19.165,-1.801,73.333,336.000,1.000,0.004,0.000
7519.745,5326.108,56336.710,48190.980,12886.100,4312.482,-832.557,347.410,-0.139,0.954,-0.300,-4.486,19.684,-1.801,73.333,337.000,1.000,0.003,0.000
7267.668,5094.205,55403.240,47330.050,12655.310,4114.085,-1001.735,170.330,-0.143,0.956,-0.291,-4.364,19.836,-1.740,73.333,338.000,1.000,3.148,0.000
7010.010,4856.688,54466.510,46469.160,12420.200,3910.611,-1171.080,-12.331,-0.133,0.952,-0.290,-4.578,20.111,-2.045,73.333,339.000,1.000,0.012,0.000
6755.125,4623.420,53534.810,45618.940,12190.830,3711.745,-1335.180,-190.204,-0.134,0.961,-0.286,-4.425,20.660,-1.892,73.333,340.000,1.000,1.887,0.000
6506.330,4398.885,52609.760,44777.250,11968.130,3519.398,-1497.458,-362.659,-0.135,0.966,-0.281,-4.272,20.966,-2.106,73.333,341.000,1.000,2.525,0.000
6252.117,4169.634,51680.500,43927.220,11739.640,3324.019,-1664.564,-543.053,-0.131,0.969,-0.288,-4.852,21.515,-2.319,73.333,342.000,1.000,2.461,0.000
5993.163,3934.624,50749.400,43074.330,11506.250,3125.545,-1834.125,-728.889,-0.138,0.977,-0.281,-5.096,22.064,-2.228,73.333,343.000,1.000,2.458,0.000
5735.575,3699.203,49821.380,42226.160,11270.690,2922.586,-2010.309,-914.714,-0.130,0.970,-0.280,-5.341,22.278,-2.625,73.333,344.000,1.000,3.743,0.000
5484.985,3468.500,48901.950,41383.650,11036.540,2720.553,-2189.054,-1095.269,-0.122,0.969,-0.279,-5.859,22.766,-2.594,73.333,345.000,1.000,4.406,0.000
5246.280,3248.086,47996.840,40553.270,10813.270,2529.865,-2355.882,-1264.479,-0.121,0.973,-0.269,-5.829,23.346,-2.563,73.333,346.000,1.000,0.009,0.000
5009.630,3030.176,47096.240,39729.610,10595.940,2341.324,-2515.918,-1431.530,-0.110,0.966,-0.265,-6.134,23.865,-2.747,73.333,347.000,1.000,15.615,0.000
4765.232,2806.022,46191.590,38902.310,10373.600,2146.754,-2680.206,-1603.963,-0.113,0.967,-0.268,-6.439,24.719,-2.289,73.333,348.000,1.000,3.109,0.000
4516.134,2577.044,45285.370,38072.860,10146.750,1952.031,-2844.860,-1777.087,-0.115,0.962,-0.269,-6.561,25.299,-2.014,73.333,349.000,1.000,0.008,0.000
4271.109,2353.229,44385.360,37247.490,9923.714,1765.286,-3000.089,-1946.360,-0.108,0.955,-0.277,-6.805,25.879,-1.801,73.333,350.000,1.000,4.431,0.000
4026.212,2133.452,43489.310,36421.680,9701.087,1581.754,-3155.076,-2121.478,-0.112,0.955,-0.271,-6.714,26.489,-1.160,73.333,351.000,1.000,2.429,0.000
3771.950,1905.945,42586.840,35589.760,9469.804,1388.528,-3324.812,-2311.063,-0.108,0.952,-0.268,-6.805,26.733,-0.916,73.333,352.000,1.000,2.578,0.000
3521.177,1679.616,41688.180,34766.590,9240.840,1192.794,-3496.227,-2495.586,-0.114,0.956,-0.267,-6.622,27.222,-0.427,73.333,353.000,1.000,2.435,0.000
3284.014,1463.638,40802.760,33961.000,9023.120,1006.578,-3656.393,-2663.052,-0.119,0.957,-0.264,-6.592,27.374,-0.214,73.333,354.000,1.000,6.302,0.000
3047.607,1247.760,39918.380,33158.740,8806.720,823.628,-3812.997,-2828.224,-0.122,0.960,-0.266,-6.683,27.679,-0.153,73.333,355.000,1.000,4.334,0.000
2808.928,1029.929,39033.640,32356.650,8589.876,639.104,-3967.133,-2993.955,-0.129,0.960,-0.264,-6.439,27.832,-0.122,73.333,356.000,1.000,0.010,0.000
2575.667,816.667,38156.360,31561.340,8377.188,455.328,-4118.637,-3154.530,-0.129,0.954,-0.265,-6.561,27.771,-0.122,73.333,357.000,1.000,7.434,0.000
2343.785,603.974,37282.700,30767.590,8163.477,270.109,-4274.683,-3314.901,-0.134,0.956,-0.262,-6.348,27.649,-0.061,73.333,358.000,1.000,0.017,0.000
2113.641,391.630,36414.740,29976.040,7951.873,89.364,-4428.224,-3473.114,-0.133,0.951,-0.263,-6.073,27.496,-0.214,73.333,359.000,1.000,8.185,0.000
1880.045,176.033,35548.010,29182.110,7739.061,-89.768,-4581.679,-3635.279,-0.133,0.954,-0.265,-5.920,27.405,-0.458,73.333,360.000,1.000,9.335,0.000
1636.288,-46.118,34676.450,28380.210,7517.665,-276.432,-4744.298,-3809.282,-0.136,0.956,-0.262,-5.707,27.008,-0.427,73.333,361.000,1.000,0.013,0.000
1395.803,-262.733,33812.960,27583.840,7300.364,-461.491,-4902.900,-3978.161,-0.136,0.951,-0.264,-5.554,26.672,-0.549,73.333,362.000,1.000,11.261,0.000
1161.986,-473.720,32958.890,26795.010,7089.477,-642.744,-5053.299,-4136.053,-0.141,0.952,-0.266,-5.280,26.398,-0.397,73.333,363.000,1.000,0.010,0.000
928.298,-684.638,32106.840,26008.010,6877.664,-822.976,-5202.175,-4294.534,-0.149,0.940,-0.265,-5.066,25.787,-0.549,73.333,364.000,1.000,2.390,0.000
694.540,-895.611,31255.200,25224.710,6665.025,-1001.149,-5352.721,-4457.890,-0.143,0.917,-0.264,-5.066,25.177,-0.946,73.333,365.000,1.000,0.006,0.000
458.762,-1111.463,30399.920,24442.950,6449.692,-1183.311,-5510.271,-4625.134,-0.148,0.914,-0.267,-4.089,24.811,-1.007,73.333,366.000,1.000,1.928,0.000
224.057,-1328.084,29544.030,23665.210,6235.748,-1368.222,-5667.058,-4790.026,-0.143,0.912,-0.272,-3.113,24.353,-1.556,73.333,367.000,1.000,11.341,0.000
-2.338,-1536.090,28698.360,22897.980,6030.910,-1545.790,-5811.654,-4946.890,-0.136,0.921,-0.272,-2.319,23.865,-1.801,73.333,368.000,1.000,3.044,0.000
-223.888,-1739.387,27862.220,22135.890,5830.386,-1717.315,-5952.203,-5100.285,-0.136,0.938,-0.272,-1.678,23.224,-1.740,73.333,369.000,1.000,0.009,0.000
-443.036,-1939.821,27031.360,21375.980,5631.648,-1886.264,-6094.286,-5251.186,-0.132,0.955,-0.273,-1.160,22.827,-1.923,73.333,370.000,1.000,1.881,0.000
-659.642,-2135.731,26207.230,20619.010,5436.427,-2051.859,-6233.298,-5399.106,-0.130,0.966,-0.271,-0.977,22.278,-1.862,73.333,371.000,1.000,3.721,0.000
-883.784,-2337.897,25382.650,19856.470,5235.793,-2220.794,-6375.236,-5554.300,-0.122,0.965,-0.269,-1.007,21.820,-1.801,73.333,372.000,1.000,8.865,0.000
-1118.138,-2550.668,24550.810,19085.910,5024.396,-2398.849,-6526.545,-5719.855,-0.116,0.954,-0.267,-1.068,21.454,-1.587,73.333,373.000,1.000,3.030,0.000
-1348.161,-2759.372,23721.530,18319.690,4813.744,-2577.597,-6678.952,-5882.846,-0.107,0.946,-0.271,-0.885,21.301,-1.526,73.333,374.000,1.000,0.007,0.000
-1562.905,-2953.402,22906.260,17570.000,4617.275,-2742.038,-6818.579,-6033.125,-0.102,0.943,-0.272,-0.671,21.179,-1.312,73.333,375.000,1.000,4.348,0.000
-1773.873,-3145.271,22096.480,16828.940,4425.309,-2900.859,-6951.384,-6179.612,-0.101,0.948,-0.268,-0.488,21.057,-1.129,73.333,376.000,1.000,3.862,0.000
-1998.339,-3352.423,21275.810,16078.680,4218.210,-3078.983,-7100.222,-6338.465,-0.101,0.963,-0.262,-0.519,20.966,-1.068,73.333,377.000,1.000,8.709,0.000
-2230.041,-3566.910,20448.130,15323.880,4002.568,-3269.673,-7262.384,-6504.617,-0.103,0.978,-0.265,-0.671,20.966,-0.916,73.333,378.000,1.000,3.001,0.000
-2450.569,-3767.441,19634.580,14583.860,3802.353,-3439.428,-7406.141,-6657.646,-0.104,0.968,-0.261,-1.190,20.691,-0.854,73.333,379.000,1.000,0.013,0.000
-2665.235,-3959.849,18834.050,13851.940,3613.777,-3590.457,-7529.671,-6802.198,-0.100,0.937,-0.262,-1.862,20.508,-0.793,73.333,380.000,1.000,1.971,0.000
-2889.644,-4162.361,18026.680,13110.200,3413.804,-3753.829,-7665.058,-6956.643,-0.098,0.921,-0.270,-1.648,20.447,-0.793,73.333,381.000,1.000,13.674,0.000
-3114.422,-4367.130,17216.090,12369.170,3206.373,-3928.638,-7817.625,-7116.154,-0.103,0.935,-0.274,-0.885,20.355,-1.038,73.333,382.000,1.000,3.212,0.000
-3331.324,-4566.235,16410.890,11637.860,3002.715,-4102.560,-7973.779,-7274.775,-0.112,0.964,-0.274,-0.275,20.081,-1.312,73.333,383.000,1.000,0.008,0.000
-3553.147,-4771.395,15601.730,10903.750,2795.113,-4283.230,-8133.737,-7439.435,-0.115,0.987,-0.269,-0.427,19.470,-1.495,73.333,384.000,1.000,1.853,0.000
-3779.638,-4982.460,14790.190,10169.270,2585.551,-4470.231,-8291.330,-7604.802,-0.115,0.994,-0.264,-0.916,18.951,-1.862,73.333,385.000,1.000,2.520,0.000
-3993.516,-5181.427,13994.860,9449.536,2390.180,-4644.555,-8429.657,-7753.947,-0.116,0.983,-0.260,-1.587,18.616,-2.075,73.333,386.000,1.000,17.387,0.000
-4196.495,-5367.182,13217.060,8737.698,2206.014,-4800.865,-8553.855,-7888.628,-0.117,0.961,-0.265,-2.075,18.188,-2.258,73.333,387.000,1.000,0.017,0.000
-4401.740,-5553.696,12443.700,8023.736,2019.756,-4951.337,-8682.355,-8024.200,-0.118,0.940,-0.276,-2.075,17.914,-2.411,73.333,388.000,1.000,0.007,0.000
-4608.891,-5742.572,11672.310,7312.305,1830.393,-5104.944,-8818.499,-8164.764,-0.123,0.927,-0.280,-1.617,17.731,-2.777,73.333,389.000,1.000,2.543,0.000
-4820.823,-5936.558,10897.100,6598.437,1634.125,-5271.795,-8963.329,-8313.293,-0.125,0.926,-0.278,-1.007,17.395,-3.143,73.333,390.000,1.000,2.473,0.000
-5037.480,-6135.056,10117.520,5881.129,1433.557,-5446.839,-9110.218,-8466.107,-0.125,0.933,-0.282,-0.427,16.937,-3.510,73.333,391.000,1.000,2.500,0.000
-5245.271,-6323.440,9349.793,5172.374,1244.050,-5608.026,-9241.995,-8609.724,-0.126,0.938,-0.277,-0.183,16.632,-3.693,73.333,392.000,1.000,2.512,0.000
-5444.568,-6501.656,8594.582,4471.012,1064.898,-5754.452,-9360.753,-8746.579,-0.117,0.946,-0.279,-0.031,16.235,-3.876,73.333,393.000,1.000,8.744,0.000
-5647.817,-6682.367,7837.574,3768.992,883.005,-5900.818,-9481.508,-8886.565,-0.109,0.966,-0.277,0.244,16.327,-3.632,73.333,394.000,1.000,2.469,0.000
-5860.558,-6873.161,7070.735,3062.984,691.626,-6057.061,-9613.782,-9032.444,-0.099,0.985,-0.274,0.153,16.266,-3.540,73.333,395.000,1.000,4.465,0.000
-6077.193,-7071.798,6297.901,2356.809,493.948,-6224.811,-9756.382,-9182.092,-0.094,0.995,-0.269,-0.244,16.235,-3.204,73.333,396.000,1.000,0.016,0.000
-6286.858,-7265.547,5533.037,1658.462,299.853,-6392.306,-9895.989,-9330.104,-0.092,0.991,-0.267,-0.916,16.296,-2.716,73.333,397.000,1.000,8.028,0.000
-6491.938,-7452.271,4778.190,963.304,109.369,-6553.973,-10028.520,-9476.791,-0.095,0.978,-0.268,-1.526,16.602,-1.984,73.333,398.000,1.000,2.501,0.000
-6696.499,-7636.495,4027.774,267.711,-82.286,-6714.741,-10162.520,-9623.539,-0.100,0.958,-0.271,-1.678,16.663,-1.434,73.333,399.000,1.000,3.801,0.000
-6889.469,-7809.610,3291.258,-412.963,-265.672,-6866.830,-10291.900,-9759.944,-0.098,0.940,-0.278,-1.984,16.693,-1.007,73.333,400.000,1.000,9.323,0.000
-7072.538,-7974.240,2568.674,-1075.169,-438.475,-7008.042,-10410.770,-9882.875,-0.102,0.925,-0.276,-1.526,16.846,-0.275,73.333,401.000,1.000,0.018,0.000
-7262.934,-8146.917,1842.763,-1738.931,-615.487,-7154.337,-10534.970,-10010.920,-0.101,0.912,-0.273,-0.977,16.602,0.122,73.333,402.000,1.000,1.875,0.000
-7472.627,-8337.464,1100.239,-2422.155,-809.740,-7318.087,-10679.670,-10161.820,-0.103,0.912,-0.271,-0.488,16.754,0.305,73.333,403.000,1.000,8.760,0.000
-7702.220,-8546.881,338.350,-3125.202,-1022.494,-7501.325,-10841.880,-10331.760,-0.114,0.922,-0.267,0.214,16.724,0.641,73.333,404.000,1.000,3.127,0.000
-7931.715,-8756.632,-424.437,-3826.511,-1234.652,-7686.249,-10999.350,-10496.730,-0.114,0.927,-0.259,0.488,16.479,0.702,73.333,405.000,1.000,0.011,0.000
-8141.306,-8944.225,-1166.866,-4506.543,-1426.580,-7847.694,-11132.460,-10640.810,-0.117,0.933,-0.260,0.671,16.205,0.854,73.333,406.000,1.000,11.815,0.000
-8332.493,-9109.474,-1889.781,-5167.127,-1599.658,-7984.669,-11245.380,-10767.100,-0.115,0.934,-0.260,0.946,15.808,0.763,73.333,407.000,1.000,3.190,0.000
-8516.154,-9267.486,-2603.740,-5821.106,-1765.548,-8115.776,-11355.420,-10884.860,-0.109,0.937,-0.262,0.763,15.503,0.702,73.333,408.000,1.000,0.007,0.000
-8697.389,-9429.002,-3312.295,-6475.358,-1930.104,-8251.481,-11468.180,-11002.850,-0.113,0.952,-0.263,0.977,15.289,0.854,73.333,409.000,1.000,1.825,0.000
-8885.744,-9603.146,-4026.304,-7136.629,-2104.031,-8398.343,-11588.990,-11134.180,-0.110,0.964,-0.261,0.885,15.045,0.580,73.333,410.000,1.000,2.534,0.000
-9090.898,-9793.896,-4758.277,-7810.259,-2296.972,-8560.032,-11727.330,-11284.790,-0.117,0.975,-0.260,0.671,14.862,0.397,73.333,411.000,1.000,8.746,0.000
-9292.239,-9978.776,-5488.366,-8472.177,-2485.517,-8714.691,-11862.130,-11429.460,-0.118,0.980,-0.259,0.183,14.313,0.244,73.333,412.000,1.000,3.020,0.000
-9473.856,-10143.380,-6198.733,-9106.826,-2652.856,-8852.744,-11976.080,-11553.490,-0.111,0.976,-0.260,-0.549,13.947,-0.122,73.333,413.000,1.000,0.012,0.000
-9657.712,-10309.800,-6907.492,-9742.023,-2822.324,-8999.020,-12091.590,-11680.280,-0.108,0.973,-0.260,-0.885,13.611,-0.183,73.333,414.000,1.000,1.942,0.000
-9858.256,-10493.520,-7627.870,-10396.870,-3008.903,-9162.313,-12225.950,-11824.080,-0.103,0.967,-0.265,-1.343,13.275,-0.458,73.333,415.000,1.000,11.269,0.000
-10060.080,-10682.100,-8346.698,-11056.480,-3197.727,-9322.831,-12364.030,-11971.550,-0.099,0.967,-0.267,-1.770,13.184,-0.580,73.333,416.000,1.000,3.091,0.000
-10247.620,-10858.990,-9049.517,-11703.610,-3373.456,-9466.934,-12486.670,-12106.320,-0.097,0.971,-0.266,-1.892,13.123,-0.458,73.333,417.000,1.000,0.015,0.000
-10425.170,-11023.930,-9739.763,-12339.980,-3540.020,-9603.125,-12601.050,-12230.750,-0.088,0.969,-0.266,-2.350,12.970,-0.549,73.333,418.000,1.000,1.871,0.000
-10609.730,-11193.960,-10432.840,-12981.150,-3712.607,-9747.412,-12727.410,-12361.340,-0.091,0.968,-0.268,-2.594,12.970,-0.275,73.333,419.000,1.000,10.025,0.000
-10803.840,-11373.210,-11129.900,-13630.770,-3891.608,-9899.837,-12861.490,-12500.700,-0.093,0.959,-0.269,-2.899,12.848,-0.122,73.333,420.000,1.000,2.440,0.000
-10994.080,-11546.150,-11818.180,-14275.020,-4064.819,-10049.370,-12985.000,-12636.810,-0.087,0.946,-0.270,-3.113,12.787,-0.214,73.333,421.000,1.000,2.570,0.000
-11180.260,-11711.740,-12500.080,-14908.870,-4233.589,-10195.260,-13100.780,-12766.570,-0.084,0.944,-0.269,-3.052,13.092,-0.031,73.333,422.000,1.000,6.254,0.000
-11360.460,-11871.060,-13177.550,-15526.650,-4394.974,-10331.090,-13208.330,-12884.130,-0.084,0.945,-0.272,-2.777,13.153,-0.061,73.333,423.000,1.000,4.371,0.000
-11532.760,-12022.700,-13851.400,-16129.580,-4548.686,-10455.310,-13306.610,-12990.790,-0.088,0.958,-0.274,-2.594,13.245,-0.122,73.333,424.000,1.000,0.007,0.000
-11721.570,-12189.110,-14544.290,-16749.230,-4722.012,-10594.910,-13424.890,-13117.040,-0.102,0.975,-0.273,-2.502,13.275,-0.153,73.333,425.000,1.000,5.590,0.000
-11928.560,-12374.750,-15254.440,-17390.350,-4915.680,-10755.760,-13568.610,-13266.170,-0.109,0.978,-0.274,-2.838,13.092,-0.458,73.333,426.000,1.000,8.751,0.000
-12123.950,-12551.680,-15949.840,-18021.170,-5098.348,-10912.920,-13704.530,-13407.300,-0.112,0.973,-0.279,-3.143,12.939,-0.793,73.333,427.000,1.000,3.039,0.000
-12299.350,-12709.770,-16620.990,-18630.100,-5259.813,-11050.310,-13815.590,-13528.710,-0.118,0.966,-0.275,-3.082,12.543,-1.099,73.333,428.000,1.000,0.006,0.000
-12469.500,-12861.600,-17281.570,-19231.130,-5413.767,-11173.310,-13914.710,-13642.010,-0.115,0.949,-0.274,-2.930,12.085,-1.709,73.333,429.000,1.000,1.869,0.000
-12649.560,-13020.270,-17945.060,-19842.360,-5577.036,-11304.380,-14024.180,-13762.000,-0.110,0.940,-0.275,-2.777,11.841,-1.923,73.333,430.000,1.000,12.572,0.000
-12842.480,-13191.100,-18615.660,-20468.580,-5753.525,-11453.720,-14150.190,-13893.330,-0.108,0.933,-0.267,-2.380,11.475,-2.014,73.333,431.000,1.000,3.096,0.000
-13036.020,-13365.050,-19283.510,-21095.800,-5931.973,-11606.080,-14278.650,-14026.460,-0.101,0.927,-0.263,-2.136,11.353,-2.075,73.333,432.000,1.000,0.008,0.000
-13217.460,-13526.800,-19937.060,-21708.730,-6099.438,-11746.940,-14396.290,-14148.300,-0.098,0.928,-0.262,-1.831,11.322,-1.923,73.333,433.000,1.000,1.837,0.000
-13399.310,-13689.180,-20591.660,-22318.330,-6266.137,-11887.130,-14513.010,-14270.450,-0.095,0.932,-0.264,-1.373,11.108,-1.831,73.333,434.000,1.000,7.576,0.000
-13589.710,-13864.240,-21256.610,-22933.180,-6440.994,-12032.490,-14634.800,-14403.650,-0.094,0.940,-0.262,-1.251,10.986,-1.770,73.333,435.000,1.000,5.010,0.000
-13771.830,-14029.780,-21914.410,-23537.680,-6608.720,-12168.810,-14748.800,-14532.270,-0.097,0.953,-0.265,-1.129,10.986,-1.404,73.333,436.000,1.000,2.462,0.000
-13947.710,-14184.400,-22568.220,-24131.950,-6770.576,-12301.860,-14858.170,-14653.170,-0.099,0.958,-0.269,-1.221,10.742,-1.190,73.333,437.000,1.000,3.808,0.000
-14133.810,-14350.200,-23234.640,-24730.230,-6942.835,-12448.540,-14976.700,-14780.820,-0.099,0.968,-0.270,-1.495,10.468,-1.282,73.333,438.000,1.000,11.823,0.000
-14327.080,-14526.180,-23910.000,-25330.310,-7122.981,-12605.290,-15103.200,-14919.180,-0.104,0.981,-0.270,-1.526,10.406,-1.221,73.333,439.000,1.000,0.009,0.000
-14506.570,-14690.800,-24572.180,-25914.140,-7290.543,-12750.950,-15220.100,-15048.690,-0.103,0.989,-0.270,-1.831,10.101,-1.495,73.333,440.000,1.000,1.834,0.000
-14666.410,-14837.010,-25211.650,-26479.650,-7437.924,-12874.330,-15318.660,-15157.020,-0.104,0.991,-0.269,-2.258,9.979,-1.709,73.333,441.000,1.000,2.532,0.000
-14832.620,-14988.640,-25852.020,-27054.190,-7589.511,-12997.850,-15420.630,-15269.830,-0.105,0.993,-0.268,-2.716,9.705,-1.678,73.333,442.000,1.000,2.472,0.000
-15020.650,-15160.460,-26507.360,-27652.690,-7762.259,-13142.050,-15544.670,-15406.370,-0.105,0.984,-0.265,-3.265,9.308,-1.770,73.333,443.000,1.000,3.811,0.000
-15206.310,-15327.620,-27152.210,-28252.050,-7933.463,-13287.890,-15670.540,-15542.230,-0.113,0.985,-0.267,-3.784,9.064,-1.923,73.333,444.000,1.000,6.807,0.000
-15364.920,-15466.500,-27765.440,-28829.020,-8080.477,-13411.500,-15772.630,-15651.440,-0.118,0.982,-0.263,-3.998,8.728,-2.014,73.333,445.000,1.000,0.007,0.000
-15510.450,-15593.070,-28364.930,-29393.750,-8217.359,-13523.660,-15862.560,-15747.950,-0.123,0.982,-0.260,-4.395,8.209,-2.197,73.333,446.000,1.000,8.151,0.000
-15676.010,-15741.030,-28982.990,-29972.090,-8372.851,-13651.790,-15970.820,-15863.650,-0.125,0.985,-0.255,-4.822,7.782,-2.289,73.333,447.000,1.000,3.025,0.000
-15868.290,-15917.700,-29626.620,-30568.980,-8553.024,-13803.370,-16103.120,-16002.790,-0.124,0.978,-0.253,-5.341,7.263,-2.533,73.333,448.000,1.000,0.010,0.000
-16057.550,-16092.410,-30267.570,-31157.190,-8730.523,-13953.850,-16229.290,-16133.990,-0.115,0.971,-0.255,-5.798,6.866,-2.747,73.333,449.000,1.000,5.685,0.000
-16221.340,-16239.980,-30882.260,-31715.240,-8880.695,-14078.020,-16326.900,-16238.020,-0.111,0.969,-0.255,-6.073,6.500,-2.747,73.333,450.000,1.000,3.827,0.000
-16375.890,-16376.150,-31487.070,-32260.470,-9020.370,-14191.790,-16418.510,-16336.640,-0.102,0.962,-0.257,-6.165,6.287,-2.930,73.333,451.000,1.000,3.709,0.000
-16545.860,-16527.910,-32106.880,-32818.780,-9177.854,-14323.940,-16529.730,-16453.220,-0.095,0.958,-0.261,-6.348,6.134,-2.747,73.333,452.000,1.000,9.383,0.000
-16729.190,-16696.520,-32737.900,-33389.210,-9349.637,-14469.350,-16650.180,-16582.760,-0.090,0.958,-0.260,-6.256,6.012,-2.411,73.333,453.000,1.000,0.025,0.000
-16907.690,-16863.260,-33361.540,-33956.520,-9517.006,-14609.230,-16764.480,-16708.410,-0.084,0.954,-0.255,-6.134,5.890,-2.197,73.333,454.000,1.000,1.753,0.000
-17070.940,-17012.550,-33965.790,-34511.370,-9669.932,-14735.140,-16868.860,-16820.080,-0.081,0.955,-0.255,-6.042,6.073,-1.709,73.333,455.000,1.000,11.346,0.000
-17222.490,-17146.330,-34552.680,-35055.290,-9809.652,-14847.330,-16963.130,-16921.400,-0.083,0.957,-0.255,-5.768,6.165,-1.190,73.333,456.000,1.000,3.139,0.000
-17369.180,-17274.660,-35131.680,-35594.660,-9943.812,-14953.030,-17052.980,-17019.460,-0.082,0.955,-0.250,-6.134,6.256,-1.007,73.333,457.000,1.000,0.012,0.000
-17522.370,-17411.690,-35717.340,-36140.790,-10086.170,-15067.670,-17151.410,-17124.370,-0.084,0.960,-0.252,-6.378,6.531,-0.549,73.333,458.000,1.000,1.771,0.000
-17695.100,-17570.740,-36324.120,-36703.640,-10249.340,-15205.840,-17269.580,-17248.130,-0.093,0.963,-0.247,-6.134,6.622,-0.305,73.333,459.000,1.000,7.514,0.000
-17874.800,-17737.040,-36937.540,-37268.380,-10419.280,-15352.570,-17392.430,-17377.050,-0.089,0.944,-0.246,-6.622,6.531,-0.519,73.333,460.000,1.000,2.548,0.000
-18039.430,-17887.510,-37533.540,-37814.860,-10573.640,-15481.320,-17496.740,-17489.970,-0.091,0.936,-0.247,-6.805,6.714,-0.336,73.333,461.000,1.000,6.249,0.000
-18188.460,-18023.670,-38114.460,-38343.890,-10712.670,-15592.380,-17586.660,-17589.150,-0.097,0.943,-0.254,-6.348,6.958,-0.397,73.333,462.000,1.000,4.966,0.000
-18333.590,-18157.160,-38692.500,-38867.430,-10848.620,-15701.280,-17677.310,-17686.760,-0.096,0.947,-0.251,-6.134,6.927,-0.519,73.333,463.000,1.000,3.091,0.000
-18480.090,-18291.030,-39269.320,-39389.980,-10985.760,-15812.430,-17769.500,-17784.750,-0.099,0.947,-0.251,-6.165,6.683,-0.519,73.333,464.000,1.000,0.007,0.000
-18627.710,-18423.910,-39844.970,-39907.430,-11122.150,-15921.350,-17859.630,-17880.950,-0.102,0.951,-0.247,-6.256,6.500,-0.610,73.333,465.000,1.000,1.892,0.000
-18785.770,-18565.950,-40430.570,-40431.290,-11267.440,-16037.920,-17956.620,-17987.980,-0.106,0.962,-0.246,-5.951,6.439,-0.824,73.333,466.000,1.000,8.663,0.000
-18956.450,-18720.970,-41027.740,-40970.150,-11426.150,-16169.430,-18065.390,-18109.510,-0.108,0.973,-0.247,-6.012,6.012,-1.007,73.333,467.000,1.000,2.595,0.000
-19110.330,-18859.760,-41608.450,-41495.020,-11572.200,-16290.160,-18164.820,-18217.290,-0.110,0.973,-0.251,-6.439,5.768,-1.251,73.333,468.000,1.000,3.711,0.000
-19239.660,-18974.100,-42164.300,-41995.690,-11697.070,-16388.140,-18247.690,-18305.690,-0.108,0.958,-0.251,-6.683,5.585,-1.678,73.333,469.000,1.000,6.856,0.000
-19381.420,-19101.220,-42727.160,-42506.070,-11832.740,-16493.920,-18342.270,-18404.240,-0.105,0.944,-0.252,-6.622,5.341,-1.892,73.333,470.000,1.000,0.008,0.000
-19542.830,-19249.210,-43302.820,-43034.240,-11985.190,-16618.550,-18452.440,-18515.630,-0.103,0.950,-0.248,-6.287,5.188,-1.892,73.333,471.000,1.000,8.187,0.000
-19702.540,-19395.600,-43872.340,-43564.130,-12134.390,-16745.740,-18556.310,-18626.220,-0.108,0.974,-0.242,-5.890,5.005,-2.136,73.333,472.000,1.000,3.030,0.000
-19858.860,-19536.160,-44435.460,-44092.230,-12277.970,-16868.950,-18652.070,-18736.560,-0.108,0.996,-0.237,-5.920,4.822,-2.258,73.333,473.000,1.000,0.007,0.000
-20011.780,-19672.960,-44994.300,-44610.750,-12416.210,-16983.810,-18745.400,-18842.950,-0.106,1.007,-0.234,-6.287,4.547,-2.289,73.333,474.000,1.000,1.928,0.000
-20163.000,-19810.330,-45553.680,-45119.660,-12554.140,-17096.500,-18842.150,-18947.220,-0.103,1.001,-0.232,-6.958,4.364,-2.258,73.333,475.000,1.000,6.212,0.000
-20322.490,-19956.510,-46122.400,-45633.580,-12703.500,-17220.610,-18949.300,-19059.210,-0.096,0.984,-0.234,-7.355,4.333,-2.106,73.333,476.000,1.000,14.375,0.000
-20478.980,-20100.120,-46685.950,-46145.770,-12851.900,-17342.570,-19052.890,-19166.510,-0.089,0.964,-0.231,-7.660,4.395,-1.617,73.333,477.000,1.000,0.011,0.000
-20622.110,-20231.910,-47233.590,-46646.990,-12988.190,-17451.360,-19143.410,-19261.290,-0.086,0.948,-0.238,-7.477,4.517,-1.038,73.333,478.000,1.000,4.924,0.000
-20761.040,-20358.290,-47776.110,-47144.040,-13120.790,-17558.780,-19229.840,-19355.520,-0.083,0.943,-0.238,-7.080,4.730,-0.732,73.333,479.000,1.000,0.010,0.000
-20895.080,-20476.570,-48313.510,-47633.820,-13247.480,-17661.940,-19310.570,-19447.320,-0.083,0.949,-0.237,-6.439,4.883,-0.366,73.333,480.000,1.000,1.928,0.000
-21033.120,-20598.550,-48852.510,-48124.530,-13376.270,-17764.380,-19396.950,-19542.720,-0.087,0.958,-0.236,-6.165,4.913,-0.031,73.333,481.000,1.000,2.570,0.000
-21189.680,-20740.460,-49404.610,-48629.170,-13520.760,-17881.160,-19502.360,-19651.180,-0.091,0.962,-0.236,-6.073,5.035,0.275,73.333,482.000,1.000,3.703,0.000
-21350.990,-20886.740,-49956.140,-49133.160,-13666.790,-18001.120,-19607.280,-19756.310,-0.092,0.958,-0.232,-5.798,4.883,0.458,73.333,483.000,1.000,15.630,0.000
-21501.040,-21019.970,-50493.970,-49626.030,-13801.930,-18109.950,-19698.710,-19850.280,-0.092,0.955,-0.230,-5.768,4.852,0.488,73.333,484.000,1.000,0.018,0.000
-21639.180,-21140.360,-51020.280,-50112.570,-13929.750,-18213.150,-19782.800,-19942.150,-0.094,0.955,-0.232,-5.554,4.913,0.488,73.333,485.000,1.000,4.370,0.000
-21769.150,-21255.170,-51539.650,-50592.140,-14052.080,-18313.640,-19859.700,-20030.090,-0.093,0.956,-0.239,-5.249,4.974,0.336,73.333,486.000,1.000,2.535,0.000
-21903.490,-21379.350,-52063.780,-51071.260,-14178.220,-18414.660,-19937.900,-20119.840,-0.094,0.954,-0.235,-5.127,4.822,0.183,73.333,487.000,1.000,2.435,0.000
-22053.210,-21520.900,-52602.530,-51560.440,-14320.670,-18529.260,-20034.350,-20225.940,-0.097,0.951,-0.239,-4.913,4.578,0.122,73.333,488.000,1.000,2.528,0.000
-22204.780,-21661.180,-53141.020,-52049.300,-14465.900,-18648.990,-20136.960,-20333.980,-0.102,0.949,-0.242,-4.730,4.395,-0.061,73.333,489.000,1.000,3.710,0.000
-22343.980,-21786.710,-53665.130,-52526.490,-14597.410,-18757.370,-20226.010,-20428.330,-0.105,0.946,-0.245,-4.639,4.181,-0.397,73.333,490.000,1.000,11.971,0.000
-22476.220,-21907.290,-54181.630,-52994.950,-14721.650,-18862.510,-20308.370,-20517.440,-0.104,0.944,-0.249,-4.364,3.998,-0.916,73.333,491.000,1.000,0.014,0.000
-22613.360,-22033.550,-54702.610,-53464.930,-14852.480,-18977.130,-20400.170,-20613.770,-0.100,0.946,-0.252,-3.998,3.784,-1.526,73.333,492.000,1.000,24.977,0.000
-22762.050,-22169.340,-55232.470,-53946.000,-14994.560,-19099.280,-20504.120,-20721.690,-0.098,0.952,-0.252,-3.693,3.632,-1.892,73.333,493.000,1.000,0.024,0.000
-22913.570,-22307.580,-55759.890,-54429.630,-15135.980,-19216.880,-20605.050,-20828.940,-0.095,0.962,-0.249,-3.510,3.479,-2.045,73.333,494.000,1.000,2.428,0.000
-23048.980,-22429.940,-56266.840,-54896.270,-15259.330,-19315.040,-20685.690,-20916.920,-0.094,0.969,-0.243,-3.448,3.235,-2.106,73.333,495.000,1.000,0.014,0.000
-23161.580,-22529.410,-56749.490,-55341.580,-15362.280,-19392.300,-20746.770,-20985.760,-0.098,0.974,-0.238,-3.693,2.930,-2.289,73.333,496.000,1.000,3.022,0.000
-23275.570,-22631.420,-57231.780,-55790.340,-15468.600,-19475.990,-20812.480,-21059.400,-0.102,0.981,-0.246,-4.242,2.808,-2.625,73.333,497.000,1.000,0.011,0.000
-23412.000,-22755.730,-57733.790,-56261.790,-15596.040,-19583.370,-20898.670,-21150.790,-0.112,1.000,-0.251,-4.639,2.716,-2.502,73.333,498.000,1.000,0.006,0.000
-23556.750,-22888.520,-58243.950,-56738.010,-15732.270,-19696.680,-20994.130,-21248.720,-0.113,1.008,-0.244,-5.005,2.197,-2.777,73.333,499.000,1.000,3.136,0.000
-23701.990,-23025.160,-58757.420,-57206.640,-15872.680,-19813.340,-21094.260,-21353.020,-0.105,0.991,-0.232,-5.981,1.648,-2.869,73.333,500.000,1.000,0.008,0.000
-23849.810,-23165.030,-59276.220,-57669.380,-16017.960,-19937.910,-21197.010,-21463.290,-0.099,0.963,-0.227,-6.470,1.343,-2.747,73.333,501.000,1.000,1.901,0.000
-23983.660,-23286.820,-59779.100,-58114.790,-16148.380,-20045.840,-21282.540,-21558.360,-0.097,0.942,-0.231,-6.714,1.434,-2.899,73.333,502.000,1.000,3.747,0.000
-24098.620,-23387.640,-60256.950,-58543.790,-16257.810,-20128.190,-21347.500,-21633.200,-0.106,0.943,-0.234,-6.226,1.495,-2.563,73.333,503.000,1.000,9.331,0.000
-24215.310,-23492.340,-60731.930,-58977.510,-16368.290,-20213.320,-21417.460,-21711.220,-0.109,0.942,-0.241,-6.195,1.160,-2.502,73.333,504.000,1.000,0.013,0.000
-24349.520,-23617.630,-61223.250,-59429.870,-16497.270,-20321.880,-21508.640,-21808.720,-0.112,0.945,-0.245,-6.073,0.732,-2.411,73.333,505.000,1.000,6.298,0.000
-24493.120,-23752.960,-61723.880,-59891.860,-16635.960,-20440.760,-21608.160,-21912.080,-0.114,0.949,-0.242,-5.554,0.366,-2.625,73.333,506.000,1.000,0.008,0.000
-24623.780,-23872.710,-62210.420,-60341.250,-16761.820,-20545.150,-21693.850,-21999.090,-0.106,0.950,-0.240,-5.310,0.092,-2.869,73.333,507.000,1.000,13.702,0.000
-24732.300,-23967.080,-62671.420,-60768.660,-16865.140,-20625.710,-21757.680,-22067.270,-0.104,0.955,-0.239,-5.096,0.000,-2.716,73.333,508.000,1.000,0.013,0.000
-24840.920,-24062.830,-63129.340,-61193.520,-16967.810,-20706.330,-21821.330,-22140.810,-0.100,0.952,-0.239,-4.822,-0.214,-2.594,73.333,509.000,1.000,2.468,0.000
-24973.860,-24187.250,-63609.730,-61637.200,-17094.590,-20813.270,-21906.460,-22237.190,-0.100,0.947,-0.243,-4.639,-0.183,-2.472,73.333,510.000,1.000,0.006,0.000
-25110.710,-24315.930,-64092.420,-62079.850,-17224.100,-20923.740,-21992.550,-22331.790,-0.106,0.952,-0.244,-4.272,-0.214,-2.228,73.333,511.000,1.000,9.393,0.000
-25228.310,-24423.110,-64556.310,-62501.210,-17335.390,-21016.650,-22065.080,-22409.450,-0.105,0.952,-0.248,-3.967,-0.366,-2.258,73.333,512.000,1.000,3.048,0.000
-25345.900,-24529.950,-65021.640,-62922.930,-17450.770,-21112.310,-22145.070,-22493.020,-0.110,0.958,-0.249,-3.601,-0.458,-2.075,73.333,513.000,1.000,0.008,0.000
-25474.500,-24647.190,-65497.460,-63355.880,-17578.020,-21215.150,-22233.440,-22585.800,-0.112,0.963,-0.250,-3.265,-0.824,-2.045,73.333,514.000,1.000,1.964,0.000
-25603.310,-24763.040,-65970.880,-63788.140,-17702.870,-21311.210,-22315.220,-22673.590,-0.112,0.965,-0.246,-3.174,-0.854,-2.045,73.333,515.000,1.000,8.855,0.000
-25734.670,-24881.130,-66444.080,-64220.870,-17828.700,-21407.610,-22396.350,-22762.350,-0.113,0.969,-0.239,-3.265,-1.068,-1.740,73.333,516.000,1.000,2.933,0.000
-25863.680,-24997.850,-66913.550,-64647.510,-17952.250,-21505.530,-22475.540,-22850.530,-0.110,0.967,-0.236,-3.448,-1.312,-1.495,73.333,517.000,1.000,0.010,0.000
-25977.120,-25100.330,-67365.730,-65057.760,-18061.540,-21594.800,-22542.310,-22926.740,-0.107,0.969,-0.240,-3.448,-1.404,-1.221,73.333,518.000,1.000,2.057,0.000
-26085.970,-25198.750,-67809.370,-65466.130,-18166.570,-21682.130,-22605.930,-22998.000,-0.107,0.968,-0.236,-3.479,-1.556,-0.793,73.333,519.000,1.000,8.660,0.000
-26199.060,-25301.100,-68252.090,-65879.240,-18273.260,-21767.950,-22672.840,-23067.890,-0.105,0.962,-0.240,-3.601,-1.587,-0.488,73.333,520.000,1.000,3.708,0.000
-26316.250,-25406.270,-68695.620,-66295.670,-18381.760,-21852.700,-22743.740,-23140.360,-0.107,0.964,-0.240,-3.540,-1.709,-0.214,73.333,521.000,1.000,9.366,0.000
-26442.380,-25518.160,-69148.980,-66718.910,-18499.320,-21946.390,-22824.350,-23224.650,-0.107,0.965,-0.241,-3.571,-1.892,-0.092,73.333,522.000,1.000,0.017,0.000
-26568.700,-25630.620,-69605.810,-67135.480,-18619.320,-22041.260,-22906.130,-23311.410,-0.106,0.968,-0.244,-3.754,-2.014,0.000,73.333,523.000,1.000,1.875,0.000
-26681.800,-25732.040,-70051.530,-67532.550,-18728.960,-22125.530,-22973.760,-23386.980,-0.109,0.973,-0.241,-3.754,-2.167,0.183,73.333,524.000,1.000,2.527,0.000
-26786.730,-25825.070,-70488.520,-67920.090,-18830.590,-22204.760,-23031.490,-23454.410,-0.107,0.978,-0.241,-4.028,-2.411,0.153,73.333,525.000,1.000,8.709,0.000
-26903.160,-25929.520,-70933.980,-68319.130,-18941.460,-22294.100,-23100.860,-23531.470,-0.101,0.982,-0.245,-4.364,-2.563,0.092,73.333,526.000,1.000,3.103,0.000
-27030.840,-26046.830,-71388.190,-68728.160,-19062.600,-22393.540,-23186.500,-23621.460,-0.101,0.984,-0.243,-4.517,-2.563,0.122,73.333,527.000,1.000,0.006,0.000
-27153.860,-26160.210,-71837.490,-69131.910,-19180.970,-22492.430,-23274.700,-23711.490,-0.099,0.983,-0.247,-5.035,-2.716,0.183,73.333,528.000,1.000,1.930,0.000
-27276.120,-26272.270,-72283.370,-69537.450,-19299.500,-22592.560,-23359.820,-23799.250,-0.101,0.985,-0.246,-5.371,-2.686,0.183,73.333,529.000,1.000,13.812,0.000
-27395.480,-26380.490,-72720.840,-69944.230,-19413.160,-22685.980,-23433.760,-23878.560,-0.102,0.991,-0.249,-5.676,-2.655,0.244,73.333,530.000,1.000,2.420,0.000
-27502.020,-26474.180,-73141.460,-70338.680,-19512.740,-22761.090,-23489.940,-23943.760,-0.102,0.995,-0.247,-6.165,-2.838,0.153,73.333,531.000,1.000,3.070,0.000
-27612.390,-26570.450,-73565.020,-70732.150,-19616.580,-22839.230,-23549.010,-24014.210,-0.108,0.999,-0.246,-6.653,-2.930,0.275,73.333,532.000,1.000,0.010,0.000
-27735.390,-26680.720,-74003.310,-71132.770,-19734.490,-22935.240,-23624.070,-24100.320,-0.114,1.000,-0.246,-7.111,-3.113,0.244,73.333,533.000,1.000,1.932,0.000
-27857.140,-26791.020,-74440.660,-71529.060,-19851.040,-23029.720,-23698.850,-24184.830,-0.114,0.997,-0.245,-7.568,-3.326,0.336,73.333,534.000,1.000,11.243,0.000
-27977.180,-26898.330,-74872.880,-71922.370,-19963.090,-23117.980,-23773.520,-24264.530,-0.118,0.992,-0.238,-8.179,-3.662,0.458,73.333,535.000,1.000,3.125,0.000
-28098.620,-27006.320,-75304.340,-72316.600,-20077.130,-23213.730,-23861.630,-24350.190,-0.117,0.986,-0.231,-8.545,-3.937,0.641,73.333,536.000,1.000,0.014,0.000
-28213.040,-27109.180,-75727.870,-72702.490,-20187.710,-23310.570,-23949.290,-24432.160,-0.112,0.971,-0.229,-8.820,-4.120,0.732,73.333,537.000,1.000,6.932,0.000
-28320.180,-27207.310,-76141.800,-73078.380,-20291.790,-23399.570,-24021.090,-24500.550,-0.110,0.962,-0.229,-8.911,-4.242,0.916,73.333,538.000,1.000,6.764,0.000
-28428.660,-27307.370,-76554.850,-73453.920,-20397.650,-23488.210,-24087.550,-24569.000,-0.109,0.955,-0.228,-8.667,-4.272,1.129,73.333,539.000,1.000,0.010,0.000
-28537.070,-27405.540,-76966.170,-73829.710,-20504.980,-23575.410,-24154.860,-24644.210,-0.106,0.951,-0.224,-8.484,-4.395,1.129,73.333,540.000,1.000,1.807,0.000
-28635.680,-27492.730,-77365.580,-74195.310,-20602.380,-23649.610,-24213.220,-24710.900,-0.107,0.948,-0.227,-8.087,-4.639,1.465,73.333,541.000,1.000,3.754,0.000
-28730.590,-27576.880,-77760.270,-74556.200,-20695.180,-23717.240,-24266.850,-24769.380,-0.105,0.948,-0.226,-7.507,-4.700,1.740,73.333,542.000,1.000,8.858,0.000
-28835.440,-27672.000,-78164.200,-74926.040,-20796.740,-23793.520,-24328.570,-24836.140,-0.100,0.938,-0.226,-7.141,-4.700,1.801,73.333,543.000,1.000,3.037,0.000
-28946.470,-27772.730,-78570.650,-75301.810,-20902.010,-23873.940,-24395.220,-24912.030,-0.095,0.932,-0.225,-6.683,-4.639,2.289,73.333,544.000,1.000,0.008,0.000
-29059.850,-27872.850,-78975.040,-75681.860,-21007.920,-23954.460,-24465.080,-24992.460,-0.090,0.926,-0.224,-5.737,-4.547,2.502,73.333,545.000,1.000,4.336,0.000
-29178.170,-27976.100,-79381.010,-76066.550,-21118.990,-24040.520,-24539.350,-25074.600,-0.086,0.918,-0.229,-4.974,-4.303,2.716,73.333,546.000,1.000,6.273,0.000
-29293.980,-28078.720,-79782.930,-76444.130,-21227.610,-24125.420,-24607.320,-25150.270,-0.085,0.926,-0.232,-4.242,-4.059,2.930,73.333,547.000,1.000,2.527,0.000
-29395.380,-28168.990,-80174.140,-76802.980,-21322.740,-24197.870,-24660.830,-25212.500,-0.085,0.939,-0.232,-3.235,-3.845,3.021,73.333,548.000,1.000,3.723,0.000
-29485.990,-28248.950,-80559.240,-77148.080,-21409.890,-24263.070,-24710.320,-25267.120,-0.081,0.949,-0.234,-2.625,-3.510,2.960,73.333,549.000,1.000,3.807,0.000
-29582.850,-28336.330,-80951.990,-77496.590,-21504.940,-24338.090,-24771.900,-25331.140,-0.080,0.956,-0.229,-2.228,-3.113,3.235,73.333,550.000,1.000,14.349,0.000
-29688.040,-28433.540,-81353.170,-77851.970,-21607.750,-24421.500,-24841.400,-25404.810,-0.080,0.955,-0.229,-1.740,-2.869,3.265,73.333,551.000,1.000,0.014,0.000
-29791.020,-28528.950,-81748.820,-78204.860,-21707.150,-24498.920,-24905.050,-25473.880,-0.076,0.944,-0.232,-1.495,-2.563,3.021,73.333,552.000,1.000,1.816,0.000
-29894.440,-28623.710,-82138.510,-78557.770,-21805.270,-24575.500,-24965.800,-25539.910,-0.075,0.938,-0.230,-0.854,-2.228,2.930,73.333,553.000,1.000,2.500,0.000
-30000.880,-28719.960,-82526.640,-78913.780,-21905.330,-24659.050,-25030.990,-25607.300,-0.078,0.944,-0.228,-0.305,-2.075,2.655,73.333,554.000,1.000,2.607,0.000
-30104.580,-28813.540,-82909.370,-79269.520,-22004.170,-24745.160,-25098.250,-25673.920,-0.084,0.960,-0.227,0.214,-1.862,2.441,73.333,555.000,1.000,8.674,0.000
-30207.060,-28907.350,-83289.890,-79626.260,-22104.240,-24831.480,-25165.160,-25742.820,-0.090,0.979,-0.231,0.183,-1.770,2.258,73.333,556.000,1.000,3.099,0.000
-30307.240,-29000.090,-83668.190,-79978.790,-22202.530,-24911.500,-25227.210,-25811.690,-0.094,0.992,-0.229,-0.153,-1.831,2.014,73.333,557.000,1.000,0.005,0.000
-30396.620,-29081.690,-84034.450,-80317.300,-22288.680,-24975.910,-25276.800,-25870.390,-0.092,0.997,-0.230,-0.580,-1.953,1.465,73.333,558.000,1.000,1.889,0.000
-30479.840,-29155.160,-84394.450,-80647.060,-22368.100,-25034.130,-25321.610,-25921.880,-0.090,0.991,-0.236,-1.007,-1.984,1.129,73.333,559.000,1.000,13.795,0.000
-30574.480,-29239.220,-84767.300,-80983.820,-22459.570,-25106.490,-25379.280,-25984.620,-0.087,0.980,-0.239,-1.526,-2.014,0.702,73.333,560.000,1.000,3.111,0.000
-30682.280,-29337.950,-85153.270,-81329.560,-22564.430,-25193.950,-25448.210,-26060.740,-0.085,0.969,-0.241,-1.770,-1.953,0.458,73.333,561.000,1.000,0.018,0.000
-30791.740,-29439.370,-85539.240,-81675.220,-22670.740,-25281.920,-25516.320,-26135.790,-0.084,0.962,-0.246,-1.862,-1.862,0.061,73.333,562.000,1.000,1.835,0.000
-30899.880,-29538.430,-85921.590,-82018.110,-22775.480,-25365.500,-25583.390,-26207.790,-0.079,0.959,-0.248,-1.862,-1.831,-0.244,73.333,563.000,1.000,2.490,0.000
-31000.350,-29628.090,-86293.580,-82351.930,-22872.380,-25441.780,-25644.780,-26275.390,-0.078,0.961,-0.249,-1.831,-1.678,-0.610,73.333,564.000,1.000,9.322,0.000
-31088.690,-29704.900,-86650.170,-82673.030,-22956.970,-25507.720,-25695.630,-26333.420,-0.080,0.971,-0.253,-1.831,-1.587,-0.824,73.333,565.000,1.000,0.010,0.000
-31173.860,-29778.860,-87000.090,-82992.450,-23037.710,-25569.020,-25743.280,-26387.610,-0.083,0.979,-0.255,-2.106,-1.373,-1.068,73.333,566.000,1.000,1.863,0.000
-31264.410,-29857.650,-87352.340,-83320.730,-23122.920,-25633.420,-25794.410,-26446.170,-0.086,0.983,-0.254,-2.411,-1.373,-1.312,73.333,567.000,1.000,6.265,0.000
-31361.220,-29941.470,-87708.410,-83656.640,-23213.390,-25702.810,-25850.620,-26508.700,-0.087,0.984,-0.251,-3.021,-1.404,-1.404,73.333,568.000,1.000,4.457,0.000
-31461.200,-30028.780,-88066.660,-83994.490,-23305.690,-25773.360,-25909.040,-26571.960,-0.090,0.984,-0.253,-3.448,-1.404,-1.495,73.333,569.000,1.000,0.011,0.000
-31561.400,-30118.580,-88425.480,-84330.310,-23397.480,-25842.510,-25963.450,-26633.830,-0.094,0.986,-0.252,-3.937,-1.465,-1.648,73.333,570.000,1.000,1.790,0.000
-31655.270,-30203.490,-88777.660,-84655.100,-23483.040,-25904.410,-26005.980,-26689.120,-0.096,0.987,-0.253,-4.578,-1.526,-1.740,73.333,571.000,1.000,13.709,0.000
-31739.400,-30278.260,-89120.000,-84966.060,-23561.750,-25963.670,-26043.800,-26739.460,-0.099,0.985,-0.252,-5.188,-1.526,-1.892,73.333,572.000,1.000,2.592,0.000
-31824.680,-30354.720,-89464.700,-85278.090,-23647.630,-26041.100,-26099.200,-26796.730,-0.100,0.978,-0.251,-5.676,-1.678,-2.106,73.333,573.000,1.000,4.343,0.000
-31924.190,-30447.730,-89823.660,-85602.320,-23750.910,-26137.530,-26175.720,-26866.950,-0.096,0.971,-0.251,-6.042,-1.709,-2.350,73.333,574.000,1.000,0.012,0.000
-32021.990,-30540.090,-90179.210,-85918.440,-23850.870,-26217.560,-26240.780,-26932.760,-0.096,0.971,-0.249,-6.317,-1.556,-2.533,73.333,575.000,1.000,16.203,0.000
-32105.290,-30615.570,-90518.120,-86216.590,-23933.770,-26272.120,-26281.200,-26985.610,-0.099,0.979,-0.247,-6.683,-1.495,-2.411,73.333,576.000,1.000,0.014,0.000
-32196.760,-30696.650,-90862.870,-86525.110,-24023.030,-26341.010,-26335.570,-27048.330,-0.104,0.990,-0.243,-7.324,-1.526,-2.411,73.333,577.000,1.000,2.460,0.000
-32299.870,-30789.390,-91217.010,-86848.570,-24122.540,-26429.200,-26414.440,-27122.710,-0.106,0.994,-0.243,-8.057,-1.587,-2.502,73.333,578.000,1.000,0.012,0.000
-32398.070,-30878.640,-91565.060,-87168.490,-24217.220,-26510.090,-26487.700,-27190.570,-0.104,0.991,-0.240,-8.759,-1.678,-2.899,73.333,579.000,1.000,2.441,0.000
-32494.980,-30968.300,-91911.990,-87486.520,-24313.710,-26589.290,-26553.610,-27256.430,-0.103,0.984,-0.236,-9.430,-1.587,-2.991,73.333,580.000,1.000,0.005,0.000
-32590.140,-31055.890,-92255.690,-87802.110,-24411.160,-26669.290,-26618.230,-27321.760,-0.101,0.980,-0.242,-9.796,-1.495,-2.899,73.333,581.000,1.000,5.773,0.000
-32669.660,-31125.360,-92579.640,-88103.290,-24491.970,-26728.650,-26664.120,-27373.230,-0.102,0.980,-0.242,-9.979,-1.495,-2.625,73.333,582.000,1.000,8.675,0.000
-32743.990,-31190.510,-92895.060,-88397.020,-24565.440,-26775.870,-26697.260,-27420.350,-0.101,0.976,-0.243,-10.040,-1.465,-2.136,73.333,583.000,1.000,9.392,0.000
-32823.430,-31264.110,-93215.800,-88690.160,-24644.350,-26830.930,-26737.530,-27472.460,-0.100,0.973,-0.233,-10.010,-1.312,-1.770,73.333,584.000,1.000,0.013,0.000
-32891.880,-31325.930,-93527.220,-88969.840,-24713.780,-26883.770,-26776.000,-27511.540,-0.099,0.965,-0.228,-9.827,-1.129,-1.373,73.333,585.000,1.000,2.444,0.000
-32961.730,-31387.870,-93838.980,-89248.560,-24783.430,-26939.240,-26819.530,-27550.930,-0.096,0.957,-0.233,-9.552,-0.885,-1.160,73.333,586.000,1.000,0.010,0.000
-33052.530,-31471.620,-94169.130,-89546.750,-24870.820,-27007.610,-26878.390,-27616.220,-0.097,0.954,-0.232,-8.698,-0.549,-1.312,73.333,587.000,1.000,10.668,0.000
-33143.830,-31554.090,-94497.870,-89847.720,-24956.680,-27069.260,-26928.520,-27683.490,-0.099,0.958,-0.234,-8.301,-0.305,-1.251,73.333,588.000,1.000,18.661,0.000
-33222.210,-31622.570,-94812.470,-90137.160,-25030.710,-27120.330,-26966.700,-27734.770,-0.105,0.967,-0.233,-8.057,0.031,-0.824,73.333,589.000,1.000,0.017,0.000
-33298.660,-31691.640,-95124.450,-90425.340,-25105.760,-27177.860,-27012.440,-27786.220,-0.109,0.972,-0.230,-7.782,0.000,-0.580,73.333,590.000,1.000,0.003,0.000
-33385.830,-31771.740,-95444.690,-90725.450,-25192.380,-27252.030,-27072.870,-27849.010,-0.110,0.980,-0.224,-7.721,0.031,-0.214,73.333,591.000,1.000,11.220,0.000
-33484.610,-31861.180,-95772.180,-91034.450,-25287.880,-27335.660,-27138.700,-27917.090,-0.114,0.988,-0.215,-7.660,0.214,-0.153,73.333,592.000,1.000,0.031,0.000
-33577.380,-31941.830,-96091.300,-91331.670,-25374.150,-27404.700,-27189.270,-27974.610,-0.111,0.986,-0.214,-7.782,0.275,-0.031,73.333,593.000,1.000,0.003,0.000
-33654.540,-32003.880,-96395.720,-91609.340,-25444.890,-27455.530,-27224.080,-28019.390,-0.114,0.982,-0.211,-7.843,0.366,0.366,73.333,594.000,1.000,2.556,0.000
-33737.140,-32071.710,-96706.150,-91889.660,-25523.710,-27516.600,-27270.530,-28074.570,-0.114,0.963,-0.211,-7.874,0.305,0.916,73.333,595.000,1.000,2.530,0.000
-33828.850,-32151.880,-97023.450,-92177.210,-25614.150,-27591.920,-27330.320,-28138.660,-0.108,0.923,-0.218,-7.874,-0.031,1.190,73.333,596.000,1.000,2.438,0.000
-33904.590,-32217.830,-97322.090,-92448.790,-25690.580,-27653.870,-27376.210,-28184.980,-0.100,0.879,-0.229,-7.263,0.031,1.495,73.333,597.000,1.000,2.560,0.000
-33973.640,-32277.790,-97613.680,-92714.210,-25761.180,-27705.560,-27413.100,-28226.290,-0.093,0.861,-0.238,-5.951,0.458,1.709,73.333,598.000,1.000,2.434,0.000
-34061.080,-32357.070,-97923.550,-92997.590,-25847.870,-27768.420,-27461.900,-28285.350,-0.086,0.875,-0.249,-3.937,0.702,1.648,73.333,599.000,1.000,2.528,0.000
-34154.350,-32441.470,-98238.630,-93284.780,-25938.090,-27835.890,-27515.680,-28346.420,-0.084,0.910,-0.247,-2.136,0.824,1.434,73.333,600.000,1.000,4.411,0.000
-34231.450,-32508.100,-98539.950,-93553.750,-26013.380,-27892.230,-27561.310,-28391.360,-0.077,0.937,-0.237,-1.221,0.732,1.465,73.333,601.000,1.000,0.012,0.000
-34302.530,-32568.630,-98837.530,-93815.150,-26082.700,-27945.410,-27604.000,-28431.480,-0.072,0.951,-0.229,-0.977,0.793,1.526,73.333,602.000,1.000,13.650,0.000
-34388.960,-32644.380,-99145.780,-94091.640,-26164.900,-28013.040,-27655.710,-28486.620,-0.069,0.959,-0.230,-0.854,1.038,1.465,73.333,603.000,1.000,0.012,0.000
-34480.550,-32724.120,-99451.920,-94375.920,-26252.240,-28083.780,-27709.280,-28548.500,-0.071,0.962,-0.233,-0.885,1.404,1.373,73.333,604.000,1.000,2.485,0.000
-34556.770,-32789.230,-99741.880,-94646.760,-26326.160,-28137.110,-27751.880,-28598.440,-0.071,0.963,-0.237,-1.160,1.587,1.129,73.333,605.000,1.000,0.004,0.000
-34620.210,-32846.090,-100025.600,-94904.630,-26389.490,-28180.630,-27788.580,-28640.170,-0.071,0.966,-0.246,-1.190,1.617,0.732,73.333,606.000,1.000,10.622,0.000
-34682.700,-32906.430,-100314.700,-95158.580,-26454.140,-28229.260,-27825.670,-28681.260,-0.070,0.969,-0.249,-1.221,1.648,0.031,73.333,607.000,1.000,3.224,0.000
-34753.020,-32973.840,-100611.100,-95413.630,-26526.960,-28285.220,-27866.850,-28726.350,-0.072,0.973,-0.251,-1.312,1.678,-0.519,73.333,608.000,1.000,0.007,0.000
-34829.930,-33043.300,-100909.000,-95670.550,-26604.220,-28344.310,-27912.490,-28776.570,-0.073,0.979,-0.251,-1.648,1.770,-1.038,73.333,609.000,1.000,1.802,0.000
-34905.790,-33108.890,-101200.700,-95925.250,-26677.060,-28400.310,-27953.960,-28823.330,-0.079,0.984,-0.257,-1.831,1.740,-1.648,73.333,610.000,1.000,9.278,0.000
-34982.400,-33175.910,-101488.700,-96178.700,-26747.460,-28454.820,-27991.770,-28866.510,-0.082,0.989,-0.255,-2.228,1.648,-2.228,73.333,611.000,1.000,0.011,0.000
-35062.520,-33248.760,-101776.600,-96435.120,-26820.090,-28512.600,-28034.120,-28912.450,-0.088,0.992,-0.257,-2.747,1.404,-2.777,73.333,612.000,1.000,1.931,0.000
-35137.520,-33318.000,-102058.300,-96692.080,-26888.990,-28565.860,-28076.170,-28956.880,-0.094,0.991,-0.255,-3.265,1.068,-3.326,73.333,613.000,1.000,8.815,0.000
-35204.640,-33378.180,-102330.800,-96946.480,-26951.810,-28611.620,-28112.280,-28996.260,-0.098,0.991,-0.260,-3.754,0.763,-4.059,73.333,614.000,1.000,4.273,0.000
-35272.940,-33437.900,-102601.000,-97200.720,-27016.650,-28661.830,-28149.750,-29038.310,-0.102,0.992,-0.260,-4.059,0.397,-4.761,73.333,615.000,1.000,0.014,0.000
-35349.320,-33505.990,-102878.500,-97460.340,-27092.480,-28725.760,-28200.270,-29092.220,-0.103,0.992,-0.260,-4.456,0.000,-5.249,73.333,616.000,1.000,14.469,0.000
-35431.570,-33580.860,-103162.800,-97722.910,-27177.800,-28798.230,-28263.450,-29153.540,-0.106,0.991,-0.252,-4.791,-0.305,-5.615,73.333,617.000,1.000,3.064,0.000
-35508.600,-33650.550,-103440.800,-97975.470,-27257.010,-28861.740,-28318.070,-29206.070,-0.107,0.986,-0.251,-5.127,-0.671,-6.134,73.333,618.000,1.000,0.010,0.000
-35576.370,-33710.530,-103708.000,-98215.720,-27324.180,-28909.660,-28354.650,-29245.610,-0.110,0.991,-0.245,-5.341,-0.793,-6.409,73.333,619.000,1.000,1.914,0.000
-35645.750,-33771.240,-103975.800,-98457.640,-27392.680,-28957.300,-28390.410,-29285.250,-0.108,0.998,-0.237,-5.676,-1.129,-6.592,73.333,620.000,1.000,2.418,0.000
-35718.160,-33833.040,-104243.800,-98703.240,-27463.620,-29007.530,-28427.470,-29327.840,-0.111,1.003,-0.234,-6.348,-1.343,-6.561,73.333,621.000,1.000,2.566,0.000
-35783.760,-33886.330,-104503.200,-98942.070,-27526.080,-29048.740,-28455.010,-29364.330,-0.113,1.002,-0.232,-6.866,-1.617,-6.378,73.333,622.000,1.000,3.734,0.000
-35849.210,-33940.960,-104763.500,-99180.590,-27590.290,-29094.350,-28488.260,-29403.140,-0.111,0.992,-0.231,-7.721,-1.678,-6.134,73.333,623.000,1.000,4.357,0.000
-35922.920,-34007.320,-105032.400,-99427.080,-27666.500,-29156.140,-28537.650,-29454.860,-0.118,0.983,-0.229,-8.026,-1.709,-5.646,73.333,624.000,1.000,0.008,0.000
-35989.310,-34068.360,-105291.300,-99666.660,-27736.910,-29212.690,-28582.270,-29503.630,-0.116,0.969,-0.227,-8.514,-1.953,-5.310,73.333,625.000,1.000,11.826,0.000
-36043.000,-34117.670,-105534.900,-99893.250,-27794.960,-29256.280,-28616.680,-29540.860,-0.117,0.971,-0.224,-8.423,-1.923,-4.822,73.333,626.000,1.000,2.494,0.000
-36098.330,-34168.000,-105779.500,-100119.800,-27854.190,-29299.010,-28651.930,-29578.190,-0.117,0.968,-0.218,-8.362,-1.953,-4.517,73.333,627.000,1.000,3.145,0.000
-36159.880,-34223.020,-106030.200,-100351.200,-27919.180,-29344.610,-28688.840,-29619.660,-0.110,0.966,-0.219,-8.301,-1.892,-4.028,73.333,628.000,1.000,0.009,0.000
-36228.900,-34286.720,-106288.900,-100588.400,-27992.280,-29400.320,-28731.850,-29666.930,-0.114,0.973,-0.214,-7.996,-1.801,-3.418,73.333,629.000,1.000,1.887,0.000
-36299.360,-34353.590,-106549.500,-100823.500,-28066.570,-29461.300,-28776.450,-29713.920,-0.112,0.972,-0.213,-7.996,-1.740,-2.899,73.333,630.000,1.000,13.796,0.000
-36358.660,-34408.220,-106797.100,-101044.700,-28128.190,-29509.270,-28808.310,-29750.240,-0.113,0.978,-0.211,-7.996,-1.526,-2.380,73.333,631.000,1.000,2.503,0.000
-36408.480,-34451.000,-107033.200,-101257.300,-28181.110,-29544.510,-28830.610,-29781.810,-0.112,0.977,-0.210,-7.660,-1.495,-1.923,73.333,632.000,1.000,2.413,0.000
-36456.830,-34492.610,-107266.100,-101468.500,-28233.770,-29578.010,-28853.190,-29812.710,-0.106,0.969,-0.211,-7.721,-1.099,-1.343,73.333,633.000,1.000,2.490,0.000
-36504.960,-34537.380,-107497.600,-101677.200,-28285.510,-29612.840,-28876.600,-29840.250,-0.106,0.962,-0.207,-7.385,-0.854,-0.732,73.333,634.000,1.000,8.821,0.000
-36553.660,-34583.290,-107729.000,-101884.600,-28338.530,-29648.660,-28902.170,-29868.230,-0.102,0.945,-0.202,-7.172,-0.824,-0.244,73.333,635.000,1.000,3.011,0.000
-36607.050,-34631.540,-107962.600,-102097.900,-28398.050,-29688.330,-28934.170,-29902.210,-0.107,0.938,-0.205,-6.622,-0.488,0.183,73.333,636.000,1.000,0.010,0.000
-36666.380,-34685.790,-108199.800,-102319.500,-28465.060,-29735.930,-28973.490,-29942.910,-0.118,0.945,-0.209,-5.981,-0.366,0.549,73.333,637.000,1.000,1.930,0.000
-36726.760,-34744.290,-108439.200,-102541.300,-28534.310,-29788.900,-29015.170,-29985.910,-0.125,0.954,-0.209,-5.371,-0.336,0.641,73.333,638.000,1.000,13.844,0.000
-36785.630,-34803.320,-108678.500,-102756.800,-28600.960,-29840.880,-29054.370,-30027.790,-0.129,0.967,-0.212,-4.974,-0.519,0.549,73.333,639.000,1.000,3.107,0.000
-36843.660,-34859.760,-108917.500,-102968.400,-28663.910,-29889.620,-29090.400,-30066.910,-0.128,0.975,-0.212,-4.761,-0.671,0.153,73.333,640.000,1.000,0.014,0.000
-36893.570,-34904.960,-109146.600,-103172.100,-28716.490,-29928.870,-29116.540,-30096.370,-0.125,0.978,-0.206,-4.608,-0.824,-0.031,73.333,641.000,1.000,1.789,0.000
-36932.380,-34937.370,-109359.700,-103364.300,-28756.070,-29953.890,-29129.590,-30112.740,-0.123,0.970,-0.207,-4.669,-1.038,-0.244,73.333,642.000,1.000,3.714,0.000
-36980.570,-34979.590,-109577.700,-103566.200,-28804.180,-29988.410,-29153.550,-30138.010,-0.117,0.962,-0.211,-4.761,-1.068,-0.427,73.333,643.000,1.000,9.482,0.000
-37047.600,-35042.120,-109813.300,-103788.400,-28872.610,-30047.300,-29201.340,-30186.460,-0.115,0.955,-0.215,-4.578,-1.068,-0.519,73.333,644.000,1.000,0.011,0.000
-37111.260,-35102.360,-110044.000,-104004.900,-28938.780,-30103.740,-29246.120,-30233.510,-0.114,0.947,-0.218,-4.150,-1.160,-0.610,73.333,645.000,1.000,8.657,0.000
-37164.070,-35152.210,-110262.600,-104206.200,-28993.980,-30145.650,-29275.590,-30267.620,-0.113,0.941,-0.221,-3.601,-1.160,-0.824,73.333,646.000,1.000,0.013,0.000
-37215.840,-35200.590,-110479.300,-104404.500,-29048.100,-30183.560,-29300.840,-30299.380,-0.114,0.938,-0.227,-3.052,-1.099,-0.946,73.333,647.000,1.000,8.667,0.000
-37266.650,-35245.160,-110693.400,-104598.800,-29100.440,-30217.850,-29325.070,-30328.320,-0.113,0.935,-0.229,-2.563,-1.251,-1.038,73.333,648.000,1.000,0.009,0.000
-37319.040,-35288.710,-110907.700,-104790.600,-29152.860,-30252.230,-29350.230,-30357.340,-0.115,0.936,-0.230,-2.106,-1.312,-1.129,73.333,649.000,1.000,11.393,0.000
-37378.400,-35340.150,-111128.100,-104990.200,-29210.300,-30292.930,-29377.710,-30393.910,-0.114,0.939,-0.234,-1.740,-1.312,-1.160,73.333,650.000,1.000,0.018,0.000
-37441.900,-35396.550,-111352.000,-105197.600,-29271.790,-30337.190,-29406.570,-30434.550,-0.114,0.945,-0.239,-1.312,-1.343,-1.251,73.333,651.000,1.000,25.501,0.000
-37507.730,-35454.910,-111577.700,-105407.200,-29338.440,-30387.380,-29442.380,-30477.200,-0.114,0.955,-0.245,-0.946,-1.495,-1.343,73.333,652.000,1.000,0.014,0.000
-37569.790,-35509.200,-111798.100,-105610.100,-29402.360,-30438.100,-29479.260,-30515.980,-0.120,0.968,-0.244,-0.793,-1.740,-1.251,73.333,653.000,1.000,0.004,0.000
-37620.800,-35552.600,-112005.800,-105799.800,-29454.110,-30477.230,-29505.660,-30542.560,-0.126,0.975,-0.246,-0.793,-1.984,-1.282,73.333,654.000,1.000,3.675,0.000
-37670.020,-35594.790,-112210.900,-105985.300,-29504.200,-30511.430,-29530.340,-30568.970,-0.130,0.979,-0.245,-0.885,-2.228,-1.282,73.333,655.000,1.000,0.006,0.000
-37719.040,-35636.320,-112416.500,-106167.900,-29555.290,-30544.320,-29555.280,-30598.430,-0.129,0.979,-0.248,-1.160,-2.594,-1.160,73.333,656.000,1.000,2.510,0.000
-37757.990,-35666.940,-112612.100,-106338.100,-29596.020,-30570.780,-29569.370,-30616.000,-0.128,0.978,-0.246,-1.221,-3.021,-0.916,73.333,657.000,1.000,0.009,0.000
-37795.800,-35696.280,-112805.100,-106505.900,-29633.570,-30598.750,-29579.130,-30627.330,-0.124,0.975,-0.250,-1.740,-3.387,-0.519,73.333,658.000,1.000,0.004,0.000
-37849.530,-35741.950,-113012.900,-106690.300,-29686.600,-30640.260,-29601.660,-30653.760,-0.127,0.975,-0.249,-1.892,-3.815,0.061,73.333,659.000,1.000,2.598,0.000
-37916.320,-35802.200,-113233.300,-106888.800,-29755.200,-30691.370,-29639.230,-30698.140,-0.125,0.970,-0.247,-2.167,-4.303,0.427,73.333,660.000,1.000,2.420,0.000
-37984.640,-35865.080,-113454.400,-107090.400,-29827.680,-30742.080,-29682.570,-30747.650,-0.125,0.971,-0.246,-2.411,-4.547,0.885,73.333,661.000,1.000,2.573,0.000
-38048.590,-35923.780,-113670.800,-107290.000,-29896.990,-30791.030,-29727.150,-30793.700,-0.123,0.971,-0.243,-2.533,-4.974,1.099,73.333,662.000,1.000,2.492,0.000
-38097.860,-35967.920,-113872.000,-107476.500,-29953.920,-30832.190,-29766.930,-30831.590,-0.124,0.969,-0.243,-2.899,-5.280,1.129,73.333,663.000,1.000,3.740,0.000
-38128.400,-35991.820,-114052.500,-107643.400,-29993.250,-30857.990,-29792.140,-30857.220,-0.128,0.968,-0.243,-2.869,-5.524,1.373,73.333,664.000,1.000,4.320,0.000
-38155.680,-36010.320,-114226.200,-107802.800,-30026.010,-30875.470,-29804.540,-30871.090,-0.128,0.958,-0.241,-3.204,-5.890,1.495,73.333,665.000,1.000,0.008,0.000
-38199.370,-36045.240,-114412.800,-107972.700,-30070.810,-30901.030,-29820.920,-30888.830,-0.131,0.953,-0.240,-3.265,-6.134,1.801,73.333,666.000,1.000,13.783,0.000
-38263.510,-36101.440,-114617.800,-108158.400,-30134.390,-30945.070,-29855.510,-30926.410,-0.130,0.943,-0.238,-3.235,-6.561,1.923,73.333,667.000,1.000,0.007,0.000
-38329.440,-36159.900,-114825.600,-108344.900,-30201.170,-30995.680,-29897.650,-30971.030,-0.126,0.939,-0.234,-3.113,-6.805,1.953,73.333,668.000,1.000,1.834,0.000
-38380.270,-36204.380,-115020.700,-108518.600,-30255.680,-31035.840,-29929.920,-31001.700,-0.125,0.943,-0.232,-2.502,-7.080,2.014,73.333,669.000,1.000,6.260,0.000
-38423.780,-36242.300,-115209.300,-108686.400,-30303.660,-31069.660,-29956.180,-31024.560,-0.121,0.944,-0.232,-2.441,-7.477,1.953,73.333,670.000,1.000,2.538,0.000
-38470.830,-36282.380,-115399.300,-108856.400,-30352.240,-31104.620,-29980.190,-31050.560,-0.122,0.952,-0.233,-2.197,-7.690,2.289,73.333,671.000,1.000,2.517,0.000
-38514.010,-36316.750,-115581.700,-109022.500,-30394.410,-31135.390,-29993.130,-31071.800,-0.113,0.952,-0.232,-2.228,-8.057,2.441,73.333,672.000,1.000,6.268,0.000
-38549.460,-36343.150,-115752.600,-109182.300,-30429.010,-31159.980,-29999.550,-31087.380,-0.104,0.948,-0.235,-2.228,-8.179,2.594,73.333,673.000,1.000,4.968,0.000
-38591.800,-36375.480,-115927.400,-109348.100,-30470.350,-31187.140,-30016.100,-31110.450,-0.094,0.946,-0.240,-1.831,-8.179,2.686,73.333,674.000,1.000,2.672,0.000
-38647.610,-36421.340,-116115.400,-109527.200,-30527.140,-31225.050,-30048.870,-31147.070,-0.077,0.940,-0.243,-1.892,-8.057,2.747,73.333,675.000,1.000,4.193,0.000
-38705.560,-36472.540,-116306.400,-109706.700,-30588.920,-31269.100,-30087.450,-31187.460,-0.067,0.937,-0.244,-1.343,-7.538,2.991,73.333,676.000,1.000,0.009,0.000
-38756.500,-36517.160,-116488.800,-109874.200,-30641.060,-31304.730,-30115.090,-31218.740,-0.052,0.931,-0.247,-1.190,-7.019,2.991,73.333,677.000,1.000,8.072,0.000
-38796.900,-36547.830,-116658.100,-110027.900,-30678.620,-31324.320,-30125.780,-31235.800,-0.040,0.932,-0.244,-0.854,-6.012,3.174,73.333,678.000,1.000,3.220,0.000
-38829.010,-36568.430,-116818.100,-110172.500,-30707.690,-31337.190,-30130.780,-31243.050,-0.031,0.934,-0.244,-0.610,-5.188,3.479,73.333,679.000,1.000,0.008,0.000
-38866.410,-36594.080,-116982.800,-110321.300,-30742.360,-31358.800,-30142.230,-31256.100,-0.026,0.942,-0.242,-0.519,-4.059,3.754,73.333,680.000,1.000,2.985,0.000
-38911.800,-36628.030,-117155.800,-110478.100,-30784.510,-31387.860,-30157.060,-31278.650,-0.031,0.956,-0.237,-0.214,-2.930,3.876,73.333,681.000,1.000,13.766,0.000
-38962.460,-36669.840,-117336.700,-110641.000,-30835.530,-31424.810,-30184.180,-31310.780,-0.032,0.968,-0.239,-0.458,-1.923,3.815,73.333,682.000,1.000,3.173,0.000
-39021.660,-36723.630,-117529.500,-110811.100,-30900.370,-31474.400,-30231.280,-31356.370,-0.042,0.980,-0.233,-0.519,-0.946,3.876,73.333,683.000,1.000,0.013,0.000
-39076.470,-36774.720,-117719.000,-110973.400,-30960.430,-31518.440,-30271.050,-31395.470,-0.051,0.986,-0.225,-0.854,-0.153,3.601,73.333,684.000,1.000,1.868,0.000
-39118.740,-36812.650,-117894.500,-111119.500,-31004.540,-31548.630,-30289.940,-31413.990,-0.060,0.994,-0.222,-1.495,0.488,3.387,73.333,685.000,1.000,3.760,0.000
-39160.560,-36849.800,-118067.000,-111262.500,-31047.310,-31580.930,-30305.630,-31426.660,-0.076,1.002,-0.221,-1.831,0.977,2.991,73.333,686.000,1.000,9.329,0.000
-39208.440,-36894.200,-118244.100,-111412.500,-31096.470,-31618.480,-30324.460,-31448.650,-0.086,1.007,-0.220,-2.533,1.129,2.319,73.333,687.000,1.000,0.010,0.000
-39256.470,-36937.750,-118419.800,-111565.700,-31144.380,-31649.970,-30338.720,-31476.270,-0.102,1.015,-0.215,-3.082,1.221,1.892,73.333,688.000,1.000,1.921,0.000
-39299.570,-36973.700,-118587.700,-111714.900,-31186.720,-31674.780,-30351.160,-31501.430,-0.110,1.009,-0.210,-3.845,0.946,1.190,73.333,689.000,1.000,13.710,0.000
-39339.540,-37006.290,-118749.300,-111861.200,-31228.130,-31702.920,-30369.670,-31525.230,-0.116,0.997,-0.207,-4.517,0.702,0.549,73.333,690.000,1.000,3.073,0.000
-39375.810,-37035.860,-118904.400,-112004.500,-31267.740,-31732.740,-30391.270,-31545.450,-0.122,0.984,-0.204,-4.639,0.488,0.000,73.333,691.000,1.000,0.007,0.000
-39406.610,-37058.590,-119051.800,-112142.600,-31301.870,-31753.340,-30407.690,-31558.530,-0.116,0.974,-0.209,-4.974,0.031,-0.885,73.333,692.000,1.000,1.914,0.000
-39437.180,-37079.710,-119196.800,-112280.200,-31335.240,-31767.890,-30416.970,-31568.600,-0.127,0.983,-0.204,-4.974,-0.275,-1.221,73.333,693.000,1.000,2.546,0.000
-39474.440,-37109.320,-119348.400,-112423.900,-31376.720,-31791.730,-30428.690,-31586.360,-0.132,0.978,-0.200,-5.035,-1.099,-1.678,73.333,694.000,1.000,8.862,0.000
-39519.090,-37149.540,-119508.600,-112575.400,-31428.570,-31830.260,-30452.970,-31618.260,-0.135,0.969,-0.196,-5.432,-1.709,-2.106,73.333,695.000,1.000,5.332,0.000
-39561.820,-37189.020,-119666.700,-112726.900,-31479.870,-31869.410,-30482.660,-31652.160,-0.137,0.958,-0.196,-5.157,-2.472,-2.289,73.333,696.000,1.000,0.006,0.000
-39601.360,-37225.430,-119818.800,-112873.700,-31526.460,-31901.920,-30508.680,-31677.140,-0.130,0.939,-0.201,-5.249,-2.960,-2.747,73.333,697.000,1.000,1.955,0.000
-39642.300,-37263.190,-119967.900,-113016.200,-31571.970,-31932.350,-30529.490,-31695.380,-0.126,0.927,-0.197,-4.578,-3.235,-2.563,73.333,698.000,1.000,3.854,0.000
-39672.390,-37287.330,-120104.700,-113145.300,-31605.990,-31950.930,-30534.890,-31702.930,-0.114,0.917,-0.198,-3.967,-3.479,-2.533,73.333,699.000,1.000,11.844,0.000
-39689.510,-37295.890,-120229.800,-113260.700,-31627.360,-31957.060,-30530.230,-31702.030,-0.108,0.913,-0.201,-2.960,-3.662,-2.258,73.333,700.000,1.000,0.012,0.000
-39711.960,-37311.570,-120360.100,-113378.500,-31653.330,-31970.700,-30540.910,-31709.950,-0.100,0.901,-0.215,-2.014,-4.028,-1.953,73.333,701.000,1.000,2.365,0.000
-39747.720,-37342.770,-120503.600,-113507.400,-31691.400,-31998.290,-30568.570,-31734.580,-0.094,0.892,-0.217,-1.007,-3.815,-1.495,73.333,702.000,1.000,0.010,0.000
-39790.130,-37380.360,-120654.300,-113642.600,-31734.640,-32028.830,-30594.470,-31766.320,-0.098,0.892,-0.216,0.458,-3.784,-0.916,73.333,703.000,1.000,8.191,0.000
-39831.270,-37415.930,-120803.200,-113774.700,-31775.470,-32054.070,-30610.870,-31793.120,-0.092,0.897,-0.225,1.495,-3.479,-0.732,73.333,704.000,1.000,2.524,0.000
-39864.610,-37442.940,-120945.000,-113896.200,-31809.080,-32072.120,-30617.930,-31806.780,-0.107,0.921,-0.214,2.869,-3.174,-0.122,73.333,705.000,1.000,2.419,0.000
-39891.240,-37462.900,-121082.800,-114008.300,-31837.900,-32087.190,-30620.620,-31811.390,-0.107,0.943,-0.215,3.693,-3.326,-0.031,73.333,706.000,1.000,3.773,0.000
-39922.200,-37487.350,-121225.700,-114123.900,-31873.200,-32110.230,-30632.100,-31824.330,-0.110,0.970,-0.213,3.876,-3.143,0.092,73.333,707.000,1.000,14.379,0.000
-39960.390,-37518.800,-121373.800,-114250.300,-31916.270,-32141.490,-30654.890,-31849.360,-0.120,0.992,-0.209,4.242,-3.479,0.549,73.333,708.000,1.000,0.014,0.000
-40000.390,-37552.410,-121519.400,-114384.000,-31958.410,-32170.260,-30678.410,-31875.200,-0.111,1.002,-0.218,3.662,-3.723,0.519,73.333,709.000,1.000,1.889,0.000
-40039.310,-37584.670,-121657.900,-114519.800,-31995.350,-32192.290,-30695.650,-31895.200,-0.121,1.007,-0.212,3.387,-3.937,0.946,73.333,710.000,1.000,2.506,0.000
-40073.270,-37609.900,-121788.200,-114648.800,-32025.950,-32209.600,-30704.700,-31907.110,-0.115,1.003,-0.216,2.747,-4.333,1.007,73.333,711.000,1.000,4.250,0.000
-40097.290,-37624.870,-121908.500,-114762.800,-32048.730,-32221.870,-30705.470,-31909.880,-0.118,1.003,-0.219,2.472,-4.395,1.373,73.333,712.000,1.000,0.009,0.000
-40119.260,-37639.450,-122029.200,-114869.000,-32072.150,-32233.730,-30708.980,-31913.460,-0.125,0.998,-0.219,2.197,-4.852,1.495,73.333,713.000,1.000,10.739,0.000
-40153.680,-37667.530,-122165.600,-114982.100,-32109.770,-32257.380,-30726.590,-31930.850,-0.124,0.997,-0.223,1.587,-5.127,1.617,73.333,714.000,1.000,7.366,0.000
-40198.170,-37704.820,-122312.600,-115104.200,-32157.150,-32291.670,-30750.110,-31960.080,-0.136,0.996,-0.216,1.434,-5.859,2.014,73.333,715.000,1.000,0.009,0.000
-40244.460,-37740.940,-122458.300,-115228.700,-32204.180,-32325.250,-30772.500,-31993.060,-0.132,0.990,-0.218,0.671,-6.561,1.740,73.333,716.000,1.000,0.004,0.000
-40288.360,-37774.180,-122598.300,-115350.600,-32248.860,-32354.130,-30794.410,-32020.560,-0.136,0.990,-0.214,0.519,-7.080,1.831,73.333,717.000,1.000,11.889,0.000
-40323.250,-37801.500,-122726.800,-115466.300,-32288.150,-32378.860,-30810.990,-32036.260,-0.135,0.987,-0.218,0.031,-7.751,1.770,73.333,718.000,1.000,0.018,0.000
-40348.610,-37820.480,-122842.500,-115577.000,-32320.510,-32397.650,-30818.930,-32044.140,-0.133,0.985,-0.212,-0.397,-8.209,1.740,73.333,719.000,1.000,8.763,0.000
-40372.070,-37836.770,-122952.300,-115687.300,-32349.840,-32410.730,-30822.540,-32050.060,-0.136,0.979,-0.215,-0.793,-8.789,1.617,73.333,720.000,1.000,0.010,0.000
-40397.350,-37855.670,-123063.300,-115798.100,-32380.170,-32423.240,-30827.650,-32057.620,-0.139,0.972,-0.215,-1.221,-9.277,1.556,73.333,721.000,1.000,2.321,0.000
-40421.620,-37874.380,-123176.100,-115906.200,-32411.000,-32437.350,-30835.830,-32069.200,-0.141,0.966,-0.214,-1.160,-9.888,1.465,73.333,722.000,1.000,0.007,0.000
-40446.760,-37894.940,-123291.100,-116011.300,-32443.480,-32456.840,-30849.690,-32086.330,-0.138,0.959,-0.220,-1.495,-10.681,1.251,73.333,723.000,1.000,7.020,0.000
-40476.490,-37922.900,-123409.300,-116113.800,-32478.550,-32483.840,-30868.830,-32106.160,-0.135,0.952,-0.224,-1.312,-11.230,1.282,73.333,724.000,1.000,13.185,0.000
-40504.200,-37950.200,-123524.300,-116209.500,-32509.860,-32509.890,-30886.710,-32120.430,-0.124,0.948,-0.229,-1.129,-11.688,1.312,73.333,725.000,1.000,0.013,0.000
-40525.100,-37969.120,-123632.200,-116298.900,-32534.540,-32530.280,-30900.170,-32127.420,-0.118,0.945,-0.231,-0.610,-12.085,1.678,73.333,726.000,1.000,2.431,0.000
-40548.510,-37987.810,-123741.600,-116392.400,-32560.380,-32549.500,-30912.160,-32136.250,-0.109,0.943,-0.231,-0.244,-12.543,1.984,73.333,727.000,1.000,0.008,0.000
-40579.540,-38012.340,-123856.700,-116493.900,-32592.440,-32570.150,-30924.030,-32150.640,-0.101,0.943,-0.232,0.244,-12.665,2.472,73.333,728.000,1.000,13.886,0.000
-40608.760,-38034.040,-123967.800,-116595.300,-32622.930,-32586.310,-30931.730,-32161.610,-0.092,0.942,-0.233,0.702,-12.726,2.960,73.333,729.000,1.000,0.018,0.000
-40633.130,-38050.040,-124071.200,-116692.000,-32646.970,-32595.630,-30934.580,-32166.440,-0.086,0.945,-0.233,1.007,-12.634,3.448,73.333,730.000,1.000,3.020,0.000
-40659.690,-38068.480,-124174.000,-116790.000,-32670.570,-32605.660,-30936.000,-32174.170,-0.084,0.947,-0.234,1.617,-12.390,3.967,73.333,731.000,1.000,0.009,0.000
-40689.470,-38090.750,-124279.500,-116890.800,-32695.640,-32619.530,-30937.640,-32185.780,-0.078,0.949,-0.234,1.953,-12.146,4.303,73.333,732.000,1.000,0.007,0.000
-40718.370,-38112.320,-124384.700,-116989.100,-32719.390,-32633.770,-30939.760,-32193.010,-0.080,0.955,-0.230,2.502,-11.841,4.608,73.333,733.000,1.000,3.723,0.000
-40743.270,-38129.680,-124487.100,-117082.000,-32741.610,-32645.590,-30942.370,-32196.520,-0.083,0.964,-0.234,2.625,-11.414,4.730,73.333,734.000,1.000,13.746,0.000
-40763.680,-38143.750,-124588.000,-117169.400,-32764.270,-32655.340,-30944.920,-32203.470,-0.090,0.974,-0.234,2.899,-11.047,4.822,73.333,735.000,1.000,3.613,0.000
-40785.610,-38161.880,-124692.600,-117257.500,-32792.140,-32669.180,-30950.170,-32216.550,-0.094,0.983,-0.232,2.594,-10.895,4.974,73.333,736.000,1.000,0.013,0.000
-40812.090,-38185.290,-124801.900,-117348.400,-32824.110,-32689.830,-30959.440,-32230.540,-0.104,0.992,-0.229,2.502,-10.620,4.974,73.333,737.000,1.000,0.014,0.000
-40835.810,-38204.730,-124907.800,-117434.500,-32851.500,-32709.880,-30966.400,-32238.360,-0.110,0.995,-0.230,2.106,-10.681,4.761,73.333,738.000,1.000,2.583,0.000
-40854.280,-38217.700,-125007.200,-117515.800,-32874.050,-32725.510,-30971.340,-32244.110,-0.119,0.996,-0.234,1.862,-10.773,4.578,73.333,739.000,1.000,2.486,0.000
-40871.090,-38229.460,-125103.800,-117595.300,-32895.470,-32737.340,-30977.750,-32252.780,-0.130,0.993,-0.234,1.404,-11.017,4.211,73.333,740.000,1.000,8.779,0.000
-40892.260,-38247.110,-125202.400,-117679.400,-32919.550,-32751.040,-30985.950,-32266.490,-0.137,0.992,-0.237,0.854,-11.230,3.906,73.333,741.000,1.000,2.462,0.000
-40918.920,-38270.240,-125303.100,-117771.300,-32947.180,-32770.690,-30995.470,-32283.470,-0.148,0.990,-0.235,0.519,-11.536,3.571,73.333,742.000,1.000,3.812,0.000
-40938.880,-38285.070,-125393.800,-117857.400,-32967.170,-32782.480,-30997.150,-32289.680,-0.153,0.991,-0.241,0.000,-11.841,3.204,73.333,743.000,1.000,11.758,0.000
-40951.500,-38291.410,-125474.100,-117934.100,-32979.180,-32784.220,-30992.540,-32285.920,-0.151,0.999,-0.242,-0.397,-12.238,3.082,73.333,744.000,1.000,0.010,0.000
-40973.250,-38306.040,-125562.100,-118017.900,-33000.600,-32795.710,-30998.720,-32291.140,-0.143,1.002,-0.245,-0.854,-12.634,2.777,73.333,745.000,1.000,2.465,0.000
-41006.140,-38330.920,-125659.800,-118112.200,-33035.240,-32818.700,-31016.620,-32306.710,-0.134,0.999,-0.240,-1.648,-12.787,2.716,73.333,746.000,1.000,0.006,0.000
-41033.880,-38351.350,-125752.200,-118201.300,-33067.660,-32835.350,-31031.020,-32318.090,-0.122,0.987,-0.238,-2.380,-12.909,3.113,73.333,747.000,1.000,8.168,0.000
-41050.540,-38362.340,-125834.900,-118279.900,-33091.270,-32842.250,-31036.360,-32322.910,-0.105,0.968,-0.243,-2.899,-12.787,3.510,73.333,748.000,1.000,2.385,0.000
-41066.010,-38373.050,-125915.400,-118357.100,-33113.900,-32851.140,-31039.020,-32329.010,-0.093,0.950,-0.251,-3.326,-12.329,4.211,73.333,749.000,1.000,6.462,0.000
-41085.980,-38388.700,-125997.400,-118436.000,-33140.310,-32866.040,-31044.720,-32338.540,-0.084,0.934,-0.251,-3.479,-11.841,5.066,73.333,750.000,1.000,2.424,0.000
-41107.020,-38406.090,-126078.200,-118513.000,-33168.180,-32880.510,-31053.230,-32349.250,-0.076,0.919,-0.253,-3.448,-11.169,5.890,73.333,751.000,1.000,3.715,0.000
-41126.390,-38422.390,-126156.300,-118586.200,-33194.190,-32890.850,-31060.210,-32358.990,-0.071,0.908,-0.248,-3.174,-10.284,6.409,73.333,752.000,1.000,3.825,0.000
-41148.440,-38440.630,-126236.400,-118658.800,-33220.080,-32901.100,-31066.250,-32367.960,-0.062,0.906,-0.245,-2.808,-9.308,6.744,73.333,753.000,1.000,11.808,0.000
-41171.820,-38459.530,-126318.200,-118731.200,-33245.230,-32912.110,-31074.050,-32374.400,-0.054,0.911,-0.246,-2.441,-8.148,6.958,73.333,754.000,1.000,0.022,0.000
-41185.980,-38470.630,-126393.700,-118796.100,-33263.080,-32918.310,-31077.640,-32375.150,-0.053,0.922,-0.246,-2.350,-6.958,7.233,73.333,755.000,1.000,2.596,0.000
-41189.710,-38473.530,-126462.300,-118852.500,-33273.770,-32918.370,-31071.500,-32371.740,-0.057,0.940,-0.250,-2.502,-5.920,7.690,73.333,756.000,1.000,0.016,0.000
-41191.830,-38476.160,-126532.100,-118906.100,-33284.800,-32917.210,-31060.250,-32367.060,-0.066,0.961,-0.248,-2.686,-5.005,7.996,73.333,757.000,1.000,1.810,0.000
-41200.380,-38486.000,-126610.000,-118963.700,-33302.690,-32922.600,-31052.450,-32364.880,-0.077,0.982,-0.247,-3.265,-4.211,7.996,73.333,758.000,1.000,8.739,0.000
