EEG 1, EEG 2, EEG 3, EEG 4, EEG 5, EEG 6, EEG 7, EEG 8, ACC X, ACC Y, ACC Z, GYR X, GYR Y, GYR Z, BAT, CNT, VALID, DT, TRIG
750000.100,750000.100,135787.000,657611.900,750000.100,750000.100,750000.100,750000.100,-0.087,0.915,-0.271,0.000,0.000,0.000,73.333,1.000,1.000,0.000,0.000
750000.100,750000.100,184832.200,558846.300,498167.800,679397.500,750000.100,750000.100,-0.077,0.924,-0.284,0.000,0.000,0.000,73.333,2.000,1.000,15.432,0.000
541890.400,750000.100,375187.600,631383.600,-133535.300,303712.900,750000.100,675004.300,-0.083,0.937,-0.289,0.000,0.000,0.000,73.333,3.000,1.000,2.436,0.000
476237.800,750000.100,635421.100,713484.000,-316634.000,205862.200,750000.100,606698.300,-0.087,0.953,-0.284,0.000,0.000,0.000,73.333,4.000,1.000,2.495,0.000
496728.000,698947.400,571752.400,750000.100,-460867.800,258993.900,750000.100,671572.500,-0.089,0.958,-0.283,-5.737,5.402,-7.690,73.333,5.000,1.000,2.685,0.000
392240.500,392089.800,606125.800,750000.100,-750000.100,423103.200,750000.100,741762.900,-0.094,0.947,-0.287,-5.676,6.317,-5.737,73.333,6.000,1.000,2.333,0.000
396861.000,183869.700,689278.600,750000.100,-750000.100,521437.300,750000.100,750000.100,-0.097,0.940,-0.292,-3.204,4.425,-1.617,73.333,7.000,1.000,8.699,0.000
750000.100,605152.800,750000.100,750000.100,214207.900,551301.700,750000.100,750000.100,-0.102,0.950,-0.296,-1.953,3.845,-0.336,73.333,8.000,1.000,4.416,0.000
750000.100,750000.100,750000.100,750000.100,750000.100,750000.100,750000.100,750000.100,-0.103,0.966,-0.296,-1.587,3.510,-0.092,73.333,9.000,1.000,0.024,0.000
750000.100,750000.100,750000.100,750000.100,750000.100,750000.100,750000.100,750000.100,-0.103,0.980,-0.294,-1.801,3.326,-0.214,73.333,10.000,1.000,10.503,0.000
750000.100,750000.100,750000.100,750000.100,750000.100,750000.100,750000.100,750000.100,-0.102,0.988,-0.291,-2.197,3.113,-0.641,73.333,11.000,1.000,2.514,0.000
750000.100,750000.100,750000.100,750000.100,750000.100,750000.100,750000.100,750000.100,-0.103,0.986,-0.283,-2.777,2.960,-0.793,73.333,12.000,1.000,3.199,0.000
750000.100,750000.100,750000.100,750000.100,750000.100,750000.100,750000.100,750000.100,-0.107,0.975,-0.283,-3.632,2.777,-0.854,73.333,13.000,1.000,0.026,0.000
750000.100,750000.100,750000.100,750000.100,750000.100,750000.100,694709.800,732269.800,-0.111,0.961,-0.288,-4.395,2.594,-0.671,73.333,14.000,1.000,24.309,0.000
750000.100,748881.600,750000.100,750000.100,665508.600,637731.700,587339.400,618550.400,-0.117,0.951,-0.294,-4.700,2.289,-0.763,73.333,15.000,1.000,2.526,0.000
687125.600,640752.300,750000.100,750000.100,569807.500,545870.100,503195.900,529476.400,-0.121,0.947,-0.294,-4.730,1.831,-0.916,73.333,16.000,1.000,2.474,0.000
592723.300,552667.800,750000.100,750000.100,491756.600,470893.900,434570.600,456840.900,-0.121,0.946,-0.295,-4.608,1.404,-1.282,73.333,17.000,1.000,2.524,0.000
514035.000,479159.400,750000.100,750000.100,426519.800,408303.800,377241.800,396128.600,-0.119,0.949,-0.294,-4.425,1.038,-1.678,73.333,18.000,1.000,2.405,0.000
448111.500,417525.000,750000.100,750000.100,371885.600,355921.300,329143.800,345405.800,-0.117,0.954,-0.288,-4.425,0.641,-1.984,73.333,19.000,1.000,2.579,0.000
393325.200,366406.900,750000.100,750000.100,326459.000,312506.700,288985.700,303114.600,-0.115,0.953,-0.285,-4.486,0.244,-1.984,73.333,20.000,1.000,2.500,0.000
357871.400,333474.500,750000.100,750000.100,297141.300,284422.900,263057.900,275821.500,-0.112,0.946,-0.281,-4.669,0.031,-2.014,73.333,21.000,1.000,2.500,0.000
344398.200,320899.000,750000.100,750000.100,286023.800,273761.100,253254.300,265454.900,-0.112,0.943,-0.275,-4.578,-0.183,-2.014,73.333,22.000,1.000,2.419,0.000
335036.300,312132.500,750000.100,750000.100,278236.100,266318.900,246398.400,258176.300,-0.108,0.936,-0.278,-4.395,-0.427,-1.862,73.333,23.000,1.000,2.602,0.000
326475.300,304108.700,750000.100,750000.100,271095.200,259453.200,240091.000,251516.500,-0.108,0.937,-0.281,-4.242,-0.397,-1.740,73.333,24.000,1.000,5.510,0.000
318567.900,296720.700,750000.100,750000.100,264546.300,253180.700,234285.400,245420.300,-0.110,0.934,-0.277,-3.601,-0.671,-1.587,73.333,25.000,1.000,0.018,0.000
311177.800,289832.300,750000.100,750000.100,258440.100,247348.500,228875.400,239728.100,-0.108,0.936,-0.279,-3.387,-0.763,-1.465,73.333,26.000,1.000,1.872,0.000
304349.700,283495.500,750000.100,750000.100,252808.300,241958.500,223893.300,234476.100,-0.112,0.938,-0.273,-2.747,-1.007,-1.251,73.333,27.000,1.000,3.817,0.000
298023.700,277603.000,750000.100,750000.100,247536.100,236933.700,219225.600,229571.700,-0.108,0.936,-0.277,-2.777,-1.282,-1.251,73.333,28.000,1.000,11.871,0.000
292194.600,272148.400,750000.100,750000.100,242657.900,232287.300,214901.200,225037.500,-0.117,0.947,-0.275,-2.136,-1.251,-0.916,73.333,29.000,1.000,0.021,0.000
286758.700,267061.300,750000.100,750000.100,238144.500,227956.300,210877.800,220834.300,-0.112,0.949,-0.274,-1.984,-1.709,-0.854,73.333,30.000,1.000,2.387,0.000
281669.900,262329.800,750000.100,750000.100,233971.000,223967.000,207169.500,216951.800,-0.115,0.957,-0.276,-1.740,-1.709,-0.671,73.333,31.000,1.000,0.010,0.000
276853.500,257875.500,750000.100,750000.100,230007.200,220164.500,203662.000,213264.600,-0.117,0.961,-0.274,-1.740,-2.045,-0.458,73.333,32.000,1.000,8.189,0.000
272337.300,253664.100,750000.100,750000.100,226231.100,216571.700,200311.300,209736.500,-0.109,0.963,-0.273,-1.984,-2.075,-0.641,73.333,33.000,1.000,9.365,0.000
268135.000,249721.200,750000.100,750000.100,222702.800,213215.800,197182.300,206460.100,-0.117,0.967,-0.272,-1.678,-2.350,-0.397,73.333,34.000,1.000,0.016,0.000
264242.700,246079.200,750000.100,750000.100,219476.800,210130.200,194314.400,203466.200,-0.110,0.964,-0.279,-2.014,-2.533,-0.519,73.333,35.000,1.000,3.801,0.000
260574.800,242677.900,750000.100,750000.100,216475.400,207252.800,191655.900,200680.900,-0.110,0.969,-0.278,-2.045,-2.411,-0.427,73.333,36.000,1.000,0.012,0.000
257076.000,239441.400,750000.100,750000.100,213603.700,204510.600,189117.200,198004.800,-0.107,0.965,-0.280,-2.289,-2.594,-0.610,73.333,37.000,1.000,13.693,0.000
253778.600,236378.100,750000.100,750000.100,210848.300,201887.800,186682.900,195452.300,-0.103,0.968,-0.273,-2.411,-2.472,-0.549,73.333,38.000,1.000,0.016,0.000
250719.300,233509.000,750000.100,750000.100,208281.000,199446.800,184414.400,193071.100,-0.104,0.975,-0.275,-2.411,-2.319,-0.671,73.333,39.000,1.000,6.833,0.000
247797.700,230769.500,750000.100,750000.100,205852.600,197118.300,182266.600,190816.500,-0.098,0.979,-0.273,-2.869,-2.075,-0.793,73.333,40.000,1.000,0.030,0.000
245017.700,228191.700,750000.100,741866.400,203579.100,194925.100,180239.400,188692.400,-0.097,0.985,-0.272,-2.838,-1.862,-0.671,73.333,41.000,1.000,0.008,0.000
242390.500,225766.000,750000.100,733336.600,201422.400,192855.300,178320.800,186682.000,-0.094,0.982,-0.273,-3.448,-1.556,-0.916,73.333,42.000,1.000,5.202,0.000
239920.300,223466.300,750000.100,725257.800,199360.400,190888.200,176500.900,184771.200,-0.094,0.979,-0.272,-3.662,-1.068,-0.916,73.333,43.000,1.000,4.802,0.000
237638.800,221323.200,750000.100,717650.900,197444.400,189051.600,174799.000,182997.400,-0.089,0.973,-0.270,-4.028,-0.488,-1.007,73.333,44.000,1.000,2.502,0.000
235468.800,219290.600,750000.100,710446.500,195643.800,187318.000,173189.300,181320.600,-0.090,0.971,-0.273,-4.272,0.153,-0.977,73.333,45.000,1.000,6.903,0.000
233363.900,217344.700,750000.100,703590.600,193934.600,185674.200,171668.400,179730.800,-0.085,0.965,-0.270,-4.242,0.580,-0.854,73.333,46.000,1.000,0.016,0.000
231355.900,215498.300,750000.100,697071.600,192297.500,184125.100,170234.800,178212.500,-0.081,0.960,-0.275,-4.425,1.251,-0.793,73.333,47.000,1.000,4.923,0.000
229474.300,213747.900,744928.000,690869.100,190717.500,182616.500,168834.000,176735.600,-0.080,0.954,-0.275,-4.120,1.801,-0.641,73.333,48.000,1.000,0.010,0.000
227728.700,212101.600,738518.500,685015.900,189237.300,181201.800,167528.800,175367.200,-0.078,0.946,-0.275,-4.211,2.533,-0.671,73.333,49.000,1.000,10.635,0.000
226043.600,210515.400,732404.900,679428.800,187830.900,179853.200,166275.700,174067.800,-0.082,0.945,-0.275,-3.815,3.296,-0.366,73.333,50.000,1.000,4.391,0.000
224429.000,209021.100,726595.900,674119.000,186518.500,178600.500,165112.400,172844.300,-0.081,0.939,-0.275,-3.540,3.967,-0.214,73.333,51.000,1.000,0.013,0.000
222886.300,207598.500,721065.200,669060.900,185260.400,177405.500,164004.400,171670.400,-0.084,0.936,-0.274,-3.113,4.608,-0.122,73.333,52.000,1.000,13.668,0.000
221425.200,206239.600,715787.900,664224.900,184034.800,176232.400,162928.000,170533.000,-0.090,0.935,-0.274,-2.472,5.096,0.061,73.333,53.000,1.000,0.017,0.000
220072.700,204963.100,710778.900,659654.600,182884.800,175130.400,161916.300,169468.500,-0.092,0.933,-0.278,-2.167,5.585,0.000,73.333,54.000,1.000,2.410,0.000
218797.300,203761.000,706020.200,655322.000,181826.600,174106.500,160975.400,168490.300,-0.100,0.938,-0.274,-1.526,6.104,0.061,73.333,55.000,1.000,0.010,0.000
217551.000,202614.400,701468.300,651166.300,180823.900,173147.600,160082.800,167553.600,-0.103,0.940,-0.274,-1.038,6.348,-0.031,73.333,56.000,1.000,1.935,0.000
216324.200,201492.200,697093.400,647170.800,179827.200,172196.900,159207.100,166622.900,-0.104,0.944,-0.277,-0.824,6.561,0.061,73.333,57.000,1.000,8.721,0.000
215184.600,200432.600,692925.200,643378.000,178868.600,171288.800,158364.700,165747.500,-0.109,0.949,-0.277,-0.458,6.592,-0.092,73.333,58.000,1.000,3.221,0.000
214123.800,199431.600,688956.300,639775.700,177960.300,170425.900,157558.300,164904.000,-0.111,0.951,-0.277,-0.458,6.592,-0.427,73.333,59.000,1.000,0.007,0.000
213117.100,198477.400,685177.800,636342.600,177128.200,169620.800,156815.400,164132.400,-0.115,0.957,-0.272,-0.153,6.409,-0.488,73.333,60.000,1.000,8.147,0.000
212122.400,197557.600,681550.100,633043.100,176331.900,168857.400,156113.400,163393.300,-0.118,0.954,-0.275,-0.153,6.012,-0.763,73.333,61.000,1.000,2.458,0.000
211193.700,196717.000,678108.700,629894.300,175582.300,168150.200,155462.700,162696.500,-0.120,0.957,-0.281,-0.427,5.768,-1.038,73.333,62.000,1.000,3.677,0.000
210313.500,195896.700,674801.300,626887.700,174842.000,167442.800,154813.500,162017.700,-0.129,0.966,-0.277,-0.336,5.219,-1.129,73.333,63.000,1.000,6.327,0.000
209448.900,195068.200,671604.100,623981.300,174093.600,166733.900,154147.500,161316.800,-0.125,0.969,-0.280,-0.580,4.639,-1.526,73.333,64.000,1.000,3.018,0.000
208645.000,194309.200,668570.300,621225.400,173425.700,166084.000,153546.100,160695.500,-0.133,0.973,-0.276,-0.641,4.120,-1.556,73.333,65.000,1.000,0.010,0.000
207889.000,193622.400,665701.100,618614.600,172831.100,165510.300,153019.700,160140.600,-0.130,0.967,-0.275,-0.854,3.143,-1.862,73.333,66.000,1.000,10.665,0.000
207130.200,192928.700,662924.800,616078.200,172220.700,164929.000,152487.200,159580.500,-0.126,0.959,-0.282,-1.343,2.533,-1.953,73.333,67.000,1.000,2.976,0.000
206409.500,192256.500,660240.100,613636.600,171602.600,164335.500,151946.800,159016.000,-0.127,0.953,-0.281,-1.465,1.801,-1.801,73.333,68.000,1.000,0.016,0.000
205758.500,191636.700,657697.500,611318.400,171028.800,163792.800,151436.900,158481.600,-0.116,0.941,-0.286,-1.831,1.038,-2.014,73.333,69.000,1.000,5.790,0.000
205152.900,191061.700,655284.400,609135.900,170528.900,163304.200,150985.900,158016.600,-0.120,0.946,-0.284,-1.587,0.610,-1.740,73.333,70.000,1.000,2.508,0.000
204521.500,190474.700,652931.600,607007.200,170027.100,162817.400,150539.500,157550.500,-0.120,0.942,-0.287,-1.526,-0.305,-1.831,73.333,71.000,1.000,2.393,0.000
203907.300,189915.700,650672.200,604948.300,169531.400,162343.200,150110.100,157101.700,-0.116,0.935,-0.286,-1.709,-0.671,-1.923,73.333,72.000,1.000,8.767,0.000
203340.300,189391.500,648504.300,602988.500,169052.800,161885.500,149687.700,156658.800,-0.123,0.933,-0.288,-1.465,-1.495,-1.770,73.333,73.000,1.000,4.388,0.000
202825.600,188898.100,646443.800,601114.800,168600.800,161466.700,149287.700,156234.200,-0.120,0.928,-0.287,-1.434,-2.258,-2.014,73.333,74.000,1.000,0.009,0.000
202346.000,188438.500,644486.000,599338.900,168205.600,161089.100,148933.800,155865.300,-0.125,0.929,-0.289,-1.251,-2.869,-1.984,73.333,75.000,1.000,8.134,0.000
201855.000,187992.800,642588.000,597623.000,167826.800,160720.300,148590.400,155502.400,-0.126,0.930,-0.298,-1.373,-3.540,-2.228,73.333,76.000,1.000,9.335,0.000
201363.100,187554.800,640744.800,595941.000,167432.800,160343.300,148239.900,155147.100,-0.130,0.948,-0.304,-1.251,-4.120,-2.533,73.333,77.000,1.000,0.008,0.000
200905.000,187120.200,638953.800,594326.500,167030.400,159950.300,147887.500,154769.800,-0.129,0.980,-0.305,-1.312,-4.944,-2.991,73.333,78.000,1.000,2.515,0.000
200527.000,186751.300,637283.400,592840.600,166694.100,159640.500,147599.400,154461.600,-0.115,1.008,-0.303,-1.526,-5.615,-3.387,73.333,79.000,1.000,0.007,0.000
200134.300,186372.300,635658.900,591390.100,166367.700,159328.500,147301.700,154154.200,-0.107,1.022,-0.289,-1.831,-6.104,-3.754,73.333,80.000,1.000,18.173,0.000
199690.300,185966.600,634053.600,589927.800,166022.000,158988.000,146997.500,153831.200,-0.101,1.020,-0.276,-3.052,-6.561,-3.418,73.333,81.000,1.000,3.033,0.000
199274.800,185604.300,632532.400,588535.100,165692.100,158680.600,146717.200,153527.600,-0.097,1.000,-0.274,-4.700,-6.714,-2.594,73.333,82.000,1.000,0.009,0.000
198933.500,185289.800,631103.100,587240.500,165392.900,158397.700,146438.300,153250.500,-0.100,0.979,-0.278,-5.615,-6.927,-2.106,73.333,83.000,1.000,1.929,0.000
198642.400,184998.300,629747.900,586019.900,165125.000,158147.600,146198.100,153000.400,-0.103,0.963,-0.283,-6.317,-6.989,-1.648,73.333,84.000,1.000,2.491,0.000
198294.100,184653.000,628374.100,584788.200,164825.200,157851.300,145923.300,152712.800,-0.106,0.954,-0.284,-6.348,-7.263,-1.404,73.333,85.000,1.000,2.504,0.000
197954.400,184346.500,627058.400,583616.900,164564.300,157592.100,145680.700,152475.300,-0.106,0.945,-0.283,-6.439,-7.538,-1.434,73.333,86.000,1.000,2.434,0.000
197653.000,184085.500,625821.600,582507.800,164336.400,157381.400,145490.700,152259.300,-0.110,0.948,-0.274,-6.256,-7.751,-1.373,73.333,87.000,1.000,3.840,0.000
197394.800,183847.400,624642.000,581449.600,164109.600,157176.400,145307.200,152052.000,-0.111,0.949,-0.266,-6.134,-7.874,-1.373,73.333,88.000,1.000,9.390,0.000
197110.900,183560.300,623453.200,580393.300,163842.100,156915.300,145068.300,151812.900,-0.114,0.956,-0.268,-6.042,-7.874,-1.312,73.333,89.000,1.000,0.022,0.000
196870.300,183322.900,622347.800,579420.300,163648.300,156717.600,144891.200,151636.800,-0.119,0.955,-0.267,-5.920,-7.935,-1.343,73.333,90.000,1.000,2.400,0.000
196617.700,183104.500,621274.400,578470.000,163465.200,156542.600,144729.800,151459.100,-0.119,0.950,-0.268,-6.042,-8.026,-1.526,73.333,91.000,1.000,0.008,0.000
196339.200,182861.500,620212.700,577505.900,163250.100,156332.200,144540.200,151259.800,-0.122,0.947,-0.270,-5.676,-7.996,-1.709,73.333,92.000,1.000,8.128,0.000
196094.900,182633.800,619198.200,576569.600,163032.500,156130.300,144350.100,151063.500,-0.117,0.943,-0.270,-5.371,-8.057,-1.862,73.333,93.000,1.000,2.410,0.000
195901.700,182430.800,618242.800,575716.100,162847.800,155952.200,144182.300,150893.300,-0.115,0.945,-0.268,-4.883,-7.874,-1.770,73.333,94.000,1.000,8.830,0.000
195689.100,182222.400,617299.100,574874.200,162673.700,155778.500,144013.300,150720.600,-0.113,0.952,-0.262,-4.425,-7.507,-1.678,73.333,95.000,1.000,2.454,0.000
195495.800,182050.400,616411.200,574084.900,162539.500,155636.200,143889.600,150584.200,-0.105,0.956,-0.262,-4.211,-7.233,-1.404,73.333,96.000,1.000,2.548,0.000
195290.700,181874.600,615538.100,573303.100,162392.500,155490.300,143760.300,150443.400,-0.101,0.963,-0.265,-4.120,-6.744,-1.099,73.333,97.000,1.000,3.763,0.000
195086.200,181691.400,614675.700,572531.300,162218.500,155335.400,143608.500,150281.500,-0.094,0.961,-0.262,-4.181,-6.348,-0.580,73.333,98.000,1.000,9.357,0.000
194951.900,181551.100,613883.600,571828.600,162084.000,155211.500,143492.600,150161.800,-0.090,0.958,-0.262,-4.272,-5.676,-0.061,73.333,99.000,1.000,0.012,0.000
194772.000,181367.300,613067.600,571111.700,161928.700,155049.200,143348.400,150002.500,-0.090,0.960,-0.262,-4.181,-4.913,0.793,73.333,100.000,1.000,2.459,0.000
194619.600,181237.500,612318.200,570448.400,161831.600,154956.100,143262.400,149905.600,-0.086,0.966,-0.265,-4.303,-4.242,1.434,73.333,101.000,1.000,0.005,0.000
194445.200,181094.800,611569.900,569785.000,161709.500,154834.000,143157.800,149790.600,-0.089,0.974,-0.265,-4.211,-3.662,2.075,73.333,102.000,1.000,15.674,0.000
194265.500,180927.000,610812.300,569116.500,161542.900,154677.600,143013.700,149640.900,-0.090,0.976,-0.266,-4.395,-3.052,2.625,73.333,103.000,1.000,3.094,0.000
194171.000,180822.000,610141.100,568532.800,161435.600,154574.000,142923.400,149538.100,-0.087,0.976,-0.268,-4.639,-2.502,2.960,73.333,104.000,1.000,0.008,0.000
194070.300,180721.800,609490.500,567975.200,161358.500,154493.800,142854.600,149468.500,-0.088,0.977,-0.264,-4.822,-2.014,3.265,73.333,105.000,1.000,1.892,0.000
193901.000,180571.200,608803.400,567376.400,161239.800,154371.300,142739.100,149355.400,-0.084,0.975,-0.274,-5.157,-1.587,3.510,73.333,106.000,1.000,2.441,0.000
193775.700,180475.400,608178.400,566824.500,161158.000,154287.800,142671.000,149276.200,-0.085,0.973,-0.273,-5.463,-1.190,3.906,73.333,107.000,1.000,2.549,0.000
193647.600,180356.000,607546.600,566272.400,161035.200,154175.100,142563.300,149161.100,-0.084,0.970,-0.274,-5.737,-0.977,4.211,73.333,108.000,1.000,11.934,0.000
193536.400,180232.500,606934.100,565735.800,160912.400,154066.200,142455.600,149049.800,-0.082,0.969,-0.272,-6.104,-0.916,4.395,73.333,109.000,1.000,0.017,0.000
193425.600,180116.000,606344.600,565222.100,160820.500,153971.600,142372.800,148964.700,-0.088,0.965,-0.274,-6.226,-0.702,4.730,73.333,110.000,1.000,1.789,0.000
193350.700,180055.600,605820.900,564770.100,160789.300,153937.300,142341.700,148918.000,-0.091,0.966,-0.271,-6.287,-0.763,4.822,73.333,111.000,1.000,2.444,0.000
193204.800,179937.700,605242.300,564260.000,160686.500,153844.100,142256.600,148799.200,-0.096,0.970,-0.272,-6.683,-0.671,4.700,73.333,112.000,1.000,9.393,0.000
193073.800,179812.800,604670.000,563755.400,160566.700,153730.000,142155.100,148704.900,-0.103,0.977,-0.270,-6.836,-0.824,4.578,73.333,113.000,1.000,0.017,0.000
193020.100,179745.300,604172.300,563324.300,160494.300,153660.700,142091.900,148653.000,-0.108,0.978,-0.268,-7.233,-1.068,4.364,73.333,114.000,1.000,1.810,0.000
192954.800,179667.300,603682.800,562909.900,160438.100,153597.400,142034.300,148596.600,-0.114,0.970,-0.263,-7.782,-1.465,4.181,73.333,115.000,1.000,3.742,0.000
192848.500,179577.400,603177.600,562475.800,160372.300,153532.700,141973.700,148507.500,-0.118,0.958,-0.262,-8.087,-2.014,3.906,73.333,116.000,1.000,15.053,0.000
192723.800,179475.800,602670.600,562029.800,160279.800,153453.100,141895.200,148384.800,-0.117,0.944,-0.260,-8.118,-2.594,3.510,73.333,117.000,1.000,0.021,0.000
192651.300,179401.400,602203.700,561623.800,160201.800,153383.200,141832.400,148333.900,-0.117,0.928,-0.260,-7.996,-3.296,3.113,73.333,118.000,1.000,0.008,0.000
192615.500,179350.900,601777.100,561249.200,160144.700,153331.100,141782.800,148277.800,-0.119,0.917,-0.262,-7.446,-4.059,2.625,73.333,119.000,1.000,2.490,0.000
192585.000,179311.900,601374.600,560903.100,160127.400,153311.800,141758.800,148250.000,-0.120,0.921,-0.263,-7.050,-4.700,1.984,73.333,120.000,1.000,2.465,0.000
192456.600,179201.100,600898.700,560486.100,160047.500,153223.600,141678.800,148198.200,-0.126,0.936,-0.267,-6.287,-5.493,1.556,73.333,121.000,1.000,7.527,0.000
192364.700,179135.400,600468.800,560107.600,159993.000,153174.800,141638.700,148164.200,-0.125,0.944,-0.266,-5.951,-6.317,0.824,73.333,122.000,1.000,2.500,0.000
192320.900,179099.300,600073.100,559770.300,159943.100,153141.200,141606.300,148130.700,-0.121,0.947,-0.262,-5.798,-7.111,0.092,73.333,123.000,1.000,2.472,0.000
192277.000,179036.400,599673.800,559435.900,159874.500,153077.100,141535.800,148080.700,-0.118,0.942,-0.256,-5.493,-7.935,-0.549,73.333,124.000,1.000,16.902,0.000
192236.000,178984.100,599295.300,559109.600,159833.200,153028.600,141496.500,148033.300,-0.111,0.941,-0.259,-5.310,-8.514,-1.129,73.333,125.000,1.000,0.015,0.000
192191.700,178954.300,598939.100,558800.400,159821.200,153008.800,141490.300,148020.500,-0.106,0.941,-0.265,-5.157,-8.972,-1.465,73.333,126.000,1.000,18.134,0.000
192124.400,178900.900,598567.900,558468.600,159780.200,152979.300,141459.400,147979.700,-0.102,0.945,-0.271,-4.852,-9.338,-1.801,73.333,127.000,1.000,0.028,0.000
192064.400,178843.100,598187.600,558137.800,159709.500,152917.800,141394.700,147924.500,-0.099,0.948,-0.269,-4.486,-9.674,-2.167,73.333,128.000,1.000,0.009,0.000
192020.500,178779.400,597819.900,557820.100,159642.500,152856.500,141331.900,147862.300,-0.097,0.953,-0.266,-4.211,-9.888,-2.655,73.333,129.000,1.000,3.077,0.000
191976.100,178726.800,597472.800,557522.800,159600.800,152809.900,141293.500,147826.000,-0.094,0.958,-0.265,-4.089,-10.132,-2.838,73.333,130.000,1.000,0.011,0.000
191947.500,178709.200,597166.800,557262.800,159606.600,152803.100,141297.500,147833.800,-0.092,0.957,-0.264,-3.906,-10.040,-3.052,73.333,131.000,1.000,2.432,0.000
191878.900,178665.800,596827.800,556967.500,159563.500,152763.700,141261.400,147790.000,-0.090,0.954,-0.263,-3.754,-9.857,-3.052,73.333,132.000,1.000,0.009,0.000
191802.000,178590.100,596468.400,556652.700,159480.700,152692.600,141187.700,147708.500,-0.088,0.953,-0.265,-3.448,-9.705,-2.930,73.333,133.000,1.000,1.899,0.000
191791.000,178562.600,596168.600,556404.900,159446.300,152670.400,141161.800,147680.300,-0.089,0.955,-0.262,-3.204,-9.491,-2.930,73.333,134.000,1.000,5.017,0.000
191759.300,178522.500,595865.400,556144.900,159417.100,152640.300,141124.700,147642.500,-0.093,0.958,-0.262,-3.174,-9.338,-2.808,73.333,135.000,1.000,2.461,0.000
191719.200,178490.600,595575.600,555892.100,159415.200,152621.800,141125.400,147636.100,-0.098,0.957,-0.262,-2.869,-9.125,-2.716,73.333,136.000,1.000,3.764,0.000
191663.500,178456.300,595273.300,555628.400,159384.900,152593.000,141108.000,147612.000,-0.103,0.955,-0.261,-2.563,-8.759,-2.655,73.333,137.000,1.000,11.876,0.000
191609.500,178408.600,594967.000,555357.900,159331.700,152562.100,141072.900,147582.500,-0.105,0.953,-0.260,-2.228,-8.423,-2.533,73.333,138.000,1.000,0.010,0.000
191574.900,178362.900,594676.100,555101.900,159275.100,152509.000,141011.400,147529.200,-0.104,0.954,-0.260,-1.770,-7.996,-2.319,73.333,139.000,1.000,2.503,0.000
191538.000,178317.000,594392.300,554859.800,159242.200,152474.900,140975.300,147487.600,-0.106,0.949,-0.260,-1.373,-7.629,-2.106,73.333,140.000,1.000,0.005,0.000
191511.200,178308.900,594141.600,554641.900,159248.500,152476.900,140981.700,147493.200,-0.111,0.949,-0.259,-1.068,-7.202,-1.892,73.333,141.000,1.000,8.039,0.000
191460.900,178281.200,593876.600,554400.900,159224.600,152461.800,140966.700,147480.400,-0.113,0.949,-0.258,-0.610,-6.897,-1.587,73.333,142.000,1.000,9.432,0.000
191403.000,178227.700,593582.500,554143.900,159156.800,152415.500,140918.500,147418.600,-0.117,0.947,-0.260,-0.183,-6.622,-1.495,73.333,143.000,1.000,0.020,0.000
191386.600,178198.100,593321.800,553921.400,159118.000,152370.000,140881.000,147388.300,-0.119,0.945,-0.263,0.183,-6.348,-1.465,73.333,144.000,1.000,12.541,0.000
191391.400,178187.200,593093.200,553731.700,159121.000,152360.800,140875.000,147380.900,-0.120,0.938,-0.266,0.702,-5.981,-1.434,73.333,145.000,1.000,0.013,0.000
191379.800,178190.300,592870.100,553547.300,159136.300,152375.800,140883.000,147393.000,-0.120,0.930,-0.270,1.251,-5.646,-1.465,73.333,146.000,1.000,1.832,0.000
191329.300,178164.700,592619.000,553328.000,159113.500,152357.800,140867.300,147367.800,-0.119,0.936,-0.270,1.831,-5.219,-1.434,73.333,147.000,1.000,3.132,0.000
191305.100,178151.400,592379.800,553122.800,159083.000,152339.600,140844.400,147343.000,-0.121,0.955,-0.273,2.380,-4.730,-1.434,73.333,148.000,1.000,0.006,0.000
191276.800,178106.600,592125.800,552914.800,159033.500,152297.800,140800.600,147304.100,-0.118,0.966,-0.267,2.563,-4.517,-1.556,73.333,149.000,1.000,1.841,0.000
191245.600,178064.200,591881.800,552716.800,159009.300,152267.000,140775.000,147274.900,-0.112,0.964,-0.263,2.563,-4.272,-1.587,73.333,150.000,1.000,11.851,0.000
191228.000,178060.900,591675.600,552538.300,159027.200,152281.400,140787.500,147291.700,-0.104,0.949,-0.265,2.411,-3.632,-1.617,73.333,151.000,1.000,0.016,0.000
191201.000,178055.000,591464.200,552347.700,159021.400,152275.400,140778.500,147284.400,-0.095,0.935,-0.266,2.563,-2.808,-1.617,73.333,152.000,1.000,13.099,0.000
191158.800,178011.400,591223.300,552134.700,158967.100,152230.400,140733.700,147241.000,-0.093,0.926,-0.276,2.930,-1.953,-1.526,73.333,153.000,1.000,0.012,0.000
191148.600,177987.800,591002.900,551946.900,158932.000,152205.900,140709.400,147219.200,-0.088,0.923,-0.280,3.082,-1.007,-1.282,73.333,154.000,1.000,0.004,0.000
191157.400,177985.900,590809.300,551788.100,158940.000,152207.100,140709.700,147224.800,-0.088,0.932,-0.281,3.479,-0.122,-1.160,73.333,155.000,1.000,2.494,0.000
191132.500,177974.300,590602.300,551613.400,158944.500,152202.700,140712.500,147236.200,-0.089,0.944,-0.282,3.815,0.580,-1.099,73.333,156.000,1.000,2.519,0.000
191099.000,177961.600,590391.500,551431.800,158936.200,152204.500,140717.600,147219.900,-0.088,0.961,-0.280,3.937,1.312,-1.099,73.333,157.000,1.000,2.481,0.000
191087.700,177954.900,590185.300,551259.300,158910.800,152189.400,140702.800,147199.200,-0.092,0.972,-0.272,3.693,2.045,-1.068,73.333,158.000,1.000,2.516,0.000
191081.200,177926.900,589975.100,551090.700,158872.700,152156.500,140663.300,147166.000,-0.091,0.974,-0.272,3.143,2.625,-1.099,73.333,159.000,1.000,6.229,0.000
191071.600,177899.900,589771.400,550931.400,158860.600,152140.500,140643.800,147156.000,-0.094,0.977,-0.270,2.625,3.204,-1.068,73.333,160.000,1.000,4.275,0.000
191049.100,177886.600,589574.900,550769.900,158867.500,152139.700,140647.500,147156.700,-0.097,0.973,-0.273,1.923,3.723,-1.099,73.333,161.000,1.000,0.006,0.000
191022.000,177877.700,589378.700,550602.300,158861.400,152130.300,140645.000,147149.300,-0.102,0.969,-0.277,1.221,4.211,-1.099,73.333,162.000,1.000,10.761,0.000
191005.500,177861.300,589175.600,550435.700,158831.800,152110.300,140621.800,147122.600,-0.112,0.970,-0.279,0.793,4.517,-1.129,73.333,163.000,1.000,5.529,0.000
191009.900,177849.200,588985.100,550283.300,158810.000,152094.100,140601.100,147100.800,-0.115,0.966,-0.281,0.244,4.761,-1.251,73.333,164.000,1.000,0.011,0.000
191014.800,177847.000,588806.900,550144.700,158816.100,152094.000,140608.000,147102.900,-0.123,0.969,-0.281,-0.153,4.822,-1.282,73.333,165.000,1.000,1.885,0.000
190985.200,177827.400,588615.200,549987.300,158816.200,152094.500,140610.700,147105.100,-0.126,0.968,-0.281,-0.458,4.730,-1.495,73.333,166.000,1.000,2.438,0.000
190955.500,177813.900,588432.100,549830.500,158812.800,152080.900,140616.400,147108.900,-0.128,0.969,-0.282,-0.885,4.608,-1.648,73.333,167.000,1.000,8.863,0.000
190926.500,177785.800,588228.800,549653.300,158769.300,152038.100,140574.100,147080.100,-0.131,0.969,-0.278,-1.160,4.486,-1.740,73.333,168.000,1.000,5.023,0.000
190914.000,177754.000,588037.900,549493.900,158728.700,152003.700,140540.700,147051.800,-0.129,0.954,-0.273,-1.434,3.998,-1.923,73.333,169.000,1.000,9.271,0.000
190936.300,177761.700,587893.000,549372.800,158750.500,152023.700,140567.800,147065.400,-0.123,0.940,-0.280,-1.953,3.876,-2.319,73.333,170.000,1.000,0.013,0.000
190925.800,177766.600,587726.300,549232.900,158770.800,152042.200,140578.100,147079.300,-0.127,0.941,-0.286,-1.831,3.906,-2.411,73.333,171.000,1.000,1.889,0.000
190883.100,177744.000,587536.900,549063.300,158750.400,152027.800,140553.900,147057.300,-0.129,0.945,-0.288,-1.556,3.723,-2.777,73.333,172.000,1.000,2.556,0.000
190859.400,177724.400,587350.500,548903.400,158720.500,152010.700,140549.300,147035.100,-0.123,0.952,-0.295,-1.801,3.540,-2.960,73.333,173.000,1.000,24.983,0.000
190852.300,177702.300,587170.500,548758.100,158690.300,151979.200,140524.000,147014.000,-0.129,0.965,-0.290,-1.892,3.235,-2.777,73.333,174.000,1.000,2.425,0.000
190851.200,177692.200,587019.300,548627.700,158687.600,151957.000,140500.900,147009.100,-0.125,0.964,-0.286,-2.106,2.930,-2.747,73.333,175.000,1.000,2.545,0.000
190836.700,177688.900,586864.100,548495.600,158704.500,151958.600,140502.600,147014.500,-0.123,0.962,-0.287,-2.716,2.747,-2.563,73.333,176.000,1.000,2.418,0.000
190812.500,177681.000,586693.900,548355.400,158698.000,151957.100,140498.300,147013.400,-0.124,0.960,-0.281,-2.838,2.563,-2.319,73.333,177.000,1.000,2.600,0.000
190802.600,177671.100,586524.600,548216.900,158669.700,151944.200,140484.100,146988.600,-0.117,0.954,-0.282,-3.235,2.563,-2.472,73.333,178.000,1.000,2.452,0.000
190827.100,177676.800,586371.100,548114.300,158662.800,151943.200,140477.000,146984.500,-0.116,0.949,-0.286,-3.235,2.625,-2.380,73.333,179.000,1.000,2.487,0.000
190826.300,177662.800,586209.500,547991.800,158658.800,151930.700,140468.700,146985.400,-0.112,0.942,-0.286,-3.326,2.716,-2.472,73.333,180.000,1.000,2.494,0.000
190802.400,177652.000,586048.200,547855.700,158663.900,151924.700,140462.700,146972.400,-0.114,0.940,-0.284,-3.174,2.838,-2.472,73.333,181.000,1.000,2.573,0.000
190770.200,177645.300,585884.500,547710.900,158655.000,151922.000,140460.300,146962.000,-0.116,0.937,-0.282,-2.869,3.021,-2.319,73.333,182.000,1.000,2.429,0.000
190758.500,177641.200,585735.900,547568.600,158630.600,151914.100,140451.200,146946.100,-0.120,0.940,-0.280,-2.808,3.143,-2.380,73.333,183.000,1.000,3.052,0.000
190776.400,177645.300,585607.600,547450.600,158626.000,151910.600,140450.000,146947.900,-0.126,0.947,-0.276,-2.472,3.265,-2.258,73.333,184.000,1.000,0.006,0.000
190792.800,177651.800,585483.600,547341.800,158645.300,151932.400,140466.000,146968.400,-0.123,0.947,-0.275,-2.441,3.326,-2.563,73.333,185.000,1.000,1.896,0.000
190789.700,177661.300,585353.700,547226.100,158674.200,151958.400,140487.900,146984.500,-0.123,0.947,-0.276,-2.289,3.571,-2.594,73.333,186.000,1.000,4.409,0.000
190743.400,177630.000,585172.600,547066.500,158642.700,151929.000,140462.500,146958.300,-0.122,0.944,-0.275,-2.167,3.510,-2.747,73.333,187.000,1.000,0.009,0.000
190735.800,177618.200,585017.000,546937.800,158617.000,151918.200,140445.600,146950.000,-0.119,0.938,-0.276,-2.289,3.723,-2.777,73.333,188.000,1.000,8.204,0.000
190764.200,177628.800,584882.100,546837.100,158614.900,151920.600,140440.600,146941.000,-0.121,0.939,-0.273,-1.740,3.937,-2.625,73.333,189.000,1.000,3.055,0.000
190779.400,177627.600,584747.100,546743.800,158625.200,151919.700,140439.500,146950.300,-0.120,0.942,-0.276,-1.495,4.150,-2.655,73.333,190.000,1.000,0.005,0.000
190758.600,177617.100,584599.900,546626.300,158638.700,151920.400,140447.100,146955.700,-0.122,0.948,-0.278,-1.526,4.333,-2.380,73.333,191.000,1.000,5.623,0.000
190722.200,177599.600,584435.000,546487.100,158623.500,151905.100,140437.700,146933.000,-0.125,0.948,-0.276,-1.312,4.364,-2.106,73.333,192.000,1.000,14.315,0.000
190719.900,177600.000,584297.500,546364.900,158609.200,151892.700,140428.300,146920.300,-0.125,0.943,-0.276,-1.343,4.425,-2.136,73.333,193.000,1.000,0.012,0.000
190741.400,177606.800,584177.800,546265.800,158610.300,151891.900,140422.600,146922.400,-0.132,0.949,-0.278,-1.099,4.578,-1.678,73.333,194.000,1.000,1.864,0.000
190732.500,177585.800,584035.600,546151.800,158603.900,151877.700,140410.200,146922.000,-0.131,0.950,-0.279,-1.190,4.578,-1.801,73.333,195.000,1.000,5.105,0.000
190727.700,177591.500,583909.500,546049.300,158628.900,151897.900,140430.600,146940.900,-0.135,0.955,-0.279,-1.282,4.761,-1.678,73.333,196.000,1.000,4.976,0.000
190690.300,177575.300,583746.800,545909.300,158610.600,151880.900,140417.800,146920.600,-0.137,0.960,-0.277,-1.190,4.608,-1.709,73.333,197.000,1.000,7.461,0.000
190688.600,177575.600,583607.600,545790.100,158591.100,151880.800,140404.600,146905.800,-0.137,0.964,-0.276,-1.404,4.486,-1.770,73.333,198.000,1.000,2.542,0.000
190720.900,177584.700,583489.900,545704.800,158596.500,151883.200,140409.900,146915.600,-0.143,0.967,-0.277,-1.465,4.395,-1.648,73.333,199.000,1.000,3.076,0.000
190720.400,177573.500,583351.100,545593.300,158594.900,151870.400,140402.600,146916.200,-0.139,0.966,-0.280,-1.801,4.181,-1.801,73.333,200.000,1.000,0.005,0.000
190696.200,177562.300,583211.900,545477.600,158603.300,151872.800,140406.300,146925.500,-0.139,0.962,-0.281,-2.136,4.181,-1.740,73.333,201.000,1.000,1.927,0.000
190687.900,177576.800,583090.100,545378.700,158616.500,151892.000,140427.800,146930.400,-0.139,0.957,-0.283,-2.319,4.089,-1.801,73.333,202.000,1.000,2.470,0.000
190678.800,177572.500,582957.100,545257.300,158592.600,151881.500,140412.000,146909.300,-0.133,0.952,-0.287,-2.563,4.059,-1.953,73.333,203.000,1.000,11.216,0.000
190663.200,177538.700,582800.400,545125.800,158550.100,151845.400,140372.300,146873.300,-0.131,0.952,-0.288,-2.533,4.028,-1.892,73.333,204.000,1.000,3.155,0.000
190694.900,177561.400,582702.700,545053.400,158579.200,151868.900,140393.000,146891.900,-0.127,0.953,-0.289,-2.686,4.120,-2.045,73.333,205.000,1.000,0.010,0.000
190685.100,177557.400,582581.300,544947.100,158595.400,151869.700,140400.500,146898.400,-0.127,0.960,-0.289,-2.716,4.242,-1.740,73.333,206.000,1.000,1.855,0.000
190641.500,177531.900,582428.600,544808.700,158575.900,151854.100,140387.600,146881.500,-0.122,0.959,-0.286,-3.052,4.333,-1.648,73.333,207.000,1.000,3.701,0.000
190641.300,177536.200,582303.000,544697.100,158562.800,151857.800,140385.500,146878.300,-0.120,0.957,-0.284,-3.387,4.425,-1.465,73.333,208.000,1.000,9.375,0.000
190652.200,177526.600,582174.800,544589.900,158542.300,151836.500,140366.200,146854.500,-0.121,0.958,-0.282,-3.632,4.669,-1.068,73.333,209.000,1.000,0.011,0.000
190661.600,177526.200,582058.500,544497.000,158545.000,151834.000,140355.000,146851.700,-0.117,0.954,-0.292,-3.967,4.791,-1.007,73.333,210.000,1.000,1.885,0.000
190645.000,177519.300,581934.700,544396.500,158553.200,151835.100,140363.400,146861.500,-0.120,0.955,-0.289,-4.059,5.005,-0.854,73.333,211.000,1.000,6.260,0.000
190624.400,177517.200,581805.200,544287.900,158551.400,151843.600,140376.700,146864.300,-0.118,0.956,-0.291,-4.181,5.157,-0.946,73.333,212.000,1.000,9.396,0.000
190620.200,177511.100,581673.600,544176.300,158529.200,151834.600,140367.100,146847.300,-0.119,0.962,-0.290,-4.486,5.493,-0.916,73.333,213.000,1.000,0.020,0.000
190658.600,177527.700,581574.000,544106.600,158536.700,151848.600,140376.700,146857.900,-0.120,0.966,-0.285,-4.791,5.615,-0.824,73.333,214.000,1.000,1.843,0.000
190695.800,177549.200,581484.800,544048.300,158569.800,151863.600,140400.200,146892.500,-0.120,0.965,-0.281,-5.219,5.798,-0.793,73.333,215.000,1.000,3.784,0.000
190648.000,177511.100,581331.600,543921.900,158551.700,151830.500,140365.800,146874.200,-0.122,0.969,-0.280,-5.737,5.890,-0.793,73.333,216.000,1.000,16.835,0.000
190605.300,177486.500,581181.400,543793.900,158529.300,151805.700,140347.100,146850.900,-0.121,0.970,-0.276,-6.287,6.042,-0.702,73.333,217.000,1.000,0.013,0.000
190603.200,177486.200,581056.600,543685.400,158512.600,151798.000,140340.900,146835.600,-0.123,0.975,-0.278,-6.866,6.134,-0.732,73.333,218.000,1.000,1.854,0.000
190624.500,177487.500,580944.900,543603.800,158506.300,151791.200,140332.900,146838.300,-0.125,0.975,-0.277,-7.263,6.165,-0.824,73.333,219.000,1.000,2.482,0.000
190637.400,177488.500,580834.500,543521.900,158516.900,151796.400,140337.800,146847.100,-0.126,0.973,-0.276,-7.813,6.165,-0.824,73.333,220.000,1.000,2.482,0.000
190612.000,177475.500,580706.100,543415.100,158520.700,151792.900,140337.900,146844.400,-0.129,0.969,-0.277,-8.209,6.165,-0.854,73.333,221.000,1.000,2.582,0.000
190592.300,177472.200,580583.800,543316.500,158523.200,151802.900,140350.500,146852.400,-0.127,0.960,-0.280,-8.698,6.165,-0.946,73.333,222.000,1.000,6.822,0.000
190616.400,177496.400,580488.600,543240.900,158530.900,151817.900,140365.200,146867.400,-0.130,0.955,-0.281,-8.667,6.317,-0.916,73.333,223.000,1.000,0.010,0.000
190631.800,177492.300,580377.800,543150.600,158515.500,151806.300,140351.300,146861.200,-0.125,0.949,-0.280,-8.636,6.348,-1.007,73.333,224.000,1.000,1.898,0.000
190625.300,177474.200,580258.400,543047.800,158508.400,151793.800,140332.000,146847.600,-0.123,0.949,-0.279,-8.362,6.348,-0.977,73.333,225.000,1.000,10.040,0.000
190600.300,177462.600,580139.600,542942.100,158514.800,151793.800,140330.400,146847.000,-0.121,0.946,-0.275,-8.148,6.378,-0.885,73.333,226.000,1.000,3.055,0.000
190587.900,177470.900,580033.100,542842.400,158520.100,151805.000,140341.300,146855.800,-0.121,0.943,-0.275,-7.965,6.409,-0.793,73.333,227.000,1.000,0.008,0.000
190581.800,177469.200,579921.500,542735.900,158499.800,151795.700,140332.000,146844.300,-0.120,0.943,-0.274,-7.507,6.561,-0.610,73.333,228.000,1.000,1.942,0.000
190593.600,177466.300,579817.600,542651.800,158490.700,151795.000,140323.100,146844.100,-0.117,0.941,-0.277,-7.416,6.622,-0.427,73.333,229.000,1.000,30.575,0.000
190615.300,177476.800,579731.700,542578.900,158512.700,151807.100,140341.300,146861.200,-0.121,0.944,-0.274,-6.989,6.775,0.000,73.333,230.000,1.000,0.024,0.000
190586.700,177463.600,579612.900,542476.100,158516.000,151806.600,140352.700,146867.400,-0.115,0.939,-0.279,-6.927,6.775,0.122,73.333,231.000,1.000,1.859,0.000
190548.600,177445.500,579477.300,542358.300,158492.600,151781.400,140321.200,146828.800,-0.118,0.938,-0.278,-6.531,6.897,0.336,73.333,232.000,1.000,2.525,0.000
190547.700,177444.900,579362.300,542266.800,158475.300,151769.800,140308.100,146804.400,-0.113,0.934,-0.280,-6.287,6.805,0.366,73.333,233.000,1.000,2.494,0.000
190569.500,177451.800,579264.100,542195.100,158472.600,151763.500,140305.000,146813.100,-0.117,0.936,-0.281,-5.707,7.019,0.519,73.333,234.000,1.000,2.409,0.000
190573.800,177445.600,579161.800,542118.600,158479.300,151765.900,140309.500,146820.600,-0.111,0.934,-0.281,-5.310,7.080,0.488,73.333,235.000,1.000,2.540,0.000
190574.500,177454.500,579068.400,542055.100,158510.900,151783.600,140339.300,146844.000,-0.110,0.942,-0.278,-5.096,7.355,0.488,73.333,236.000,1.000,3.074,0.000
190555.900,177451.900,578960.100,541948.800,158510.400,151792.400,140342.000,146839.400,-0.112,0.942,-0.272,-4.852,7.294,0.458,73.333,237.000,1.000,0.010,0.000
190536.900,177435.900,578837.000,541837.300,158477.400,151770.900,140316.100,146812.600,-0.111,0.950,-0.272,-4.791,7.385,0.336,73.333,238.000,1.000,1.974,0.000
190546.300,177421.200,578734.400,541746.300,158458.500,151749.900,140300.800,146798.300,-0.114,0.952,-0.271,-4.456,7.294,0.336,73.333,239.000,1.000,2.987,0.000
190551.000,177410.800,578630.300,541663.700,158459.100,151744.900,140295.000,146798.000,-0.113,0.957,-0.274,-4.608,7.233,0.214,73.333,240.000,1.000,0.006,0.000
190551.300,177422.400,578541.400,541585.600,158487.400,151766.500,140316.000,146814.800,-0.118,0.958,-0.274,-4.517,7.080,0.183,73.333,241.000,1.000,13.924,0.000
190538.500,177430.200,578437.500,541500.700,158493.500,151779.600,140326.800,146822.400,-0.117,0.958,-0.274,-4.761,6.927,-0.092,73.333,242.000,1.000,0.015,0.000
190526.200,177419.900,578320.300,541398.900,158463.100,151756.200,140305.800,146804.300,-0.124,0.958,-0.273,-4.547,6.653,-0.122,73.333,243.000,1.000,2.340,0.000
190542.300,177419.100,578219.900,541323.100,158449.600,151747.000,140290.100,146794.500,-0.129,0.957,-0.274,-4.944,6.226,-0.397,73.333,244.000,1.000,0.004,0.000
190553.200,177421.700,578125.600,541253.300,158465.700,151756.400,140302.300,146799.500,-0.136,0.955,-0.274,-4.791,5.707,-0.458,73.333,245.000,1.000,8.763,0.000
190549.400,177429.900,578033.700,541178.800,158490.100,151773.600,140319.600,146815.400,-0.139,0.957,-0.274,-5.005,5.188,-0.793,73.333,246.000,1.000,0.008,0.000
190528.600,177428.500,577925.300,541082.100,158483.800,151775.600,140313.800,146806.100,-0.142,0.955,-0.271,-4.761,4.669,-1.160,73.333,247.000,1.000,13.848,0.000
190515.400,177419.800,577813.200,540984.800,158458.900,151754.000,140299.300,146789.700,-0.141,0.951,-0.273,-4.944,3.998,-1.648,73.333,248.000,1.000,0.015,0.000
190538.100,177421.900,577725.200,540918.300,158453.800,151743.100,140290.100,146790.700,-0.139,0.945,-0.268,-4.791,3.296,-1.892,73.333,249.000,1.000,2.382,0.000
190553.800,177425.700,577642.300,540849.400,158466.300,151753.300,140296.000,146797.800,-0.137,0.942,-0.270,-4.730,2.716,-2.289,73.333,250.000,1.000,0.010,0.000
190548.000,177430.800,577555.300,540767.300,158485.900,151766.200,140315.200,146816.900,-0.139,0.945,-0.266,-4.395,2.075,-2.411,73.333,251.000,1.000,1.922,0.000
190509.500,177411.300,577434.800,540651.500,158466.200,151752.500,140305.100,146797.500,-0.133,0.945,-0.268,-4.425,1.373,-2.716,73.333,252.000,1.000,18.153,0.000
190501.300,177405.300,577328.900,540557.600,158444.600,151740.200,140291.200,146783.700,-0.130,0.944,-0.266,-4.181,0.885,-2.930,73.333,253.000,1.000,0.024,0.000
190516.400,177405.500,577236.900,540485.100,158435.100,151733.600,140278.400,146779.700,-0.123,0.938,-0.269,-4.181,0.366,-3.021,73.333,254.000,1.000,2.903,0.000
190531.900,177412.200,577154.600,540416.700,158451.600,151745.100,140285.000,146794.500,-0.123,0.938,-0.273,-3.784,0.061,-2.869,73.333,255.000,1.000,0.006,0.000
190516.900,177410.500,577057.500,540334.300,158466.400,151754.400,140299.800,146803.000,-0.114,0.940,-0.278,-3.754,-0.183,-2.808,73.333,256.000,1.000,0.003,0.000
190479.900,177390.300,576934.900,540236.300,158451.400,151738.500,140291.300,146793.800,-0.114,0.949,-0.276,-3.387,-0.488,-2.441,73.333,257.000,1.000,2.603,0.000
190471.800,177382.500,576824.000,540154.400,158430.800,151726.200,140278.300,146778.300,-0.111,0.958,-0.275,-3.418,-0.580,-2.289,73.333,258.000,1.000,5.014,0.000
190501.500,177395.600,576740.400,540100.300,158433.500,151733.900,140279.400,146782.400,-0.110,0.966,-0.272,-3.387,-0.702,-1.953,73.333,259.000,1.000,2.451,0.000
190518.000,177399.500,576656.400,540038.200,158450.100,151739.600,140284.800,146792.900,-0.104,0.967,-0.270,-3.693,-0.885,-1.801,73.333,260.000,1.000,8.853,0.000
190525.800,177418.400,576581.900,539978.000,158488.500,151766.100,140314.500,146819.000,-0.104,0.971,-0.269,-3.967,-0.977,-1.526,73.333,261.000,1.000,11.790,0.000
190503.300,177416.200,576478.300,539886.800,158486.300,151767.100,140316.800,146816.900,-0.107,0.968,-0.272,-4.150,-1.190,-1.434,73.333,262.000,1.000,0.018,0.000
190489.100,177401.300,576361.500,539791.400,158453.600,151744.800,140294.200,146792.000,-0.112,0.968,-0.272,-4.333,-1.312,-1.221,73.333,263.000,1.000,2.394,0.000
190503.500,177395.400,576267.400,539716.100,158438.200,151733.800,140277.000,146778.500,-0.112,0.968,-0.274,-4.578,-1.678,-1.312,73.333,264.000,1.000,0.023,0.000
190530.100,177405.800,576193.300,539661.300,158459.400,151746.200,140289.200,146796.700,-0.112,0.968,-0.275,-4.608,-1.923,-1.373,73.333,265.000,1.000,1.946,0.000
190523.100,177409.600,576105.000,539587.600,158474.100,151757.300,140306.400,146809.900,-0.111,0.967,-0.272,-4.608,-2.167,-1.678,73.333,266.000,1.000,11.237,0.000
190507.100,177406.100,576005.300,539499.000,158471.000,151751.700,140311.900,146808.600,-0.109,0.967,-0.265,-4.791,-2.441,-1.862,73.333,267.000,1.000,6.827,0.000
190504.200,177404.200,575909.200,539410.800,158450.700,151739.200,140294.400,146790.300,-0.104,0.965,-0.265,-5.005,-2.655,-2.014,73.333,268.000,1.000,0.012,0.000
190532.700,177415.700,575833.400,539346.800,158448.300,151741.600,140281.700,146784.100,-0.102,0.967,-0.266,-5.341,-2.625,-2.014,73.333,269.000,1.000,1.913,0.000
190546.400,177413.000,575751.200,539281.400,158459.100,151738.000,140279.000,146789.400,-0.100,0.961,-0.268,-5.493,-2.655,-2.167,73.333,270.000,1.000,2.533,0.000
190541.100,177414.500,575664.800,539216.200,158480.700,151749.000,140299.200,146805.500,-0.101,0.961,-0.266,-5.646,-2.625,-2.258,73.333,271.000,1.000,2.363,0.000
190527.500,177416.700,575572.800,539137.400,158487.000,151756.400,140310.200,146804.100,-0.104,0.957,-0.267,-5.707,-2.686,-2.350,73.333,272.000,1.000,6.361,0.000
190524.100,177411.300,575471.100,539053.300,158465.700,151743.400,140296.200,146788.400,-0.108,0.959,-0.267,-5.829,-2.502,-2.380,73.333,273.000,1.000,3.132,0.000
190544.500,177414.700,575385.300,538989.200,158457.300,151738.800,140283.800,146784.600,-0.112,0.964,-0.267,-5.646,-2.380,-2.441,73.333,274.000,1.000,0.008,0.000
190566.400,177422.200,575309.700,538932.900,158475.100,151748.100,140295.000,146787.300,-0.112,0.966,-0.265,-5.768,-2.289,-2.472,73.333,275.000,1.000,8.108,0.000
190544.200,177407.200,575208.300,538844.600,158478.100,151739.700,140294.300,146791.000,-0.109,0.969,-0.264,-5.676,-2.075,-2.380,73.333,276.000,1.000,2.413,0.000
190527.500,177407.900,575116.300,538763.200,158477.700,151738.700,140300.000,146793.800,-0.111,0.973,-0.259,-5.920,-1.862,-2.380,73.333,277.000,1.000,8.695,0.000
190521.200,177402.900,575020.600,538677.400,158459.700,151727.500,140291.500,146778.800,-0.115,0.978,-0.254,-5.859,-1.434,-2.289,73.333,278.000,1.000,6.963,0.000
190526.400,177392.000,574925.500,538599.800,158439.500,151705.700,140275.600,146756.900,-0.117,0.979,-0.254,-6.134,-1.068,-2.106,73.333,279.000,1.000,0.017,0.000
190556.500,177410.800,574866.100,538556.600,158472.400,151726.700,140298.100,146786.100,-0.117,0.976,-0.258,-6.531,-0.793,-1.862,73.333,280.000,1.000,1.817,0.000
190563.700,177432.500,574802.300,538501.200,158513.600,151761.900,140337.500,146820.200,-0.117,0.970,-0.256,-6.775,-0.427,-1.617,73.333,281.000,1.000,8.763,0.000
190556.600,177445.500,574720.900,538433.300,158524.400,151768.900,140352.500,146825.000,-0.114,0.968,-0.254,-7.050,0.061,-1.312,73.333,282.000,1.000,5.048,0.000
190536.200,177422.400,574612.100,538339.600,158490.500,151740.400,140320.300,146792.500,-0.111,0.968,-0.256,-7.050,0.732,-1.038,73.333,283.000,1.000,2.566,0.000
190524.600,177388.900,574497.400,538240.600,158450.000,151706.400,140283.400,146755.800,-0.109,0.969,-0.258,-6.989,1.404,-0.732,73.333,284.000,1.000,2.419,0.000
190538.600,177392.200,574421.400,538185.400,158464.200,151710.100,140290.700,146768.100,-0.106,0.969,-0.256,-6.958,2.045,-0.488,73.333,285.000,1.000,2.531,0.000
190531.900,177400.900,574344.200,538119.400,158484.400,151728.200,140308.600,146786.100,-0.107,0.970,-0.251,-7.019,2.716,-0.153,73.333,286.000,1.000,2.459,0.000
190519.300,177409.600,574256.500,538042.000,158485.900,151743.700,140317.900,146788.300,-0.106,0.969,-0.249,-7.141,3.326,0.214,73.333,287.000,1.000,6.786,0.000
190509.700,177394.300,574155.200,537958.800,158455.700,151725.800,140292.300,146767.300,-0.106,0.965,-0.247,-7.324,4.089,0.488,73.333,288.000,1.000,0.009,0.000
190523.800,177385.600,574072.500,537898.300,158443.400,151710.700,140275.000,146765.000,-0.104,0.959,-0.246,-7.446,4.730,0.793,73.333,289.000,1.000,1.873,0.000
190558.800,177413.000,574023.300,537865.700,158481.600,151744.100,140305.300,146788.900,-0.100,0.950,-0.249,-7.385,5.463,0.854,73.333,290.000,1.000,8.787,0.000
190540.700,177410.300,573940.500,537791.400,158494.500,151757.400,140313.300,146791.700,-0.102,0.946,-0.251,-7.355,6.256,0.885,73.333,291.000,1.000,3.168,0.000
190507.300,177396.900,573843.100,537701.400,158482.100,151737.800,140308.300,146787.100,-0.102,0.939,-0.250,-7.111,6.927,0.671,73.333,292.000,1.000,0.008,0.000
190505.800,177398.700,573759.600,537627.300,158464.800,151730.300,140297.300,146773.100,-0.102,0.933,-0.254,-6.805,7.538,0.397,73.333,293.000,1.000,5.548,0.000
190533.800,177409.700,573695.800,537575.600,158467.400,151736.100,140294.000,146778.300,-0.102,0.932,-0.254,-6.409,8.179,0.214,73.333,294.000,1.000,11.961,0.000
190569.300,177432.500,573647.200,537538.600,158504.900,151769.100,140325.400,146807.500,-0.095,0.930,-0.251,-6.012,8.698,-0.122,73.333,295.000,1.000,0.009,0.000
190575.500,177453.900,573586.600,537483.800,158534.800,151798.100,140353.700,146831.300,-0.094,0.929,-0.249,-5.737,9.338,-0.488,73.333,296.000,1.000,1.773,0.000
190506.400,177400.700,573452.400,537352.600,158479.100,151746.800,140307.400,146785.000,-0.093,0.931,-0.254,-5.432,10.071,-0.702,73.333,297.000,1.000,7.579,0.000
190526.800,177420.800,573393.800,537302.700,158483.400,151764.500,140316.000,146799.900,-0.093,0.934,-0.254,-5.280,10.590,-1.068,73.333,298.000,1.000,5.040,0.000
190529.300,177408.000,573304.400,537232.700,158459.000,151740.700,140296.800,146777.200,-0.099,0.940,-0.254,-5.219,11.200,-1.404,73.333,299.000,1.000,8.718,0.000
190523.700,177396.300,573215.900,537163.900,158459.600,151745.300,140295.100,146778.800,-0.102,0.948,-0.255,-5.035,11.688,-1.984,73.333,300.000,1.000,2.526,0.000
190522.200,177411.100,573146.100,537111.900,158491.000,151768.400,140318.100,146795.200,-0.105,0.954,-0.254,-5.188,11.993,-2.502,73.333,301.000,1.000,2.470,0.000
190476.200,177389.700,573032.300,537006.600,158463.500,151745.200,140303.300,146770.100,-0.111,0.953,-0.254,-5.463,12.024,-3.082,73.333,302.000,1.000,2.515,0.000
190465.600,177377.500,572940.300,536924.100,158440.200,151730.600,140293.200,146759.400,-0.115,0.941,-0.252,-5.585,12.238,-3.723,73.333,303.000,1.000,3.793,0.000
190474.300,177369.100,572858.800,536857.300,158420.800,151713.500,140267.800,146745.800,-0.115,0.931,-0.259,-5.585,12.482,-4.303,73.333,304.000,1.000,4.918,0.000
190509.200,177394.800,572813.300,536825.700,158455.800,151743.600,140297.500,146769.200,-0.122,0.934,-0.268,-5.371,12.634,-4.883,73.333,305.000,1.000,2.451,0.000
190534.800,177429.900,572772.100,536794.300,158512.100,151800.500,140357.700,146819.000,-0.129,0.952,-0.266,-5.066,12.604,-5.554,73.333,306.000,1.000,2.581,0.000
190490.000,177396.100,572659.700,536694.100,158482.600,151761.600,140327.700,146790.500,-0.133,0.969,-0.265,-4.944,12.360,-6.104,73.333,307.000,1.000,3.056,0.000
190480.500,177382.500,572570.200,536617.500,158455.000,151732.700,140295.000,146767.800,-0.137,0.980,-0.260,-5.127,12.085,-6.653,73.333,308.000,1.000,0.015,0.000
190478.600,177371.500,572483.900,536540.000,158429.100,151710.100,140273.400,146745.800,-0.139,0.983,-0.257,-5.524,11.902,-7.172,73.333,309.000,1.000,18.155,0.000
190499.700,177384.200,572433.500,536501.200,158460.700,151737.200,140301.200,146777.200,-0.142,0.987,-0.254,-5.981,11.627,-7.568,73.333,310.000,1.000,5.563,0.000
190511.900,177408.800,572381.300,536457.600,158495.600,151760.800,140325.700,146796.700,-0.150,0.993,-0.257,-6.378,11.505,-7.965,73.333,311.000,1.000,0.015,0.000
190490.600,177401.000,572289.600,536378.100,158478.900,151741.800,140295.700,146785.900,-0.153,0.992,-0.252,-7.050,11.200,-8.057,73.333,312.000,1.000,1.917,0.000
190444.800,177358.200,572161.300,536264.400,158413.500,151686.400,140237.100,146735.200,-0.152,0.987,-0.251,-7.690,10.773,-8.087,73.333,313.000,1.000,2.482,0.000
190420.600,177317.200,572045.400,536171.000,158362.400,151651.600,140204.800,146697.700,-0.150,0.977,-0.250,-7.904,10.468,-8.087,73.333,314.000,1.000,2.525,0.000
190439.200,177321.100,571981.900,536128.000,158378.600,151663.300,140221.300,146719.200,-0.145,0.967,-0.250,-7.935,10.437,-8.209,73.333,315.000,1.000,2.430,0.000
190444.700,177340.500,571922.900,536088.600,158409.400,151690.800,140253.500,146754.500,-0.138,0.958,-0.254,-7.751,10.468,-8.270,73.333,316.000,1.000,2.559,0.000
190465.000,177381.900,571882.600,536052.500,158444.600,151740.500,140300.800,146787.700,-0.131,0.950,-0.256,-7.385,10.712,-8.331,73.333,317.000,1.000,2.475,0.000
190409.400,177328.800,571754.800,535928.300,158371.100,151674.600,140235.800,146725.200,-0.134,0.944,-0.254,-6.805,11.017,-8.057,73.333,318.000,1.000,2.456,0.000
190414.900,177320.400,571683.200,535853.700,158356.500,151664.500,140221.000,146708.500,-0.137,0.939,-0.253,-6.500,11.108,-7.660,73.333,319.000,1.000,14.375,0.000
190442.700,177340.100,571644.900,535816.600,158393.400,151700.300,140249.000,146741.500,-0.138,0.931,-0.257,-6.042,11.414,-7.294,73.333,320.000,1.000,0.007,0.000
190436.800,177353.100,571583.400,535752.800,158415.800,151716.600,140266.000,146758.000,-0.140,0.932,-0.258,-5.371,11.871,-6.989,73.333,321.000,1.000,6.854,0.000
190416.800,177348.700,571506.000,535670.300,158410.700,151713.300,140267.500,146752.000,-0.140,0.936,-0.254,-4.669,12.299,-6.714,73.333,322.000,1.000,0.021,0.000
190401.100,177332.300,571416.300,535583.700,158379.500,151690.900,140244.100,146725.300,-0.139,0.945,-0.249,-4.059,12.573,-6.500,73.333,323.000,1.000,0.011,0.000
190446.600,177363.900,571374.300,535550.300,158394.700,151708.400,140257.400,146739.300,-0.136,0.952,-0.243,-3.693,12.970,-6.042,73.333,324.000,1.000,2.556,0.000
190485.300,177392.900,571335.200,535522.400,158428.200,151732.200,140283.500,146768.500,-0.127,0.961,-0.239,-3.693,13.733,-5.310,73.333,325.000,1.000,4.908,0.000
190448.700,177366.600,571233.400,535441.900,158418.500,151720.200,140270.500,146755.000,-0.127,0.969,-0.245,-3.784,14.282,-4.517,73.333,326.000,1.000,2.529,0.000
190414.900,177351.500,571133.100,535358.200,158402.000,151710.100,140261.400,146738.200,-0.122,0.969,-0.250,-4.364,14.893,-4.028,73.333,327.000,1.000,2.541,0.000
190421.500,177357.400,571056.500,535297.800,158393.400,151711.200,140257.900,146732.000,-0.125,0.964,-0.255,-4.456,15.656,-3.479,73.333,328.000,1.000,3.768,0.000
190456.100,177370.200,570996.300,535263.900,158393.200,151701.200,140255.600,146741.300,-0.124,0.954,-0.264,-4.852,16.174,-3.113,73.333,329.000,1.000,16.252,0.000
190463.500,177362.300,570924.600,535219.400,158400.200,151703.100,140251.500,146745.200,-0.130,0.954,-0.273,-4.730,16.815,-2.686,73.333,330.000,1.000,28.633,0.000
190466.000,177375.600,570864.200,535176.300,158429.400,151721.700,140275.800,146770.100,-0.132,0.956,-0.279,-4.608,17.334,-2.533,73.333,331.000,1.000,0.012,0.000
190430.200,177353.300,570764.900,535091.100,158412.700,151711.600,140273.800,146750.900,-0.132,0.960,-0.284,-4.700,17.731,-2.441,73.333,332.000,1.000,0.004,0.000
190453.900,177379.300,570707.400,535044.400,158420.500,151736.300,140291.300,146757.200,-0.136,0.966,-0.284,-4.364,18.127,-2.350,73.333,333.000,1.000,3.092,0.000
190447.700,177356.100,570614.900,534968.400,158385.200,151702.000,140246.800,146726.500,-0.134,0.964,-0.292,-4.456,18.555,-2.167,73.333,334.000,1.000,0.004,0.000
190447.300,177340.400,570540.900,534901.700,158387.700,151690.400,140239.000,146721.000,-0.140,0.966,-0.297,-4.395,19.012,-1.831,73.333,335.000,1.000,3.178,0.000
190457.300,177359.100,570493.300,534859.500,158424.700,151724.900,140270.800,146755.400,-0.140,0.959,-0.295,-4.425,19.165,-1.801,73.333,336.000,1.000,0.004,0.000
190438.100,177355.200,570416.200,534783.800,158415.800,151718.600,140264.700,146752.700,-0.139,0.954,-0.300,-4.486,19.684,-1.801,73.333,337.000,1.000,0.003,0.000
190413.900,177327.500,570316.900,534689.300,158376.300,151685.700,140240.500,146712.200,-0.143,0.956,-0.291,-4.364,19.836,-1.740,73.333,338.000,1.000,3.148,0.000
190427.000,177325.000,570251.700,534641.300,158367.400,151672.600,140232.800,146710.200,-0.133,0.952,-0.290,-4.578,20.111,-2.045,73.333,339.000,1.000,0.012,0.000
190460.800,177350.500,570211.900,534625.900,158405.200,151698.300,140252.800,146743.800,-0.134,0.961,-0.286,-4.425,20.660,-1.892,73.333,340.000,1.000,1.887,0.000
190443.400,177346.700,570133.100,534550.300,158416.100,151705.500,140261.600,146745.900,-0.135,0.966,-0.281,-4.272,20.966,-2.106,73.333,341.000,1.000,2.525,0.000
190413.500,177333.500,570047.600,534474.800,158405.800,151707.400,140266.900,146735.600,-0.131,0.969,-0.288,-4.852,21.515,-2.319,73.333,342.000,1.000,2.461,0.000
190398.800,177319.600,569955.000,534393.600,158373.800,151677.100,140234.900,146701.600,-0.138,0.977,-0.281,-5.096,22.064,-2.228,73.333,343.000,1.000,2.458,0.000
190401.000,177303.000,569874.500,534325.800,158340.400,151641.300,140190.400,146680.100,-0.130,0.970,-0.280,-5.341,22.278,-2.625,73.333,344.000,1.000,3.743,0.000
190449.300,177335.900,569851.900,534309.800,158382.500,151678.900,140220.800,146723.500,-0.122,0.969,-0.279,-5.859,22.766,-2.594,73.333,345.000,1.000,4.406,0.000
190450.200,177344.600,569790.200,534267.700,158411.800,151694.700,140240.000,146744.400,-0.121,0.973,-0.269,-5.829,23.346,-2.563,73.333,346.000,1.000,0.009,0.000
190423.200,177334.000,569708.700,534186.700,158399.700,151684.000,140236.500,146731.900,-0.110,0.966,-0.265,-6.134,23.865,-2.747,73.333,347.000,1.000,15.615,0.000
190406.700,177315.900,569620.100,534108.800,158367.800,151664.300,140211.500,146708.500,-0.113,0.967,-0.268,-6.439,24.719,-2.289,73.333,348.000,1.000,3.109,0.000
190414.800,177304.500,569545.200,534048.300,158347.900,151641.500,140200.100,146698.000,-0.115,0.962,-0.269,-6.561,25.299,-2.014,73.333,349.000,1.000,0.008,0.000
190459.700,177347.100,569526.400,534030.100,158392.600,151689.900,140239.900,146738.000,-0.108,0.955,-0.277,-6.805,25.879,-1.801,73.333,350.000,1.000,4.431,0.000
190417.400,177318.500,569427.800,533941.400,158381.300,151677.300,140220.500,146705.600,-0.112,0.955,-0.271,-6.714,26.489,-1.160,73.333,351.000,1.000,2.429,0.000
190392.600,177314.100,569348.300,533868.400,158372.800,151674.300,140218.800,146695.500,-0.108,0.952,-0.268,-6.805,26.733,-0.916,73.333,352.000,1.000,2.578,0.000
190393.700,177311.300,569274.600,533809.700,158353.700,151659.100,140206.400,146684.500,-0.114,0.956,-0.267,-6.622,27.222,-0.427,73.333,353.000,1.000,2.435,0.000
190407.300,177308.300,569202.700,533759.500,158338.600,151647.300,140186.000,146673.800,-0.119,0.957,-0.264,-6.592,27.374,-0.214,73.333,354.000,1.000,6.302,0.000
190427.400,177320.200,569153.300,533728.100,158361.900,151663.200,140207.600,146699.800,-0.122,0.960,-0.266,-6.683,27.679,-0.153,73.333,355.000,1.000,4.334,0.000
190441.000,177340.500,569104.900,533698.600,158402.300,151693.000,140240.800,146731.400,-0.129,0.960,-0.264,-6.439,27.832,-0.122,73.333,356.000,1.000,0.010,0.000
190403.900,177320.900,569008.600,533613.800,158376.800,151670.800,140219.000,146711.800,-0.129,0.954,-0.265,-6.561,27.771,-0.122,73.333,357.000,1.000,7.434,0.000
190410.400,177321.000,568942.300,533557.400,158364.700,151664.700,140216.000,146707.900,-0.134,0.956,-0.262,-6.348,27.649,-0.061,73.333,358.000,1.000,0.017,0.000
190433.800,177322.800,568885.100,533514.800,158362.200,151662.000,140210.100,146713.200,-0.133,0.951,-0.263,-6.073,27.496,-0.214,73.333,359.000,1.000,8.185,0.000
190428.800,177313.100,568818.500,533453.100,158358.600,151658.100,140198.000,146705.600,-0.133,0.954,-0.265,-5.920,27.405,-0.458,73.333,360.000,1.000,9.335,0.000
190433.400,177332.300,568773.600,533414.500,158395.900,151688.200,140226.200,146729.700,-0.136,0.956,-0.262,-5.707,27.008,-0.427,73.333,361.000,1.000,0.013,0.000
190400.200,177315.300,568691.200,533329.900,158380.100,151672.900,140223.000,146725.400,-0.136,0.951,-0.264,-5.554,26.672,-0.549,73.333,362.000,1.000,11.261,0.000
190394.000,177309.300,568621.000,533259.200,158357.300,151658.200,140211.000,146711.300,-0.141,0.952,-0.266,-5.280,26.398,-0.397,73.333,363.000,1.000,0.010,0.000
190409.900,177311.800,568560.800,533212.700,158347.500,151652.000,140206.200,146704.600,-0.149,0.940,-0.265,-5.066,25.787,-0.549,73.333,364.000,1.000,2.390,0.000
190425.200,177315.800,568511.800,533174.900,158362.700,151664.000,140203.700,146718.600,-0.143,0.917,-0.264,-5.066,25.177,-0.946,73.333,365.000,1.000,0.006,0.000
190407.600,177305.900,568433.300,533115.900,158375.400,151666.100,140210.400,146721.900,-0.148,0.914,-0.267,-4.089,24.811,-1.007,73.333,366.000,1.000,1.928,0.000
190392.100,177307.500,568360.300,533057.900,158378.900,151666.800,140226.700,146727.400,-0.143,0.912,-0.272,-3.113,24.353,-1.556,73.333,367.000,1.000,11.341,0.000
190395.600,177304.300,568297.500,532997.400,158364.300,151660.900,140225.100,146715.600,-0.136,0.921,-0.272,-2.319,23.865,-1.801,73.333,368.000,1.000,3.044,0.000
190414.900,177305.600,568235.600,532954.100,158357.500,151650.300,140208.900,146716.800,-0.136,0.938,-0.272,-1.678,23.224,-1.740,73.333,369.000,1.000,0.009,0.000
190456.900,177340.600,568213.800,532938.100,158400.500,151688.700,140241.800,146756.300,-0.132,0.955,-0.273,-1.160,22.827,-1.923,73.333,370.000,1.000,1.881,0.000
190439.900,177337.600,568153.500,532876.400,158419.400,151699.900,140253.100,146759.900,-0.130,0.966,-0.271,-0.977,22.278,-1.862,73.333,371.000,1.000,3.721,0.000
190397.500,177311.000,568064.300,532789.100,158398.600,151688.600,140248.500,146739.000,-0.122,0.965,-0.269,-1.007,21.820,-1.801,73.333,372.000,1.000,8.865,0.000
190390.200,177303.300,567990.400,532711.900,158367.900,151660.900,140227.300,146719.000,-0.116,0.954,-0.267,-1.068,21.454,-1.587,73.333,373.000,1.000,3.030,0.000
190429.500,177325.400,567950.300,532684.100,158380.300,151674.400,140231.400,146732.300,-0.107,0.946,-0.271,-0.885,21.301,-1.526,73.333,374.000,1.000,0.007,0.000
190469.700,177357.200,567925.500,532670.500,158422.000,151719.500,140268.000,146768.300,-0.102,0.943,-0.272,-0.671,21.179,-1.312,73.333,375.000,1.000,4.348,0.000
190441.300,177337.000,567848.900,532603.300,158422.100,151707.500,140262.800,146760.900,-0.101,0.948,-0.268,-0.488,21.057,-1.129,73.333,376.000,1.000,3.862,0.000
190389.400,177296.600,567739.600,532505.800,158382.500,151659.400,140224.700,146724.800,-0.101,0.963,-0.262,-0.519,20.966,-1.068,73.333,377.000,1.000,8.709,0.000
190399.400,177307.300,567679.600,532458.400,158374.300,151661.200,140227.200,146726.100,-0.103,0.978,-0.265,-0.671,20.966,-0.916,73.333,378.000,1.000,3.001,0.000
190441.400,177335.000,567653.400,532442.600,158403.600,151704.800,140268.300,146751.500,-0.104,0.968,-0.261,-1.190,20.691,-0.854,73.333,379.000,1.000,0.013,0.000
190443.000,177331.600,567595.900,532389.800,158408.700,151709.000,140270.100,146754.300,-0.100,0.937,-0.262,-1.862,20.508,-0.793,73.333,380.000,1.000,1.971,0.000
190419.700,177318.600,567519.900,532328.400,158411.600,151705.900,140257.800,146751.800,-0.098,0.921,-0.270,-1.648,20.447,-0.793,73.333,381.000,1.000,13.674,0.000
190394.100,177305.000,567434.400,532260.500,158395.000,151686.500,140238.900,146731.400,-0.103,0.935,-0.274,-0.885,20.355,-1.038,73.333,382.000,1.000,3.212,0.000
190383.700,177289.700,567351.900,532186.700,158361.600,151657.600,140208.800,146702.000,-0.112,0.964,-0.274,-0.275,20.081,-1.312,73.333,383.000,1.000,0.008,0.000
190395.200,177282.500,567282.800,532143.000,158349.700,151640.600,140192.700,146693.300,-0.115,0.987,-0.269,-0.427,19.470,-1.495,73.333,384.000,1.000,1.853,0.000
190429.600,177301.700,567249.800,532131.900,158386.400,151662.000,140223.800,146723.700,-0.115,0.994,-0.264,-0.916,18.951,-1.862,73.333,385.000,1.000,2.520,0.000
190429.200,177314.900,567203.500,532084.600,158415.200,151685.300,140249.500,146750.500,-0.116,0.983,-0.260,-1.587,18.616,-2.075,73.333,386.000,1.000,17.387,0.000
190384.800,177282.600,567111.400,531993.300,158386.600,151665.000,140228.000,146728.600,-0.117,0.961,-0.265,-2.075,18.188,-2.258,73.333,387.000,1.000,0.017,0.000
190401.400,177295.800,567067.600,531953.100,158382.800,151673.800,140227.800,146732.400,-0.118,0.940,-0.276,-2.075,17.914,-2.411,73.333,388.000,1.000,0.007,0.000
190430.200,177307.500,567027.400,531919.400,158383.900,151673.000,140224.400,146738.000,-0.123,0.927,-0.280,-1.617,17.731,-2.777,73.333,389.000,1.000,2.543,0.000
190433.300,177301.500,566969.600,531873.600,158389.300,151667.000,140220.900,146741.600,-0.125,0.926,-0.278,-1.007,17.395,-3.143,73.333,390.000,1.000,2.473,0.000
190432.000,177312.900,566927.400,531830.100,158418.600,151690.100,140248.300,146764.600,-0.125,0.933,-0.282,-0.427,16.937,-3.510,73.333,391.000,1.000,2.500,0.000
190405.100,177302.800,566856.200,531748.300,158409.100,151687.300,140249.300,146751.000,-0.126,0.938,-0.277,-0.183,16.632,-3.693,73.333,392.000,1.000,2.512,0.000
190411.200,177309.400,566802.600,531693.900,158398.100,151688.600,140253.300,146742.700,-0.117,0.946,-0.279,-0.031,16.235,-3.876,73.333,393.000,1.000,8.744,0.000
190436.300,177324.800,566759.300,531661.400,158404.700,151707.600,140262.700,146754.700,-0.109,0.966,-0.277,0.244,16.327,-3.632,73.333,394.000,1.000,2.469,0.000
190432.800,177307.900,566690.600,531611.100,158405.400,151694.700,140252.800,146754.600,-0.099,0.985,-0.274,0.153,16.266,-3.540,73.333,395.000,1.000,4.465,0.000
190426.600,177309.300,566635.500,531566.600,158423.500,151701.500,140263.500,146768.200,-0.094,0.995,-0.269,-0.244,16.235,-3.204,73.333,396.000,1.000,0.016,0.000
190391.800,177291.600,566557.600,531480.200,158402.700,151685.200,140256.000,146739.900,-0.092,0.991,-0.267,-0.916,16.296,-2.716,73.333,397.000,1.000,8.028,0.000
190387.100,177287.200,566492.500,531411.500,158375.100,151670.100,140243.700,146726.000,-0.095,0.978,-0.268,-1.526,16.602,-1.984,73.333,398.000,1.000,2.501,0.000
190436.600,177322.800,566471.900,531396.800,158389.300,151687.400,140246.800,146738.900,-0.100,0.958,-0.271,-1.678,16.663,-1.434,73.333,399.000,1.000,3.801,0.000
190480.200,177357.000,566461.600,531403.000,158432.600,151727.200,140288.700,146790.100,-0.098,0.940,-0.278,-1.984,16.693,-1.007,73.333,400.000,1.000,9.323,0.000
190464.900,177348.900,566407.800,531358.600,158443.300,151726.500,140289.300,146800.900,-0.102,0.925,-0.276,-1.526,16.846,-0.275,73.333,401.000,1.000,0.018,0.000
190429.100,177331.000,566333.600,531275.000,158420.800,151709.600,140266.100,146767.300,-0.101,0.912,-0.273,-0.977,16.602,0.122,73.333,402.000,1.000,1.875,0.000
190377.300,177281.100,566227.000,531168.500,158350.400,151653.100,140205.600,146703.800,-0.103,0.912,-0.271,-0.488,16.754,0.305,73.333,403.000,1.000,8.760,0.000
190391.600,177280.300,566170.400,531126.900,158340.600,151638.800,140193.500,146702.800,-0.114,0.922,-0.267,0.214,16.724,0.641,73.333,404.000,1.000,3.127,0.000
190405.000,177287.700,566126.100,531100.800,158358.600,151652.000,140211.100,146723.700,-0.114,0.927,-0.259,0.488,16.479,0.702,73.333,405.000,1.000,0.011,0.000
190409.100,177312.600,566087.600,531070.300,158393.700,151689.300,140248.500,146753.200,-0.117,0.933,-0.260,0.671,16.205,0.854,73.333,406.000,1.000,11.815,0.000
190384.100,177310.200,566015.600,530998.200,158385.000,151688.700,140245.000,146747.800,-0.115,0.934,-0.260,0.946,15.808,0.763,73.333,407.000,1.000,3.190,0.000
190388.100,177314.100,565963.300,530932.000,158369.600,151680.900,140233.800,146740.600,-0.109,0.937,-0.262,0.763,15.503,0.702,73.333,408.000,1.000,0.007,0.000
190441.900,177343.300,565947.000,530923.100,158398.000,151707.500,140263.800,146766.300,-0.113,0.952,-0.263,0.977,15.289,0.854,73.333,409.000,1.000,1.825,0.000
190423.700,177315.400,565864.500,530858.600,158376.600,151682.700,140237.700,146745.600,-0.110,0.964,-0.261,0.885,15.045,0.580,73.333,410.000,1.000,2.534,0.000
190410.900,177313.100,565802.600,530815.900,158391.400,151699.200,140248.800,146758.800,-0.117,0.975,-0.260,0.671,14.862,0.397,73.333,411.000,1.000,8.746,0.000
190417.700,177335.300,565753.600,530786.100,158413.500,151723.400,140273.700,146773.500,-0.118,0.980,-0.259,0.183,14.313,0.244,73.333,412.000,1.000,3.020,0.000
190406.600,177323.500,565680.300,530720.400,158379.800,151689.900,140253.000,146745.600,-0.111,0.976,-0.260,-0.549,13.947,-0.122,73.333,413.000,1.000,0.012,0.000
190425.800,177325.200,565628.600,530681.800,158374.700,151680.300,140243.600,146742.800,-0.108,0.973,-0.260,-0.885,13.611,-0.183,73.333,414.000,1.000,1.942,0.000
190419.900,177303.500,565559.600,530632.300,158367.500,151667.000,140226.000,146732.900,-0.103,0.967,-0.265,-1.343,13.275,-0.458,73.333,415.000,1.000,11.269,0.000
190423.700,177308.000,565517.400,530596.000,158396.900,151698.800,140257.300,146755.600,-0.099,0.967,-0.267,-1.770,13.184,-0.580,73.333,416.000,1.000,3.091,0.000
190422.700,177323.800,565468.900,530543.800,158407.300,151712.300,140272.000,146763.300,-0.097,0.971,-0.266,-1.892,13.123,-0.458,73.333,417.000,1.000,0.015,0.000
190414.000,177312.500,565403.100,530468.800,158374.000,151685.900,140236.300,146731.700,-0.088,0.969,-0.266,-2.350,12.970,-0.549,73.333,418.000,1.000,1.871,0.000
190426.000,177302.200,565353.300,530417.000,158365.800,151675.900,140216.700,146726.600,-0.091,0.968,-0.268,-2.594,12.970,-0.275,73.333,419.000,1.000,10.025,0.000
190437.600,177304.600,565312.100,530376.900,158381.600,151677.100,140230.300,146728.300,-0.093,0.959,-0.269,-2.899,12.848,-0.122,73.333,420.000,1.000,2.440,0.000
190432.400,177313.600,565272.600,530339.700,158405.700,151693.600,140253.500,146752.800,-0.087,0.946,-0.270,-3.113,12.787,-0.214,73.333,421.000,1.000,2.570,0.000
190413.900,177318.400,565211.600,530283.600,158408.300,151700.700,140261.300,146748.700,-0.084,0.944,-0.269,-3.052,13.092,-0.031,73.333,422.000,1.000,6.254,0.000
190446.800,177349.700,565182.400,530272.600,158425.900,151725.300,140289.900,146782.200,-0.084,0.945,-0.272,-2.777,13.153,-0.061,73.333,423.000,1.000,4.371,0.000
190451.100,177347.800,565112.500,530223.900,158404.500,151711.100,140270.500,146764.100,-0.088,0.958,-0.274,-2.594,13.245,-0.122,73.333,424.000,1.000,0.007,0.000
190403.900,177290.300,564999.600,530137.600,158360.000,151665.900,140215.800,146721.100,-0.102,0.975,-0.273,-2.502,13.275,-0.153,73.333,425.000,1.000,5.590,0.000
190410.900,177308.000,564959.700,530112.900,158392.600,151685.900,140241.200,146747.600,-0.109,0.978,-0.274,-2.838,13.092,-0.458,73.333,426.000,1.000,8.751,0.000
190407.100,177324.800,564908.300,530067.000,158403.900,151695.600,140258.200,146753.000,-0.112,0.973,-0.279,-3.143,12.939,-0.793,73.333,427.000,1.000,3.039,0.000
190430.800,177346.700,564872.900,530039.800,158413.600,151724.300,140283.000,146767.500,-0.118,0.966,-0.275,-3.082,12.543,-1.099,73.333,428.000,1.000,0.006,0.000
190439.800,177347.600,564822.300,529989.300,158398.900,151715.400,140265.800,146759.000,-0.115,0.949,-0.274,-2.930,12.085,-1.709,73.333,429.000,1.000,1.869,0.000
190409.500,177312.200,564743.100,529912.100,158375.300,151675.700,140233.700,146737.500,-0.110,0.940,-0.275,-2.777,11.841,-1.923,73.333,430.000,1.000,12.572,0.000
190385.600,177296.400,564686.100,529849.800,158378.700,151676.600,140235.400,146739.600,-0.108,0.933,-0.267,-2.380,11.475,-2.014,73.333,431.000,1.000,3.096,0.000
190397.400,177331.000,564666.700,529814.500,158404.500,151705.100,140267.000,146765.400,-0.101,0.927,-0.263,-2.136,11.353,-2.075,73.333,432.000,1.000,0.008,0.000
190408.400,177348.900,564625.800,529768.800,158400.900,151705.900,140266.000,146771.200,-0.098,0.928,-0.262,-1.831,11.322,-1.923,73.333,433.000,1.000,1.837,0.000
190382.900,177298.000,564537.100,529686.400,158354.300,151669.000,140226.800,146727.500,-0.095,0.932,-0.264,-1.373,11.108,-1.831,73.333,434.000,1.000,7.576,0.000
190377.100,177283.700,564476.900,529634.700,158349.500,151658.300,140216.600,146717.000,-0.094,0.940,-0.262,-1.251,10.986,-1.770,73.333,435.000,1.000,5.010,0.000
190373.000,177299.800,564427.400,529600.000,158375.000,151679.500,140239.700,146738.000,-0.097,0.953,-0.265,-1.129,10.986,-1.404,73.333,436.000,1.000,2.462,0.000
190362.400,177307.100,564366.800,529555.400,158378.000,151680.800,140254.700,146747.100,-0.099,0.958,-0.269,-1.221,10.742,-1.190,73.333,437.000,1.000,3.808,0.000
190349.900,177297.000,564286.400,529498.900,158349.500,151659.500,140236.500,146722.000,-0.099,0.968,-0.270,-1.495,10.468,-1.282,73.333,438.000,1.000,11.823,0.000
190350.400,177277.300,564206.200,529456.000,158324.200,151629.900,140210.500,146691.800,-0.104,0.981,-0.270,-1.526,10.406,-1.221,73.333,439.000,1.000,0.009,0.000
190363.200,177274.000,564152.000,529429.600,158337.300,151631.700,140213.600,146706.700,-0.103,0.989,-0.270,-1.831,10.101,-1.495,73.333,440.000,1.000,1.834,0.000
190364.800,177288.800,564107.400,529401.800,158371.800,151666.800,140248.700,146733.300,-0.104,0.991,-0.269,-2.258,9.979,-1.709,73.333,441.000,1.000,2.532,0.000
190332.700,177273.200,564027.900,529327.100,158353.400,151650.200,140236.100,146708.400,-0.105,0.993,-0.268,-2.716,9.705,-1.678,73.333,442.000,1.000,2.472,0.000
190328.800,177275.800,563974.900,529267.300,158336.900,151640.000,140219.000,146691.200,-0.105,0.984,-0.265,-3.265,9.308,-1.770,73.333,443.000,1.000,3.811,0.000
190359.400,177290.500,563944.900,529228.400,158341.400,151640.600,140218.900,146695.200,-0.113,0.985,-0.267,-3.784,9.064,-1.923,73.333,444.000,1.000,6.807,0.000
190381.300,177302.400,563911.900,529189.800,158357.100,151648.900,140228.100,146712.300,-0.118,0.982,-0.263,-3.998,8.728,-2.014,73.333,445.000,1.000,0.007,0.000
190375.300,177310.000,563871.900,529146.600,158379.200,151666.500,140245.000,146728.800,-0.123,0.982,-0.260,-4.395,8.209,-2.197,73.333,446.000,1.000,8.151,0.000
190328.500,177281.400,563787.400,529059.200,158349.400,151646.200,140220.700,146694.100,-0.125,0.985,-0.255,-4.822,7.782,-2.289,73.333,447.000,1.000,3.025,0.000
190312.900,177264.400,563715.400,528993.700,158313.300,151612.300,140193.400,146676.300,-0.124,0.978,-0.253,-5.341,7.263,-2.533,73.333,448.000,1.000,0.010,0.000
190346.000,177281.700,563685.600,528976.300,158325.800,151628.400,140214.100,146696.700,-0.115,0.971,-0.255,-5.798,6.866,-2.747,73.333,449.000,1.000,5.685,0.000
190357.100,177282.700,563639.600,528948.100,158342.700,151635.000,140217.100,146705.100,-0.111,0.969,-0.255,-6.073,6.500,-2.747,73.333,450.000,1.000,3.827,0.000
190342.800,177284.800,563581.500,528908.300,158351.000,151639.500,140219.100,146716.400,-0.102,0.962,-0.257,-6.165,6.287,-2.930,73.333,451.000,1.000,3.709,0.000
190297.900,177255.900,563496.700,528833.600,158323.900,151615.800,140207.200,146688.300,-0.095,0.958,-0.261,-6.348,6.134,-2.747,73.333,452.000,1.000,9.383,0.000
190293.200,177244.700,563434.400,528781.600,158302.800,151605.600,140199.800,146674.400,-0.090,0.958,-0.260,-6.256,6.012,-2.411,73.333,453.000,1.000,0.025,0.000
190310.000,177244.300,563388.200,528739.300,158290.800,151591.700,140182.800,146669.700,-0.084,0.954,-0.255,-6.134,5.890,-2.197,73.333,454.000,1.000,1.753,0.000
190336.100,177262.800,563367.200,528717.600,158321.600,151617.200,140204.400,146693.700,-0.081,0.955,-0.255,-6.042,6.073,-1.709,73.333,455.000,1.000,11.346,0.000
190339.200,177282.300,563336.300,528684.600,158352.200,151647.700,140226.900,146714.800,-0.083,0.957,-0.255,-5.768,6.165,-1.190,73.333,456.000,1.000,3.139,0.000
190342.800,177303.600,563304.300,528643.000,158369.400,151670.400,140248.200,146731.600,-0.082,0.955,-0.250,-6.134,6.256,-1.007,73.333,457.000,1.000,0.012,0.000
190300.700,177257.600,563206.700,528546.600,158309.300,151616.700,140195.900,146676.800,-0.084,0.960,-0.252,-6.378,6.531,-0.549,73.333,458.000,1.000,1.771,0.000
190300.700,177236.700,563140.100,528491.900,158282.800,151582.900,140167.000,146658.700,-0.093,0.963,-0.247,-6.134,6.622,-0.305,73.333,459.000,1.000,7.514,0.000
190313.800,177241.300,563104.700,528457.300,158297.700,151593.700,140178.600,146670.500,-0.089,0.944,-0.246,-6.622,6.531,-0.519,73.333,460.000,1.000,2.548,0.000
190333.000,177270.500,563080.900,528444.700,158342.400,151639.000,140221.800,146711.600,-0.091,0.936,-0.247,-6.805,6.714,-0.336,73.333,461.000,1.000,6.249,0.000
190323.400,177274.600,563024.800,528400.100,158345.800,151648.200,140224.900,146710.300,-0.097,0.943,-0.254,-6.348,6.958,-0.397,73.333,462.000,1.000,4.966,0.000
190319.700,177267.000,562964.400,528344.100,158323.600,151630.000,140214.100,146696.700,-0.096,0.947,-0.251,-6.134,6.927,-0.519,73.333,463.000,1.000,3.091,0.000
190341.500,177270.300,562919.400,528320.600,158322.000,151630.500,140209.900,146704.000,-0.099,0.947,-0.251,-6.165,6.683,-0.519,73.333,464.000,1.000,0.007,0.000
190360.100,177281.900,562879.300,528305.500,158345.500,151650.600,140226.900,146720.800,-0.102,0.951,-0.247,-6.256,6.500,-0.610,73.333,465.000,1.000,1.892,0.000
190324.300,177260.200,562802.200,528235.100,158338.300,151643.600,140223.500,146703.800,-0.106,0.962,-0.246,-5.951,6.439,-0.824,73.333,466.000,1.000,8.663,0.000
190315.300,177268.200,562745.300,528192.600,158340.600,151648.800,140229.200,146710.200,-0.108,0.973,-0.247,-6.012,6.012,-1.007,73.333,467.000,1.000,2.595,0.000
190364.900,177315.600,562727.000,528186.100,158362.300,151676.700,140252.000,146732.300,-0.110,0.973,-0.251,-6.439,5.768,-1.251,73.333,468.000,1.000,3.711,0.000
190360.300,177292.300,562658.400,528130.500,158333.400,151655.400,140220.200,146706.500,-0.108,0.958,-0.251,-6.683,5.585,-1.678,73.333,469.000,1.000,6.856,0.000
190355.100,177277.300,562603.100,528084.200,158329.600,151646.100,140203.200,146710.200,-0.105,0.944,-0.252,-6.622,5.341,-1.892,73.333,470.000,1.000,0.008,0.000
190358.100,177291.500,562572.300,528045.100,158361.100,151670.700,140233.600,146729.700,-0.103,0.950,-0.248,-6.287,5.188,-1.892,73.333,471.000,1.000,8.187,0.000
190330.500,177284.900,562507.300,527968.700,158349.100,151655.400,140233.300,146710.300,-0.108,0.974,-0.242,-5.890,5.005,-2.136,73.333,472.000,1.000,3.030,0.000
190329.200,177283.900,562455.800,527917.600,158337.300,151651.900,140224.900,146699.000,-0.108,0.996,-0.237,-5.920,4.822,-2.258,73.333,473.000,1.000,0.007,0.000
190350.900,177281.100,562409.300,527892.400,158335.100,151648.500,140213.800,146698.300,-0.106,1.007,-0.234,-6.287,4.547,-2.289,73.333,474.000,1.000,1.928,0.000
190330.200,177254.300,562336.100,527836.100,158318.100,151626.500,140187.600,146681.600,-0.103,1.001,-0.232,-6.958,4.364,-2.258,73.333,475.000,1.000,6.212,0.000
190318.900,177254.800,562285.900,527788.900,158331.600,151638.100,140201.100,146691.400,-0.096,0.984,-0.234,-7.355,4.333,-2.106,73.333,476.000,1.000,14.375,0.000
190326.700,177276.200,562253.800,527755.200,158351.800,151667.200,140229.500,146716.200,-0.089,0.964,-0.231,-7.660,4.395,-1.617,73.333,477.000,1.000,0.011,0.000
190322.900,177267.300,562190.800,527695.500,158324.800,151642.600,140209.300,146690.100,-0.086,0.948,-0.238,-7.477,4.517,-1.038,73.333,478.000,1.000,4.924,0.000
190354.000,177284.500,562153.400,527677.900,158331.600,151646.600,140216.100,146702.000,-0.083,0.943,-0.238,-7.080,4.730,-0.732,73.333,479.000,1.000,0.010,0.000
190379.900,177302.800,562124.900,527661.400,158360.100,151674.000,140232.400,146722.500,-0.083,0.949,-0.237,-6.439,4.883,-0.366,73.333,480.000,1.000,1.928,0.000
190327.000,177263.300,562039.200,527575.600,158337.400,151656.000,140199.000,146693.700,-0.087,0.958,-0.236,-6.165,4.913,-0.031,73.333,481.000,1.000,2.570,0.000
190315.400,177269.800,561994.300,527532.900,158347.600,151664.000,140219.200,146710.200,-0.091,0.962,-0.236,-6.073,5.035,0.275,73.333,482.000,1.000,3.703,0.000
190308.000,177262.800,561936.100,527481.200,158328.700,151656.600,140206.300,146701.300,-0.092,0.958,-0.232,-5.798,4.883,0.458,73.333,483.000,1.000,15.630,0.000
190339.500,177281.000,561905.600,527453.800,158333.400,151660.000,140206.700,146704.200,-0.092,0.955,-0.230,-5.768,4.852,0.488,73.333,484.000,1.000,0.018,0.000
190356.900,177292.100,561870.400,527427.300,158350.400,151663.700,140214.700,146715.300,-0.094,0.955,-0.232,-5.554,4.913,0.488,73.333,485.000,1.000,4.370,0.000
190358.000,177299.900,561836.100,527392.800,158383.000,151702.300,140254.200,146747.800,-0.093,0.956,-0.239,-5.249,4.974,0.336,73.333,486.000,1.000,2.535,0.000
190311.800,177262.700,561747.800,527311.800,158347.300,151675.400,140227.300,146706.500,-0.094,0.954,-0.235,-5.127,4.822,0.183,73.333,487.000,1.000,2.435,0.000
190310.300,177258.600,561691.300,527266.400,158325.700,151653.900,140208.300,146695.900,-0.097,0.951,-0.239,-4.913,4.578,0.122,73.333,488.000,1.000,2.528,0.000
190339.100,177273.800,561653.300,527239.900,158329.100,151659.200,140209.500,146701.800,-0.102,0.949,-0.242,-4.730,4.395,-0.061,73.333,489.000,1.000,3.710,0.000
190362.000,177284.000,561622.800,527224.800,158355.100,151671.700,140225.500,146721.200,-0.105,0.946,-0.245,-4.639,4.181,-0.397,73.333,490.000,1.000,11.971,0.000
190345.300,177275.500,561566.100,527177.800,158361.800,151666.100,140224.500,146721.900,-0.104,0.944,-0.249,-4.364,3.998,-0.916,73.333,491.000,1.000,0.014,0.000
190306.200,177253.700,561486.400,527102.300,158335.500,151646.600,140203.200,146695.200,-0.100,0.946,-0.252,-3.998,3.784,-1.526,73.333,492.000,1.000,24.977,0.000
190286.300,177230.500,561414.800,527034.300,158301.200,151616.000,140172.000,146662.600,-0.098,0.952,-0.252,-3.693,3.632,-1.892,73.333,493.000,1.000,0.024,0.000
190318.800,177245.900,561388.600,527018.200,158315.100,151629.300,140185.200,146682.900,-0.095,0.962,-0.249,-3.510,3.479,-2.045,73.333,494.000,1.000,2.428,0.000
190375.500,177298.600,561395.900,527028.700,158372.900,151684.600,140231.800,146733.500,-0.094,0.969,-0.243,-3.448,3.235,-2.106,73.333,495.000,1.000,0.014,0.000
190388.400,177316.500,561376.400,527000.500,158410.400,151717.800,140263.100,146757.900,-0.098,0.974,-0.238,-3.693,2.930,-2.289,73.333,496.000,1.000,3.022,0.000
190325.100,177268.800,561283.100,526892.400,158365.600,151669.900,140230.300,146720.100,-0.102,0.981,-0.246,-4.242,2.808,-2.625,73.333,497.000,1.000,0.011,0.000
190320.300,177263.300,561226.600,526833.100,158344.500,151657.900,140210.300,146708.800,-0.112,1.000,-0.251,-4.639,2.716,-2.502,73.333,498.000,1.000,0.006,0.000
190343.700,177262.900,561185.900,526810.900,158339.000,151654.500,140199.600,146704.300,-0.113,1.008,-0.244,-5.005,2.197,-2.777,73.333,499.000,1.000,3.136,0.000
190341.100,177247.300,561122.900,526776.900,158331.500,151630.800,140185.000,146691.500,-0.105,0.991,-0.232,-5.981,1.648,-2.869,73.333,500.000,1.000,0.008,0.000
190340.100,177259.500,561082.300,526753.700,158354.300,151653.100,140209.300,146708.900,-0.099,0.963,-0.227,-6.470,1.343,-2.747,73.333,501.000,1.000,1.901,0.000
190329.700,177265.300,561038.600,526706.300,158356.400,151666.900,140225.000,146711.800,-0.097,0.942,-0.231,-6.714,1.434,-2.899,73.333,502.000,1.000,3.747,0.000
190331.600,177265.000,560992.100,526662.100,158344.100,151662.200,140214.500,146705.900,-0.106,0.943,-0.234,-6.226,1.495,-2.563,73.333,503.000,1.000,9.331,0.000
190351.600,177261.800,560949.100,526630.800,158333.000,151642.100,140190.900,146688.500,-0.109,0.942,-0.241,-6.195,1.160,-2.502,73.333,504.000,1.000,0.013,0.000
190350.000,177248.400,560895.400,526588.800,158332.500,151633.500,140186.600,146687.600,-0.112,0.945,-0.245,-6.073,0.732,-2.411,73.333,505.000,1.000,6.298,0.000
190350.300,177257.700,560857.900,526551.600,158354.400,151650.700,140201.400,146709.300,-0.114,0.949,-0.242,-5.554,0.366,-2.625,73.333,506.000,1.000,0.008,0.000
190344.600,177272.600,560822.400,526500.100,158362.300,151665.500,140223.100,146720.200,-0.106,0.950,-0.240,-5.310,0.092,-2.869,73.333,507.000,1.000,13.702,0.000
190372.000,177300.600,560804.100,526474.300,158376.300,151687.100,140233.400,146729.200,-0.104,0.955,-0.239,-5.096,0.000,-2.716,73.333,508.000,1.000,0.013,0.000
190362.400,177262.300,560732.700,526417.700,158336.800,151637.300,140190.700,146687.100,-0.100,0.952,-0.239,-4.822,-0.214,-2.594,73.333,509.000,1.000,2.468,0.000
190363.000,177252.600,560687.000,526384.500,158341.200,151633.300,140196.500,146695.000,-0.100,0.947,-0.243,-4.639,-0.183,-2.472,73.333,510.000,1.000,0.006,0.000
190399.700,177300.000,560686.600,526392.200,158404.000,151686.200,140248.600,146747.600,-0.106,0.952,-0.244,-4.272,-0.214,-2.228,73.333,511.000,1.000,9.393,0.000
190365.400,177280.500,560617.600,526318.600,158375.100,151661.300,140225.300,146718.000,-0.105,0.952,-0.248,-3.967,-0.366,-2.258,73.333,512.000,1.000,3.048,0.000
190351.600,177265.700,560552.600,526254.900,158343.400,151642.600,140196.500,146694.500,-0.110,0.958,-0.249,-3.601,-0.458,-2.075,73.333,513.000,1.000,0.008,0.000
190376.400,177272.500,560513.300,526233.600,158341.300,151642.200,140193.100,146694.000,-0.112,0.963,-0.250,-3.265,-0.824,-2.045,73.333,514.000,1.000,1.964,0.000
190373.900,177260.900,560460.800,526193.000,158339.000,151641.300,140190.500,146694.100,-0.112,0.965,-0.246,-3.174,-0.854,-2.045,73.333,515.000,1.000,8.855,0.000
190361.300,177260.700,560409.500,526154.600,158351.800,151649.300,140205.300,146702.000,-0.113,0.969,-0.239,-3.265,-1.068,-1.740,73.333,516.000,1.000,2.933,0.000
190368.100,177282.100,560383.600,526125.100,158368.700,151671.100,140232.300,146720.400,-0.110,0.967,-0.236,-3.448,-1.312,-1.495,73.333,517.000,1.000,0.010,0.000
190369.900,177283.700,560339.800,526069.300,158352.200,151653.800,140220.000,146705.800,-0.107,0.969,-0.240,-3.448,-1.404,-1.221,73.333,518.000,1.000,2.057,0.000
190388.400,177279.700,560302.600,526040.100,158347.500,151650.200,140210.300,146710.000,-0.107,0.968,-0.236,-3.479,-1.556,-0.793,73.333,519.000,1.000,8.660,0.000
190411.800,177294.300,560284.700,526023.000,158376.200,151674.000,140231.900,146738.100,-0.105,0.962,-0.240,-3.601,-1.587,-0.488,73.333,520.000,1.000,3.708,0.000
190389.900,177287.900,560229.200,525964.300,158382.300,151675.200,140234.100,146735.900,-0.107,0.964,-0.240,-3.540,-1.709,-0.214,73.333,521.000,1.000,9.366,0.000
190368.300,177287.300,560173.800,525910.000,158373.800,151676.000,140231.600,146731.300,-0.107,0.965,-0.241,-3.571,-1.892,-0.092,73.333,522.000,1.000,0.017,0.000
190374.600,177288.000,560128.100,525874.200,158359.500,151676.200,140225.100,146721.200,-0.106,0.968,-0.244,-3.754,-2.014,0.000,73.333,523.000,1.000,1.875,0.000
190417.900,177315.000,560105.600,525875.900,158376.100,151684.200,140242.700,146739.800,-0.109,0.973,-0.241,-3.754,-2.167,0.183,73.333,524.000,1.000,2.527,0.000
190418.000,177304.800,560054.800,525845.000,158379.800,151683.900,140242.900,146745.000,-0.107,0.978,-0.241,-4.028,-2.411,0.153,73.333,525.000,1.000,8.709,0.000
190386.500,177284.400,559987.500,525787.400,158377.700,151678.900,140237.000,146734.700,-0.101,0.982,-0.245,-4.364,-2.563,0.092,73.333,526.000,1.000,3.103,0.000
190381.400,177294.500,559942.900,525751.300,158381.400,151681.900,140229.400,146730.900,-0.101,0.984,-0.243,-4.517,-2.563,0.122,73.333,527.000,1.000,0.006,0.000
190368.100,177280.000,559880.000,525687.200,158348.100,151656.700,140201.500,146701.900,-0.099,0.983,-0.247,-5.035,-2.716,0.183,73.333,528.000,1.000,1.930,0.000
190375.500,177265.500,559831.400,525642.300,158333.600,151633.400,140186.000,146694.300,-0.101,0.985,-0.246,-5.371,-2.686,0.183,73.333,529.000,1.000,13.812,0.000
190417.300,177300.400,559828.600,525639.400,158379.800,151681.100,140233.300,146739.500,-0.102,0.991,-0.249,-5.676,-2.655,0.244,73.333,530.000,1.000,2.420,0.000
190399.400,177299.600,559781.400,525591.100,158391.100,151695.000,140252.100,146747.100,-0.102,0.995,-0.247,-6.165,-2.838,0.153,73.333,531.000,1.000,3.070,0.000
190358.200,177276.100,559703.300,525516.900,158360.600,151662.700,140223.900,146713.500,-0.108,0.999,-0.246,-6.653,-2.930,0.275,73.333,532.000,1.000,0.010,0.000
190363.500,177278.000,559656.900,525474.000,158344.600,151656.800,140215.800,146698.600,-0.114,1.000,-0.246,-7.111,-3.113,0.244,73.333,533.000,1.000,1.932,0.000
190372.600,177270.100,559611.200,525440.800,158338.100,151654.500,140213.500,146703.400,-0.114,0.997,-0.245,-7.568,-3.326,0.336,73.333,534.000,1.000,11.243,0.000
190373.500,177264.900,559565.300,525403.600,158344.700,151647.500,140193.100,146698.300,-0.118,0.992,-0.238,-8.179,-3.662,0.458,73.333,535.000,1.000,3.125,0.000
190361.300,177266.000,559518.200,525364.900,158355.100,151644.200,140186.100,146698.300,-0.117,0.986,-0.231,-8.545,-3.937,0.641,73.333,536.000,1.000,0.014,0.000
190351.600,177270.600,559476.400,525323.600,158356.000,151647.500,140192.200,146708.200,-0.112,0.971,-0.229,-8.820,-4.120,0.732,73.333,537.000,1.000,6.932,0.000
190347.800,177260.300,559426.000,525277.000,158331.600,151623.900,140175.000,146694.500,-0.110,0.962,-0.229,-8.911,-4.242,0.916,73.333,538.000,1.000,6.764,0.000
190364.800,177258.600,559386.300,525246.300,158319.700,151612.300,140165.800,146681.000,-0.109,0.955,-0.228,-8.667,-4.272,1.129,73.333,539.000,1.000,0.010,0.000
190393.400,177280.000,559373.100,525239.600,158352.500,151641.200,140192.200,146712.100,-0.106,0.951,-0.224,-8.484,-4.395,1.129,73.333,540.000,1.000,1.807,0.000
190407.800,177307.500,559356.200,525225.500,158390.200,151679.100,140227.100,146746.600,-0.107,0.948,-0.227,-8.087,-4.639,1.465,73.333,541.000,1.000,3.754,0.000
190370.000,177285.000,559282.300,525153.600,158361.200,151657.800,140204.900,146725.300,-0.105,0.948,-0.226,-7.507,-4.700,1.740,73.333,542.000,1.000,8.858,0.000
190377.100,177286.400,559247.400,525115.200,158350.800,151656.100,140203.200,146712.900,-0.100,0.938,-0.226,-7.141,-4.700,1.801,73.333,543.000,1.000,3.037,0.000
190383.000,177277.300,559204.000,525066.600,158339.200,151651.300,140190.300,146695.800,-0.095,0.932,-0.225,-6.683,-4.639,2.289,73.333,544.000,1.000,0.008,0.000
190386.900,177280.300,559170.100,525027.100,158349.200,151658.000,140191.700,146703.700,-0.090,0.926,-0.224,-5.737,-4.547,2.502,73.333,545.000,1.000,4.336,0.000
190363.000,177270.700,559125.600,524976.200,158355.800,151664.200,140201.200,146709.500,-0.086,0.918,-0.229,-4.974,-4.303,2.716,73.333,546.000,1.000,6.273,0.000
190354.300,177277.000,559080.800,524937.200,158359.100,151670.700,140213.000,146713.300,-0.085,0.926,-0.232,-4.242,-4.059,2.930,73.333,547.000,1.000,2.527,0.000
190377.300,177297.000,559049.600,524915.000,158359.500,151681.100,140220.800,146721.400,-0.085,0.939,-0.232,-3.235,-3.845,3.021,73.333,548.000,1.000,3.723,0.000
190393.800,177292.500,559008.900,524891.300,158352.100,151672.500,140208.100,146714.600,-0.081,0.949,-0.234,-2.625,-3.510,2.960,73.333,549.000,1.000,3.807,0.000
190392.400,177282.700,558953.100,524853.500,158356.000,151666.300,140202.000,146710.300,-0.080,0.956,-0.229,-2.228,-3.113,3.235,73.333,550.000,1.000,14.349,0.000
190396.800,177298.200,558922.600,524835.800,158386.500,151700.000,140228.900,146739.400,-0.080,0.955,-0.229,-1.740,-2.869,3.265,73.333,551.000,1.000,0.014,0.000
190370.700,177285.000,558863.600,524779.100,158371.600,151687.700,140222.000,146728.500,-0.076,0.944,-0.232,-1.495,-2.563,3.021,73.333,552.000,1.000,1.816,0.000
190369.300,177280.600,558815.000,524735.800,158353.900,151671.200,140210.500,146717.000,-0.075,0.938,-0.230,-0.854,-2.228,2.930,73.333,553.000,1.000,2.500,0.000
190386.900,177278.300,558783.000,524702.300,158349.600,151656.800,140195.900,146715.700,-0.078,0.944,-0.228,-0.305,-2.075,2.655,73.333,554.000,1.000,2.607,0.000
190392.300,177276.500,558748.300,524660.100,158358.800,151654.100,140197.300,146719.000,-0.084,0.960,-0.227,0.214,-1.862,2.441,73.333,555.000,1.000,8.674,0.000
190378.600,177272.500,558702.800,524616.800,158369.400,151662.000,140205.900,146727.800,-0.090,0.979,-0.231,0.183,-1.770,2.258,73.333,556.000,1.000,3.099,0.000
190377.100,177283.400,558671.000,524583.800,158378.800,151679.800,140222.900,146733.200,-0.094,0.992,-0.229,-0.153,-1.831,2.014,73.333,557.000,1.000,0.005,0.000
190407.900,177310.300,558653.600,524565.300,158390.500,151695.800,140240.000,146749.800,-0.092,0.997,-0.230,-0.580,-1.953,1.465,73.333,558.000,1.000,1.889,0.000
190418.600,177305.000,558606.600,524532.800,158377.700,151680.400,140221.500,146737.800,-0.090,0.991,-0.236,-1.007,-1.984,1.129,73.333,559.000,1.000,13.795,0.000
190400.900,177278.000,558543.100,524479.900,158366.700,151658.700,140203.600,146716.400,-0.087,0.980,-0.239,-1.526,-2.014,0.702,73.333,560.000,1.000,3.111,0.000
190392.800,177281.300,558499.600,524448.900,158383.100,151670.000,140222.600,146734.800,-0.085,0.969,-0.241,-1.770,-1.953,0.458,73.333,561.000,1.000,0.018,0.000
190356.900,177258.200,558428.900,524389.500,158358.500,151658.700,140207.000,146717.800,-0.084,0.962,-0.246,-1.862,-1.862,0.061,73.333,562.000,1.000,1.835,0.000
190368.100,177268.100,558389.700,524360.800,158349.400,151651.700,140203.900,146709.500,-0.079,0.959,-0.248,-1.862,-1.831,-0.244,73.333,563.000,1.000,2.490,0.000
190402.500,177286.500,558373.300,524353.100,158363.500,151662.500,140214.100,146719.000,-0.078,0.961,-0.249,-1.831,-1.678,-0.610,73.333,564.000,1.000,9.322,0.000
190401.300,177280.300,558331.800,524314.400,158369.200,151658.400,140206.000,146719.000,-0.080,0.971,-0.253,-1.831,-1.587,-0.824,73.333,565.000,1.000,0.010,0.000
190404.200,177296.600,558308.400,524284.900,158401.100,151693.600,140240.200,146742.400,-0.083,0.979,-0.255,-2.106,-1.373,-1.068,73.333,566.000,1.000,1.863,0.000
190367.900,177279.600,558244.500,524215.100,158377.000,151674.800,140222.300,146725.400,-0.086,0.983,-0.254,-2.411,-1.373,-1.312,73.333,567.000,1.000,6.265,0.000
190390.300,177300.200,558224.100,524189.000,158385.700,151694.000,140235.800,146735.700,-0.087,0.984,-0.251,-3.021,-1.404,-1.404,73.333,568.000,1.000,4.457,0.000
190388.000,177282.100,558171.400,524134.900,158366.900,151672.600,140215.500,146717.100,-0.090,0.984,-0.253,-3.448,-1.404,-1.495,73.333,569.000,1.000,0.011,0.000
190393.000,177277.100,558136.400,524100.500,158384.100,151686.800,140235.900,146731.000,-0.094,0.986,-0.252,-3.937,-1.465,-1.648,73.333,570.000,1.000,1.790,0.000
190394.200,177294.000,558109.900,524081.000,158415.400,151722.200,140277.800,146756.700,-0.096,0.987,-0.253,-4.578,-1.526,-1.740,73.333,571.000,1.000,13.709,0.000
190387.700,177299.300,558066.300,524043.000,158410.100,151702.500,140265.300,146755.200,-0.099,0.985,-0.252,-5.188,-1.526,-1.892,73.333,572.000,1.000,2.592,0.000
190379.600,177285.200,558007.800,523990.400,158374.900,151655.800,140227.000,146731.300,-0.100,0.978,-0.251,-5.676,-1.678,-2.106,73.333,573.000,1.000,4.343,0.000
190377.100,177259.100,557951.800,523954.100,158349.700,151639.900,140203.600,146714.100,-0.096,0.971,-0.251,-6.042,-1.709,-2.350,73.333,574.000,1.000,0.012,0.000
190418.000,177294.000,557949.000,523964.800,158395.900,151693.400,140257.100,146747.500,-0.096,0.971,-0.249,-6.317,-1.556,-2.533,73.333,575.000,1.000,16.203,0.000
190388.100,177280.000,557890.000,523914.300,158393.900,151689.500,140262.600,146745.000,-0.099,0.979,-0.247,-6.683,-1.495,-2.411,73.333,576.000,1.000,0.014,0.000
190346.900,177252.300,557814.800,523842.500,158359.900,151637.900,140197.200,146707.300,-0.104,0.990,-0.243,-7.324,-1.526,-2.411,73.333,577.000,1.000,2.460,0.000
190364.800,177266.800,557786.400,523814.800,158360.500,151644.100,140197.600,146714.900,-0.106,0.994,-0.243,-8.057,-1.587,-2.502,73.333,578.000,1.000,0.012,0.000
190361.600,177242.000,557728.000,523764.300,158332.100,151615.600,140170.200,146690.200,-0.104,0.991,-0.240,-8.759,-1.678,-2.899,73.333,579.000,1.000,2.441,0.000
190349.700,177220.800,557673.300,523715.400,158322.300,151597.900,140155.400,146678.400,-0.103,0.984,-0.236,-9.430,-1.587,-2.991,73.333,580.000,1.000,0.005,0.000
190369.500,177259.500,557667.900,523703.000,158367.400,151650.600,140205.300,146719.200,-0.101,0.980,-0.242,-9.796,-1.495,-2.899,73.333,581.000,1.000,5.773,0.000
190362.600,177267.600,557632.100,523659.400,158367.800,151657.300,140214.600,146718.800,-0.102,0.980,-0.242,-9.979,-1.495,-2.625,73.333,582.000,1.000,8.675,0.000
190357.700,177248.900,557581.800,523619.500,158341.100,151637.000,140192.500,146697.700,-0.101,0.976,-0.243,-10.040,-1.465,-2.136,73.333,583.000,1.000,9.392,0.000
190403.300,177277.500,557571.000,523616.200,158360.200,151650.200,140204.700,146721.200,-0.100,0.973,-0.233,-10.010,-1.312,-1.770,73.333,584.000,1.000,0.013,0.000
190436.000,177303.500,557562.400,523618.800,158399.300,151680.900,140236.600,146763.100,-0.099,0.965,-0.228,-9.827,-1.129,-1.373,73.333,585.000,1.000,2.444,0.000
190385.700,177263.500,557486.000,523549.100,158379.800,151668.300,140215.500,146724.000,-0.096,0.957,-0.233,-9.552,-0.885,-1.160,73.333,586.000,1.000,0.010,0.000
190380.400,177275.200,557448.300,523507.300,158386.300,151681.100,140230.500,146720.000,-0.097,0.954,-0.232,-8.698,-0.549,-1.312,73.333,587.000,1.000,10.668,0.000
190393.200,177285.600,557416.100,523476.900,158381.600,151682.300,140229.800,146726.500,-0.099,0.958,-0.234,-8.301,-0.305,-1.251,73.333,588.000,1.000,18.661,0.000
190419.100,177286.100,557387.100,523455.000,158382.200,151677.400,140219.000,146721.400,-0.105,0.967,-0.233,-8.057,0.031,-0.824,73.333,589.000,1.000,0.017,0.000
190419.800,177280.300,557347.100,523409.700,158388.600,151675.000,140218.600,146718.900,-0.109,0.972,-0.230,-7.782,0.000,-0.580,73.333,590.000,1.000,0.003,0.000
190377.800,177256.000,557286.100,523340.700,158377.900,151655.600,140208.600,146706.000,-0.110,0.980,-0.224,-7.721,0.031,-0.214,73.333,591.000,1.000,11.220,0.000
190345.300,177240.300,557227.100,523277.700,158361.500,151647.500,140202.300,146688.200,-0.114,0.988,-0.215,-7.660,0.214,-0.153,73.333,592.000,1.000,0.031,0.000
190383.600,177283.700,557220.900,523276.900,158383.800,151672.000,140229.200,146718.600,-0.111,0.986,-0.214,-7.782,0.275,-0.031,73.333,593.000,1.000,0.003,0.000
190394.200,177279.200,557176.600,523246.200,158371.800,151656.500,140208.800,146701.100,-0.114,0.982,-0.211,-7.843,0.366,0.366,73.333,594.000,1.000,2.556,0.000
190363.700,177242.200,557108.600,523185.900,158346.700,151623.300,140183.100,146673.100,-0.114,0.963,-0.211,-7.874,0.305,0.916,73.333,595.000,1.000,2.530,0.000
190373.600,177269.600,557099.400,523173.400,158384.300,151656.100,140220.200,146712.500,-0.108,0.923,-0.218,-7.874,-0.031,1.190,73.333,596.000,1.000,2.438,0.000
190369.000,177281.500,557065.700,523139.200,158384.600,151662.000,140226.900,146710.100,-0.100,0.879,-0.229,-7.263,0.031,1.495,73.333,597.000,1.000,2.560,0.000
190359.200,177266.300,557009.200,523089.100,158356.300,151647.700,140211.000,146690.900,-0.093,0.861,-0.238,-5.951,0.458,1.709,73.333,598.000,1.000,2.434,0.000
190357.300,177244.700,556955.900,523045.900,158335.700,151627.100,140189.700,146674.300,-0.086,0.875,-0.249,-3.937,0.702,1.648,73.333,599.000,1.000,2.528,0.000
190373.000,177257.800,556927.100,523030.400,158354.300,151638.100,140199.000,146694.200,-0.084,0.910,-0.247,-2.136,0.824,1.434,73.333,600.000,1.000,4.411,0.000
190369.500,177270.000,556889.300,523004.500,158379.500,151663.800,140219.800,146716.000,-0.077,0.937,-0.237,-1.221,0.732,1.465,73.333,601.000,1.000,0.012,0.000
190330.900,177249.800,556821.100,522940.600,158357.400,151637.500,140205.200,146693.000,-0.072,0.951,-0.229,-0.977,0.793,1.526,73.333,602.000,1.000,13.650,0.000
190316.300,177234.700,556766.700,522879.200,158325.000,151612.700,140181.900,146665.500,-0.069,0.959,-0.230,-0.854,1.038,1.465,73.333,603.000,1.000,0.012,0.000
190354.600,177257.700,556754.900,522870.200,158341.400,151631.400,140193.300,146684.700,-0.071,0.962,-0.233,-0.885,1.404,1.373,73.333,604.000,1.000,2.485,0.000
190358.900,177250.600,556708.900,522835.400,158350.100,151638.700,140187.900,146679.700,-0.071,0.963,-0.237,-1.160,1.587,1.129,73.333,605.000,1.000,0.004,0.000
190373.300,177272.400,556681.800,522819.900,158387.700,151664.700,140223.100,146712.000,-0.071,0.966,-0.246,-1.190,1.617,0.732,73.333,606.000,1.000,10.622,0.000
190342.900,177252.100,556609.900,522767.600,158365.500,151650.100,140213.800,146695.200,-0.070,0.969,-0.249,-1.221,1.648,0.031,73.333,607.000,1.000,3.224,0.000
190347.500,177256.300,556563.800,522737.000,158350.100,151641.900,140201.700,146683.700,-0.072,0.973,-0.251,-1.312,1.678,-0.519,73.333,608.000,1.000,0.007,0.000
190362.600,177255.300,556522.300,522711.500,158346.600,151634.500,140193.700,146682.400,-0.073,0.979,-0.251,-1.648,1.770,-1.038,73.333,609.000,1.000,1.802,0.000
190373.200,177258.600,556488.100,522694.800,158367.300,151650.600,140212.300,146700.900,-0.079,0.984,-0.257,-1.831,1.740,-1.648,73.333,610.000,1.000,9.278,0.000
190342.200,177240.700,556432.600,522648.900,158372.400,151647.100,140216.100,146702.900,-0.082,0.989,-0.255,-2.228,1.648,-2.228,73.333,611.000,1.000,0.011,0.000
190329.600,177237.500,556387.300,522604.300,158373.700,151648.800,140217.300,146700.600,-0.088,0.992,-0.257,-2.747,1.404,-2.777,73.333,612.000,1.000,1.931,0.000
190335.000,177242.500,556348.800,522556.600,158362.900,151651.000,140214.100,146694.600,-0.094,0.991,-0.255,-3.265,1.068,-3.326,73.333,613.000,1.000,8.815,0.000
190362.900,177254.100,556331.400,522539.100,158372.900,151652.800,140213.700,146705.900,-0.098,0.991,-0.260,-3.754,0.763,-4.059,73.333,614.000,1.000,4.273,0.000
190354.500,177237.900,556282.600,522491.300,158370.300,151639.000,140203.700,146690.300,-0.102,0.992,-0.260,-4.059,0.397,-4.761,73.333,615.000,1.000,0.014,0.000
190331.400,177226.900,556229.600,522441.000,158366.900,151626.700,140184.700,146685.400,-0.103,0.992,-0.260,-4.456,0.000,-5.249,73.333,616.000,1.000,14.469,0.000
190299.100,177207.100,556168.200,522385.300,158345.400,151607.200,140167.300,146665.400,-0.106,0.991,-0.252,-4.791,-0.305,-5.615,73.333,617.000,1.000,3.064,0.000
190320.900,177228.500,556147.400,522365.500,158350.100,151625.700,140186.400,146677.200,-0.107,0.986,-0.251,-5.127,-0.671,-6.134,73.333,618.000,1.000,0.010,0.000
190335.000,177225.900,556110.100,522337.700,158342.700,151622.600,140173.500,146677.800,-0.110,0.991,-0.245,-5.341,-0.793,-6.409,73.333,619.000,1.000,1.914,0.000
190327.700,177214.800,556065.000,522294.100,158339.900,151611.700,140168.800,146672.300,-0.108,0.998,-0.237,-5.676,-1.129,-6.592,73.333,620.000,1.000,2.418,0.000
190324.800,177230.600,556037.700,522269.300,158370.600,151646.200,140205.200,146697.400,-0.111,1.003,-0.234,-6.348,-1.343,-6.561,73.333,621.000,1.000,2.566,0.000
190310.700,177232.500,555991.000,522224.000,158366.700,151643.900,140206.200,146695.300,-0.113,1.002,-0.232,-6.866,-1.617,-6.378,73.333,622.000,1.000,3.734,0.000
190293.100,177209.900,555927.500,522163.100,158324.600,151608.300,140168.300,146660.400,-0.111,0.992,-0.231,-7.721,-1.678,-6.134,73.333,623.000,1.000,4.357,0.000
190323.000,177222.900,555910.300,522143.100,158332.100,151614.100,140172.200,146664.800,-0.118,0.983,-0.229,-8.026,-1.709,-5.646,73.333,624.000,1.000,0.008,0.000
190354.300,177242.300,555902.900,522134.800,158361.200,151633.300,140185.300,146684.000,-0.116,0.969,-0.227,-8.514,-1.953,-5.310,73.333,625.000,1.000,11.826,0.000
190333.000,177231.700,555854.900,522088.500,158366.000,151630.300,140181.900,146684.500,-0.117,0.971,-0.224,-8.423,-1.923,-4.822,73.333,626.000,1.000,2.494,0.000
190329.400,177243.700,555819.700,522053.300,158369.900,151646.700,140196.500,146684.300,-0.117,0.968,-0.218,-8.362,-1.953,-4.517,73.333,627.000,1.000,3.145,0.000
190314.000,177222.300,555760.100,521992.000,158330.800,151615.600,140167.200,146658.500,-0.110,0.966,-0.219,-8.301,-1.892,-4.028,73.333,628.000,1.000,0.009,0.000
190329.500,177215.600,555720.400,521962.600,158320.100,151598.600,140152.200,146649.400,-0.114,0.973,-0.214,-7.996,-1.801,-3.418,73.333,629.000,1.000,1.887,0.000
190350.600,177227.600,555701.800,521954.100,158346.400,151613.100,140171.000,146675.300,-0.112,0.972,-0.213,-7.996,-1.740,-2.899,73.333,630.000,1.000,13.796,0.000
190353.800,177244.300,555676.000,521930.000,158373.900,151639.100,140198.200,146686.200,-0.113,0.978,-0.211,-7.996,-1.526,-2.380,73.333,631.000,1.000,2.503,0.000
190346.200,177253.500,555635.300,521893.600,158370.700,151646.500,140205.100,146685.900,-0.112,0.977,-0.210,-7.660,-1.495,-1.923,73.333,632.000,1.000,2.413,0.000
190357.300,177252.700,555604.400,521862.600,158362.800,151645.800,140206.200,146686.500,-0.106,0.969,-0.211,-7.721,-1.099,-1.343,73.333,633.000,1.000,2.490,0.000
190391.100,177265.300,555583.800,521852.900,158369.000,151650.300,140206.800,146695.600,-0.106,0.962,-0.207,-7.385,-0.854,-0.732,73.333,634.000,1.000,8.821,0.000
190411.600,177279.100,555566.800,521838.700,158388.600,151667.900,140217.200,146712.400,-0.102,0.945,-0.202,-7.172,-0.824,-0.244,73.333,635.000,1.000,3.011,0.000
190394.600,177273.100,555526.400,521790.400,158393.000,151668.300,140217.700,146710.100,-0.107,0.938,-0.205,-6.622,-0.488,0.183,73.333,636.000,1.000,0.010,0.000
190380.800,177269.800,555476.900,521742.800,158379.600,151662.500,140213.300,146703.000,-0.118,0.945,-0.209,-5.981,-0.366,0.549,73.333,637.000,1.000,1.930,0.000
190378.700,177251.800,555428.800,521700.100,158351.700,151640.200,140195.300,146680.500,-0.125,0.954,-0.209,-5.371,-0.336,0.641,73.333,638.000,1.000,13.844,0.000
190398.000,177251.900,555392.100,521678.100,158347.700,151635.800,140185.700,146682.500,-0.129,0.967,-0.212,-4.974,-0.519,0.549,73.333,639.000,1.000,3.107,0.000
190420.300,177264.300,555369.200,521663.900,158371.500,151642.800,140197.500,146698.400,-0.128,0.975,-0.212,-4.761,-0.671,0.153,73.333,640.000,1.000,0.014,0.000
190439.400,177300.100,555365.800,521657.900,158419.600,151688.400,140242.500,146738.400,-0.125,0.978,-0.206,-4.608,-0.824,-0.031,73.333,641.000,1.000,1.789,0.000
190435.000,177308.200,555332.900,521624.200,158426.500,151703.500,140256.500,146749.100,-0.123,0.970,-0.207,-4.669,-1.038,-0.244,73.333,642.000,1.000,3.714,0.000
190387.100,177251.300,555243.200,521524.500,158356.800,151628.300,140185.900,146680.400,-0.117,0.962,-0.211,-4.761,-1.068,-0.427,73.333,643.000,1.000,9.482,0.000
190419.300,177261.500,555227.300,521514.200,158365.800,151633.600,140186.400,146687.700,-0.115,0.955,-0.215,-4.578,-1.068,-0.519,73.333,644.000,1.000,0.011,0.000
190445.900,177279.100,555219.300,521509.700,158397.200,151651.300,140206.600,146715.300,-0.114,0.947,-0.218,-4.150,-1.160,-0.610,73.333,645.000,1.000,8.657,0.000
190433.600,177277.800,555183.200,521471.400,158410.100,151663.300,140221.700,146716.200,-0.113,0.941,-0.221,-3.601,-1.160,-0.824,73.333,646.000,1.000,0.013,0.000
190433.400,177293.200,555158.000,521445.300,158420.600,151684.800,140241.300,146732.100,-0.114,0.938,-0.227,-3.052,-1.099,-0.946,73.333,647.000,1.000,8.667,0.000
190412.900,177271.500,555097.300,521391.400,158381.100,151656.100,140209.200,146700.600,-0.113,0.935,-0.229,-2.563,-1.251,-1.038,73.333,648.000,1.000,0.009,0.000
190425.700,177262.900,555062.500,521366.600,158375.700,151644.800,140202.900,146693.500,-0.115,0.936,-0.230,-2.106,-1.312,-1.129,73.333,649.000,1.000,11.393,0.000
190438.100,177271.200,555040.000,521340.700,158399.500,151662.500,140225.500,146707.700,-0.114,0.939,-0.234,-1.740,-1.312,-1.160,73.333,650.000,1.000,0.018,0.000
190422.000,177271.200,555000.300,521300.200,158406.000,151668.400,140232.800,146713.200,-0.114,0.945,-0.239,-1.312,-1.343,-1.251,73.333,651.000,1.000,25.501,0.000
190392.000,177257.700,554944.900,521243.700,158387.100,151653.300,140222.600,146696.200,-0.114,0.955,-0.245,-0.946,-1.495,-1.343,73.333,652.000,1.000,0.014,0.000
190392.400,177254.400,554905.100,521203.900,158368.900,151640.600,140211.000,146690.900,-0.120,0.968,-0.244,-0.793,-1.740,-1.251,73.333,653.000,1.000,0.004,0.000
190404.500,177245.300,554870.800,521179.800,158361.000,151628.300,140197.700,146684.900,-0.126,0.975,-0.246,-0.793,-1.984,-1.282,73.333,654.000,1.000,3.675,0.000
190426.000,177263.600,554854.100,521172.400,158386.900,151653.400,140214.500,146699.800,-0.130,0.979,-0.245,-0.885,-2.228,-1.282,73.333,655.000,1.000,0.006,0.000
190440.400,177295.300,554843.100,521166.800,158426.300,151684.800,140254.600,146735.500,-0.129,0.979,-0.248,-1.160,-2.594,-1.160,73.333,656.000,1.000,2.510,0.000
190449.300,177321.900,554825.300,521157.000,158448.900,151708.300,140285.300,146766.300,-0.128,0.978,-0.246,-1.221,-3.021,-0.916,73.333,657.000,1.000,0.009,0.000
190410.000,177279.200,554743.400,521079.000,158393.200,151656.100,140246.100,146726.100,-0.124,0.975,-0.250,-1.740,-3.387,-0.519,73.333,658.000,1.000,0.004,0.000
190408.100,177256.100,554691.400,521040.600,158368.900,151632.900,140220.000,146700.200,-0.127,0.975,-0.249,-1.892,-3.815,0.061,73.333,659.000,1.000,2.598,0.000
190416.700,177257.100,554661.900,521016.900,158379.500,151644.900,140224.200,146704.600,-0.125,0.970,-0.247,-2.167,-4.303,0.427,73.333,660.000,1.000,2.420,0.000
190395.200,177253.000,554614.300,520963.700,158381.500,151649.900,140226.900,146701.000,-0.125,0.971,-0.246,-2.411,-4.547,0.885,73.333,661.000,1.000,2.573,0.000
190392.700,177262.600,554581.300,520931.100,158382.300,151653.000,140221.600,146708.200,-0.123,0.971,-0.243,-2.533,-4.974,1.099,73.333,662.000,1.000,2.492,0.000
190397.800,177264.600,554543.700,520886.800,158359.800,151636.600,140194.600,146674.200,-0.124,0.969,-0.243,-2.899,-5.280,1.129,73.333,663.000,1.000,3.740,0.000
190430.300,177279.400,554529.100,520881.100,158370.200,151641.000,140198.400,146689.500,-0.128,0.968,-0.243,-2.869,-5.524,1.373,73.333,664.000,1.000,4.320,0.000
190452.300,177298.500,554518.400,520873.500,158401.000,151677.900,140229.900,146723.100,-0.128,0.958,-0.241,-3.204,-5.890,1.495,73.333,665.000,1.000,0.008,0.000
190415.400,177277.800,554462.700,520818.300,158390.900,151669.500,140223.200,146707.600,-0.131,0.953,-0.240,-3.265,-6.134,1.801,73.333,666.000,1.000,13.783,0.000
190390.900,177272.700,554412.900,520774.000,158378.800,151660.600,140210.800,146698.600,-0.130,0.943,-0.238,-3.235,-6.561,1.923,73.333,667.000,1.000,0.007,0.000
190382.400,177256.500,554358.600,520724.000,158345.000,151631.000,140182.300,146673.100,-0.126,0.939,-0.234,-3.113,-6.805,1.953,73.333,668.000,1.000,1.834,0.000
190401.900,177255.900,554327.600,520704.300,158342.300,151623.700,140170.700,146680.700,-0.125,0.943,-0.232,-2.502,-7.080,2.014,73.333,669.000,1.000,6.260,0.000
190415.200,177263.500,554302.100,520689.500,158363.200,151642.600,140185.000,146688.300,-0.121,0.944,-0.232,-2.441,-7.477,1.953,73.333,670.000,1.000,2.538,0.000
190400.300,177271.900,554268.600,520650.500,158381.900,151657.700,140217.800,146708.000,-0.122,0.952,-0.233,-2.197,-7.690,2.289,73.333,671.000,1.000,2.517,0.000
190420.800,177307.500,554263.400,520638.400,158410.200,151680.100,140248.900,146733.200,-0.113,0.952,-0.232,-2.228,-8.057,2.441,73.333,672.000,1.000,6.268,0.000
190395.700,177282.300,554204.400,520573.600,158370.600,151647.100,140211.100,146696.400,-0.104,0.948,-0.235,-2.228,-8.179,2.594,73.333,673.000,1.000,4.968,0.000
190396.500,177268.400,554159.900,520529.600,158351.400,151632.700,140190.400,146680.500,-0.094,0.946,-0.240,-1.831,-8.179,2.686,73.333,674.000,1.000,2.672,0.000
190400.300,177262.900,554127.700,520500.100,158355.100,151635.800,140184.300,146678.100,-0.077,0.940,-0.243,-1.892,-8.057,2.747,73.333,675.000,1.000,4.193,0.000
190384.900,177265.300,554095.900,520465.500,158372.600,151652.300,140208.100,146690.200,-0.067,0.937,-0.244,-1.343,-7.538,2.991,73.333,676.000,1.000,0.009,0.000
190383.100,177287.200,554073.400,520442.600,158388.000,151676.400,140233.300,146707.700,-0.052,0.931,-0.247,-1.190,-7.019,2.991,73.333,677.000,1.000,8.072,0.000
190393.200,177296.000,554046.200,520411.500,158381.000,151673.700,140226.300,146706.000,-0.040,0.932,-0.244,-0.854,-6.012,3.174,73.333,678.000,1.000,3.220,0.000
190399.700,177288.100,554008.700,520386.200,158370.100,151655.300,140203.200,146702.900,-0.031,0.934,-0.244,-0.610,-5.188,3.479,73.333,679.000,1.000,0.008,0.000
190405.800,177294.000,553981.500,520363.200,158390.100,151678.500,140233.800,146708.700,-0.026,0.942,-0.242,-0.519,-4.059,3.754,73.333,680.000,1.000,2.985,0.000
190395.800,177303.100,553949.300,520330.800,158410.200,151694.500,140255.200,146727.900,-0.031,0.956,-0.237,-0.214,-2.930,3.876,73.333,681.000,1.000,13.766,0.000
190359.400,177281.600,553879.900,520270.300,158375.000,151663.600,140210.000,146690.000,-0.032,0.968,-0.239,-0.458,-1.923,3.815,73.333,682.000,1.000,3.173,0.000
190342.400,177257.300,553815.300,520218.100,158337.900,151632.400,140177.400,146659.900,-0.042,0.980,-0.233,-0.519,-0.946,3.876,73.333,683.000,1.000,0.013,0.000
190364.300,177258.100,553782.900,520208.100,158341.200,151632.300,140176.200,146671.600,-0.051,0.986,-0.225,-0.854,-0.153,3.601,73.333,684.000,1.000,1.868,0.000
190368.900,177258.100,553747.900,520193.600,158354.200,151639.600,140191.600,146692.900,-0.060,0.994,-0.222,-1.495,0.488,3.387,73.333,685.000,1.000,3.760,0.000
190345.900,177246.400,553699.500,520154.100,158359.500,151639.900,140208.500,146699.000,-0.076,1.002,-0.221,-1.831,0.977,2.991,73.333,686.000,1.000,9.329,0.000
190329.400,177246.300,553652.100,520110.500,158354.900,151645.400,140221.800,146689.700,-0.086,1.007,-0.220,-2.533,1.129,2.319,73.333,687.000,1.000,0.010,0.000
190323.100,177238.300,553603.300,520066.400,158333.800,151630.600,140202.500,146671.800,-0.102,1.015,-0.215,-3.082,1.221,1.892,73.333,688.000,1.000,1.921,0.000
190334.600,177231.000,553567.100,520040.000,158322.700,151615.300,140183.000,146661.500,-0.110,1.009,-0.210,-3.845,0.946,1.190,73.333,689.000,1.000,13.710,0.000
190347.500,177237.800,553547.400,520023.100,158343.100,151625.600,140198.300,146680.400,-0.116,0.997,-0.207,-4.517,0.702,0.549,73.333,690.000,1.000,3.073,0.000
190346.800,177256.900,553528.300,519996.400,158369.400,151652.700,140222.600,146702.000,-0.122,0.984,-0.204,-4.639,0.488,0.000,73.333,691.000,1.000,0.007,0.000
190344.000,177276.100,553505.400,519963.400,158376.700,151674.100,140239.400,146714.000,-0.116,0.974,-0.209,-4.974,0.031,-0.885,73.333,692.000,1.000,1.914,0.000
190336.900,177265.900,553459.900,519912.500,158348.500,151652.000,140221.600,146693.300,-0.127,0.983,-0.204,-4.974,-0.275,-1.221,73.333,693.000,1.000,2.546,0.000
190336.600,177242.100,553410.800,519871.000,158320.700,151617.300,140189.100,146668.800,-0.132,0.978,-0.200,-5.035,-1.099,-1.678,73.333,694.000,1.000,8.862,0.000
190340.800,177238.500,553381.800,519837.900,158326.300,151617.900,140188.500,146664.200,-0.135,0.969,-0.196,-5.432,-1.709,-2.106,73.333,695.000,1.000,5.332,0.000
190341.800,177255.100,553363.600,519806.200,158351.800,151644.200,140216.200,146691.700,-0.137,0.958,-0.196,-5.157,-2.472,-2.289,73.333,696.000,1.000,0.006,0.000
190306.800,177233.100,553312.800,519749.300,158326.400,151627.900,140202.400,146678.500,-0.130,0.939,-0.201,-5.249,-2.960,-2.747,73.333,697.000,1.000,1.955,0.000
190320.100,177244.200,553291.400,519719.700,158319.500,151625.400,140202.300,146679.400,-0.126,0.927,-0.197,-4.578,-3.235,-2.563,73.333,698.000,1.000,3.854,0.000
190358.700,177269.100,553281.900,519719.500,158333.200,151640.000,140219.300,146697.500,-0.114,0.917,-0.198,-3.967,-3.479,-2.533,73.333,699.000,1.000,11.844,0.000
190372.300,177273.800,553265.600,519708.100,158354.100,151650.700,140218.400,146713.400,-0.108,0.913,-0.201,-2.960,-3.662,-2.258,73.333,700.000,1.000,0.012,0.000
190358.300,177274.900,553234.100,519673.300,158368.700,151661.600,140222.800,146715.400,-0.100,0.901,-0.215,-2.014,-4.028,-1.953,73.333,701.000,1.000,2.365,0.000
190332.400,177266.600,553183.400,519622.600,158355.300,151655.800,140218.400,146697.500,-0.094,0.892,-0.217,-1.007,-3.815,-1.495,73.333,702.000,1.000,0.010,0.000
190325.300,177256.000,553138.600,519579.700,158334.500,151645.200,140205.400,146674.200,-0.098,0.892,-0.216,0.458,-3.784,-0.916,73.333,703.000,1.000,8.191,0.000
190341.700,177254.500,553104.600,519565.700,158329.600,151636.800,140199.900,146677.200,-0.092,0.897,-0.225,1.495,-3.479,-0.732,73.333,704.000,1.000,2.524,0.000
190368.400,177276.500,553089.200,519569.800,158363.800,151665.200,140231.500,146714.400,-0.107,0.921,-0.214,2.869,-3.174,-0.122,73.333,705.000,1.000,2.419,0.000
190352.000,177275.300,553046.600,519542.300,158373.800,151672.000,140242.800,146721.600,-0.107,0.943,-0.215,3.693,-3.326,-0.031,73.333,706.000,1.000,3.773,0.000
190322.300,177266.200,552989.200,519483.400,158351.200,151655.600,140225.800,146696.100,-0.110,0.970,-0.213,3.876,-3.143,0.092,73.333,707.000,1.000,14.379,0.000
190315.800,177256.600,552940.300,519435.000,158330.000,151641.600,140205.500,146675.100,-0.120,0.992,-0.209,4.242,-3.479,0.549,73.333,708.000,1.000,0.014,0.000
190324.800,177246.800,552907.400,519395.700,158322.600,151634.200,140195.500,146672.000,-0.111,1.002,-0.218,3.662,-3.723,0.519,73.333,709.000,1.000,1.889,0.000
190335.700,177257.200,552888.200,519375.100,158348.500,151652.800,140213.400,146694.600,-0.121,1.007,-0.212,3.387,-3.937,0.946,73.333,710.000,1.000,2.506,0.000
190335.900,177276.900,552871.100,519354.000,158378.100,151674.800,140245.800,146724.700,-0.115,1.003,-0.216,2.747,-4.333,1.007,73.333,711.000,1.000,4.250,0.000
190330.700,177289.000,552845.100,519323.400,158383.900,151687.400,140255.800,146727.500,-0.118,1.003,-0.219,2.472,-4.395,1.373,73.333,712.000,1.000,0.009,0.000
190308.600,177266.600,552775.800,519273.600,158344.400,151661.000,140216.500,146693.100,-0.125,0.998,-0.219,2.197,-4.852,1.495,73.333,713.000,1.000,10.739,0.000
190311.600,177249.000,552727.900,519243.700,158324.700,151634.200,140203.900,146681.200,-0.124,0.997,-0.223,1.587,-5.127,1.617,73.333,714.000,1.000,7.366,0.000
190310.100,177251.700,552691.300,519217.500,158337.300,151639.900,140211.000,146678.300,-0.136,0.996,-0.216,1.434,-5.859,2.014,73.333,715.000,1.000,0.009,0.000
190284.500,177247.400,552645.900,519182.800,158341.500,151647.800,140214.500,146682.500,-0.132,0.990,-0.218,0.671,-6.561,1.740,73.333,716.000,1.000,0.004,0.000
190263.300,177242.800,552605.600,519132.500,158326.500,151640.000,140210.500,146677.300,-0.136,0.990,-0.214,0.519,-7.080,1.831,73.333,717.000,1.000,11.889,0.000
190267.300,177244.000,552569.100,519094.300,158306.500,151626.600,140195.300,146661.300,-0.135,0.987,-0.218,0.031,-7.751,1.770,73.333,718.000,1.000,0.018,0.000
190284.300,177245.900,552550.700,519066.100,158301.900,151627.100,140200.300,146668.700,-0.133,0.985,-0.212,-0.397,-8.209,1.740,73.333,719.000,1.000,8.763,0.000
190295.200,177252.400,552533.400,519045.600,158321.800,151642.200,140213.500,146688.700,-0.136,0.979,-0.215,-0.793,-8.789,1.617,73.333,720.000,1.000,0.010,0.000
190290.600,177264.600,552509.500,519019.500,158340.800,151663.800,140237.000,146706.000,-0.139,0.972,-0.215,-1.221,-9.277,1.556,73.333,721.000,1.000,2.321,0.000
190277.400,177270.000,552475.800,518974.900,158330.600,151661.800,140226.700,146689.500,-0.141,0.966,-0.214,-1.160,-9.888,1.465,73.333,722.000,1.000,0.007,0.000
190263.800,177244.800,552421.100,518933.900,158297.300,151627.400,140193.900,146658.100,-0.138,0.959,-0.220,-1.495,-10.681,1.251,73.333,723.000,1.000,7.020,0.000
190279.000,177237.500,552394.900,518919.100,158293.800,151617.300,140186.500,146660.400,-0.135,0.952,-0.224,-1.312,-11.230,1.282,73.333,724.000,1.000,13.185,0.000
190302.200,177253.600,552383.900,518921.400,158324.000,151628.300,140196.300,146687.600,-0.124,0.948,-0.229,-1.129,-11.688,1.312,73.333,725.000,1.000,0.013,0.000
190296.100,177266.500,552359.300,518900.300,158348.700,151646.900,140215.500,146706.800,-0.118,0.945,-0.231,-0.610,-12.085,1.678,73.333,726.000,1.000,2.431,0.000
190259.700,177248.700,552304.300,518843.100,158323.500,151632.400,140199.700,146680.600,-0.109,0.943,-0.231,-0.244,-12.543,1.984,73.333,727.000,1.000,0.008,0.000
190257.000,177242.100,552261.400,518801.800,158300.800,151617.500,140185.500,146663.500,-0.101,0.943,-0.232,0.244,-12.665,2.472,73.333,728.000,1.000,13.886,0.000
190277.500,177248.600,552245.100,518786.300,158307.000,151624.500,140190.000,146678.500,-0.092,0.942,-0.233,0.702,-12.726,2.960,73.333,729.000,1.000,0.018,0.000
190284.100,177252.600,552226.300,518768.500,158331.700,151639.700,140210.100,146697.500,-0.086,0.945,-0.233,1.007,-12.634,3.448,73.333,730.000,1.000,3.020,0.000
190270.800,177260.900,552199.800,518734.700,158354.000,151658.700,140235.900,146707.600,-0.084,0.947,-0.234,1.617,-12.390,3.967,73.333,731.000,1.000,0.009,0.000
190240.800,177249.600,552152.800,518681.300,158342.200,151652.700,140231.200,146697.500,-0.078,0.949,-0.234,1.953,-12.146,4.303,73.333,732.000,1.000,0.007,0.000
190237.000,177243.600,552110.800,518641.200,158323.000,151639.300,140216.800,146686.200,-0.080,0.955,-0.230,2.502,-11.841,4.608,73.333,733.000,1.000,3.723,0.000
190259.500,177249.600,552088.200,518629.000,158326.300,151643.500,140220.800,146690.100,-0.083,0.964,-0.234,2.625,-11.414,4.730,73.333,734.000,1.000,13.746,0.000
190277.000,177259.000,552068.600,518621.800,158350.100,151659.500,140241.800,146707.900,-0.090,0.974,-0.234,2.899,-11.047,4.822,73.333,735.000,1.000,3.613,0.000
190252.600,177252.400,552022.100,518581.400,158354.100,151660.400,140247.500,146709.300,-0.094,0.983,-0.232,2.594,-10.895,4.974,73.333,736.000,1.000,0.013,0.000
190232.200,177248.900,551973.900,518542.600,158344.800,151651.600,140244.500,146703.400,-0.104,0.992,-0.229,2.502,-10.620,4.974,73.333,737.000,1.000,0.014,0.000
190233.400,177246.500,551931.900,518505.700,158324.200,151634.200,140228.600,146685.900,-0.110,0.995,-0.230,2.106,-10.681,4.761,73.333,738.000,1.000,2.583,0.000
190257.200,177252.600,551905.300,518496.500,158325.500,151634.200,140222.700,146687.200,-0.119,0.996,-0.234,1.862,-10.773,4.578,73.333,739.000,1.000,2.486,0.000
190277.200,177264.500,551892.900,518493.300,158358.700,151658.800,140246.600,146710.100,-0.130,0.993,-0.234,1.404,-11.017,4.211,73.333,740.000,1.000,8.779,0.000
190241.900,177246.400,551837.900,518435.000,158355.000,151644.300,140243.400,146692.700,-0.137,0.992,-0.237,0.854,-11.230,3.906,73.333,741.000,1.000,2.462,0.000
190225.700,177249.600,551803.600,518390.500,158352.700,151646.100,140245.900,146691.900,-0.148,0.990,-0.235,0.519,-11.536,3.571,73.333,742.000,1.000,3.812,0.000
190241.900,177262.500,551784.700,518367.900,158352.500,151655.800,140249.700,146696.900,-0.153,0.991,-0.241,0.000,-11.841,3.204,73.333,743.000,1.000,11.758,0.000
