EEG 1, EEG 2, EEG 3, EEG 4, EEG 5, EEG 6, EEG 7, EEG 8, ACC X, ACC Y, ACC Z, GYR X, GYR Y, GYR Z, BAT, CNT, VALID, DT, TRIG
187324.900,182207.000,210089.300,195760.300,187143.900,195298.600,201347.800,191273.100,-0.180,0.942,-0.116,0.000,0.000,0.000,66.667,1.000,1.000,0.000,0.000
182164.800,177196.100,204186.000,190299.100,181991.300,189923.000,195767.900,185994.900,-0.177,0.968,-0.134,0.000,0.000,0.000,66.667,2.000,1.000,28.027,0.000
177680.400,172841.400,199075.800,185563.800,177514.500,185248.300,190919.600,181425.800,-0.177,0.978,-0.143,-3.540,4.089,-4.150,66.667,3.000,1.000,4.970,0.000
173730.500,169005.200,194586.100,181398.500,173568.400,181120.300,186653.400,177392.700,-0.177,0.976,-0.147,-6.470,9.064,-6.683,66.667,4.000,1.000,4.991,0.000
170210.300,165585.700,190589.100,177685.700,170047.200,177449.700,182847.700,173783.800,-0.178,0.976,-0.146,-3.662,5.951,-2.686,66.667,5.000,1.000,10.049,0.000
167046.600,162511.700,187004.000,174351.900,166884.600,174147.000,179429.000,170553.900,-0.177,0.977,-0.149,-2.563,4.822,-1.343,66.667,6.000,1.000,6.232,0.000
164200.300,159747.100,183783.700,171360.600,164043.100,171178.000,176362.000,167654.500,-0.177,0.978,-0.150,-2.258,4.333,-0.885,66.667,7.000,1.000,6.292,0.000
161615.300,157236.900,180861.100,168644.200,161463.300,168482.300,173584.900,165015.900,-0.181,0.978,-0.147,-2.258,4.059,-0.610,66.667,8.000,1.000,2.456,0.000
159235.700,154923.400,178175.900,166140.800,159086.900,165999.800,171026.000,162585.800,-0.183,0.978,-0.148,-2.472,3.723,-0.488,66.667,9.000,1.000,2.482,0.000
157064.000,152813.000,175728.400,163858.500,156922.000,163745.300,168693.300,160364.600,-0.185,0.979,-0.148,-2.655,3.387,-0.427,66.667,10.000,1.000,5.031,0.000
155089.200,150894.100,173499.500,161784.100,154949.300,161687.900,166566.500,158345.900,-0.186,0.978,-0.148,-2.777,3.204,-0.549,66.667,11.000,1.000,2.536,0.000
153253.500,149110.100,171430.500,159856.300,153115.200,159776.200,164594.700,156471.900,-0.186,0.977,-0.148,-2.991,2.838,-0.458,66.667,12.000,1.000,6.339,0.000
151546.300,147447.700,169507.000,158065.300,151406.000,157995.900,162751.900,154719.900,-0.184,0.974,-0.147,-2.991,2.533,-0.427,66.667,13.000,1.000,4.929,0.000
149968.400,145914.100,167726.700,156411.200,149828.400,156348.800,161055.600,153109.500,-0.185,0.972,-0.146,-3.143,2.197,-0.336,66.667,14.000,1.000,3.068,0.000
148511.400,144498.600,166079.400,154882.200,148371.900,154835.300,159491.700,151621.800,-0.185,0.971,-0.146,-3.082,1.801,-0.214,66.667,15.000,1.000,0.015,0.000
147164.100,143186.500,164558.100,153470.400,147028.400,153429.400,158050.100,150257.500,-0.184,0.969,-0.149,-3.235,1.434,-0.214,66.667,16.000,1.000,1.924,0.000
145895.800,141951.800,163129.800,152144.100,145763.000,152105.600,156686.100,148969.600,-0.184,0.965,-0.149,-3.143,1.221,-0.275,66.667,17.000,1.000,2.505,0.000
144703.500,140794.100,161788.700,150897.400,144575.400,150871.300,155413.600,147753.800,-0.179,0.960,-0.151,-2.991,1.038,-0.275,66.667,18.000,1.000,2.485,0.000
143583.900,139704.700,160528.800,149724.400,143458.200,149700.300,154207.600,146614.400,-0.180,0.955,-0.153,-2.869,0.854,-0.183,66.667,19.000,1.000,3.035,0.000
142524.700,138672.700,159339.600,148617.200,142398.800,148585.400,153060.000,145534.300,-0.176,0.957,-0.152,-2.716,0.885,-0.122,66.667,20.000,1.000,0.012,0.000
141537.200,137712.000,158229.100,147584.700,141410.800,147553.500,151995.100,144517.900,-0.174,0.959,-0.148,-2.319,0.732,-0.092,66.667,21.000,1.000,1.952,0.000
140618.900,136819.600,157194.400,146617.700,140491.000,146598.200,151006.700,143575.200,-0.171,0.963,-0.152,-2.136,0.671,0.000,66.667,22.000,1.000,4.987,0.000
139758.000,135978.300,156222.100,145713.800,139626.500,145695.900,150076.800,142689.300,-0.173,0.968,-0.149,-2.014,0.732,-0.061,66.667,23.000,1.000,6.810,0.000
138948.900,135187.500,155310.500,144865.200,138818.300,144852.500,149210.600,141864.100,-0.170,0.969,-0.152,-2.014,0.702,-0.061,66.667,24.000,1.000,0.013,0.000
138183.200,134444.200,154451.500,144063.200,138055.400,144057.200,148388.900,141087.100,-0.170,0.968,-0.153,-2.106,0.610,0.092,66.667,25.000,1.000,1.891,0.000
137457.800,133739.800,153636.000,143305.400,137332.300,143303.700,147610.100,140347.800,-0.168,0.968,-0.147,-2.136,0.671,0.031,66.667,26.000,1.000,2.442,0.000
136777.800,133079.900,152870.700,142595.300,136654.000,142595.500,146883.500,139651.700,-0.169,0.969,-0.146,-2.045,0.732,0.031,66.667,27.000,1.000,8.885,0.000
136130.000,132453.000,152143.200,141918.800,136008.400,141922.800,146191.700,138989.800,-0.173,0.970,-0.149,-2.075,0.793,-0.153,66.667,28.000,1.000,2.993,0.000
135514.300,131851.900,151449.100,141274.000,135390.000,141274.800,145526.300,138363.600,-0.175,0.975,-0.151,-2.167,0.793,-0.244,66.667,29.000,1.000,0.009,0.000
134936.100,131288.000,150797.100,140666.800,134806.800,140664.500,144892.600,137772.400,-0.174,0.978,-0.150,-2.136,0.763,-0.549,66.667,30.000,1.000,1.948,0.000
134402.800,130772.600,150195.800,140107.500,134276.700,140118.900,144326.600,137232.100,-0.173,0.985,-0.149,-2.228,0.641,-0.549,66.667,31.000,1.000,14.271,0.000
133898.000,130280.200,149624.200,139574.200,133772.700,139599.300,143790.800,136709.400,-0.169,0.987,-0.145,-2.380,0.854,-0.763,66.667,32.000,1.000,0.010,0.000
133411.600,129801.100,149074.800,139063.900,133285.000,139091.000,143277.900,136212.900,-0.167,0.988,-0.145,-2.502,0.824,-0.916,66.667,33.000,1.000,6.943,0.000
132954.000,129351.700,148556.000,138583.400,132823.400,138611.200,142784.500,135741.200,-0.167,0.988,-0.145,-2.808,1.038,-0.793,66.667,34.000,1.000,6.242,0.000
132524.300,128929.400,148066.900,138129.000,132384.300,138147.100,142299.500,135292.800,-0.164,0.985,-0.144,-2.991,1.190,-0.732,66.667,35.000,1.000,2.469,0.000
132111.500,128527.300,147602.800,137700.800,131973.100,137713.400,141855.600,134875.600,-0.164,0.977,-0.144,-3.052,1.404,-0.671,66.667,36.000,1.000,2.520,0.000
131719.500,128147.800,147164.000,137292.500,131583.000,137300.500,141434.800,134478.400,-0.165,0.974,-0.141,-3.052,1.648,-0.610,66.667,37.000,1.000,2.513,0.000
131349.400,127788.800,146750.500,136908.100,131214.200,136916.400,141035.000,134098.500,-0.165,0.969,-0.144,-3.052,1.953,-0.610,66.667,38.000,1.000,2.563,0.000
131002.400,127450.600,146360.800,136545.400,130869.800,136558.300,140667.800,133743.100,-0.169,0.966,-0.146,-2.960,2.167,-0.610,66.667,39.000,1.000,9.290,0.000
130664.200,127124.400,145983.100,136191.100,130534.900,136211.000,140307.800,133401.100,-0.171,0.965,-0.148,-2.808,2.319,-0.488,66.667,40.000,1.000,0.013,0.000
130343.100,126816.500,145626.600,135857.300,130220.500,135881.100,139968.200,133078.900,-0.174,0.966,-0.147,-2.625,2.441,-0.580,66.667,41.000,1.000,13.705,0.000
130046.600,126532.300,145297.800,135551.200,129930.300,135575.700,139659.100,132781.900,-0.173,0.966,-0.147,-2.380,2.655,-0.580,66.667,42.000,1.000,0.016,0.000
129782.800,126275.400,144998.300,135270.300,129663.600,135298.800,139369.800,132503.300,-0.175,0.969,-0.143,-2.167,2.716,-0.366,66.667,43.000,1.000,2.468,0.000
129518.100,126013.700,144693.900,134983.400,129389.900,135014.000,139076.900,132228.000,-0.177,0.972,-0.142,-2.106,2.777,-0.366,66.667,44.000,1.000,0.011,0.000
129264.800,125764.200,144404.300,134709.400,129130.000,134746.900,138801.300,131960.500,-0.177,0.974,-0.146,-2.075,2.716,-0.366,66.667,45.000,1.000,11.230,0.000
129039.100,125540.200,144144.300,134469.500,128900.400,134508.000,138553.800,131723.700,-0.181,0.972,-0.146,-2.045,2.594,-0.336,66.667,46.000,1.000,0.012,0.000
128818.800,125321.300,143892.400,134240.000,128677.800,134269.300,138317.400,131498.900,-0.181,0.971,-0.144,-1.923,2.411,-0.305,66.667,47.000,1.000,6.858,0.000
128596.900,125103.900,143642.300,134012.000,128455.400,134036.500,138082.400,131275.800,-0.185,0.975,-0.144,-1.862,2.228,-0.214,66.667,48.000,1.000,0.012,0.000
128380.400,124893.400,143400.000,133788.000,128241.200,133817.800,137852.400,131056.000,-0.183,0.972,-0.145,-1.892,2.167,-0.214,66.667,49.000,1.000,0.010,0.000
128185.600,124703.900,143181.500,133587.100,128051.000,133616.700,137646.300,130865.900,-0.184,0.972,-0.144,-1.740,1.984,-0.336,66.667,50.000,1.000,2.506,0.000
128015.000,124541.500,142991.100,133410.300,127885.900,133442.700,137465.400,130692.500,-0.183,0.969,-0.145,-1.770,1.709,-0.305,66.667,51.000,1.000,2.520,0.000
127833.800,124370.800,142791.400,133220.400,127709.200,133260.600,137273.400,130506.800,-0.184,0.968,-0.146,-1.770,1.343,-0.366,66.667,52.000,1.000,11.312,0.000
127666.100,124209.500,142604.800,133046.100,127541.900,133085.800,137095.600,130338.300,-0.184,0.964,-0.148,-1.770,1.007,-0.366,66.667,53.000,1.000,4.250,0.000
127521.900,124068.700,142443.100,132896.400,127395.800,132929.000,136936.500,130189.400,-0.185,0.964,-0.149,-1.709,0.763,-0.397,66.667,54.000,1.000,0.008,0.000
127383.000,123931.800,142284.700,132748.200,127255.000,132783.100,136785.100,130046.400,-0.184,0.963,-0.147,-1.678,0.488,-0.397,66.667,55.000,1.000,2.501,0.000
127248.900,123799.700,142130.100,132601.800,127118.700,132642.500,136639.600,129905.300,-0.184,0.964,-0.148,-1.648,0.183,-0.549,66.667,56.000,1.000,0.004,0.000
127113.400,123665.900,141974.800,132456.400,126981.300,132497.800,136493.700,129764.300,-0.184,0.964,-0.148,-1.587,-0.244,-0.610,66.667,57.000,1.000,8.148,0.000
126984.100,123541.500,141829.100,132317.800,126854.200,132365.300,136359.400,129636.700,-0.181,0.966,-0.150,-1.556,-0.580,-0.641,66.667,58.000,1.000,11.805,0.000
126853.000,123413.400,141680.400,132181.900,126722.600,132228.100,136219.300,129502.300,-0.181,0.965,-0.149,-1.556,-0.916,-0.580,66.667,59.000,1.000,0.063,0.000
126732.300,123291.000,141539.300,132057.500,126596.400,132098.600,136083.600,129376.300,-0.181,0.967,-0.147,-1.709,-1.251,-0.702,66.667,60.000,1.000,2.411,0.000
126634.400,123197.300,141430.300,131960.200,126502.500,132000.700,135981.700,129280.500,-0.180,0.971,-0.151,-1.770,-1.587,-0.702,66.667,61.000,1.000,0.013,0.000
126532.300,123100.200,141317.000,131853.200,126402.800,131898.500,135875.900,129180.300,-0.181,0.972,-0.151,-1.923,-1.801,-0.702,66.667,62.000,1.000,8.134,0.000
126435.800,123008.000,141207.400,131751.800,126303.700,131796.100,135771.700,129081.100,-0.180,0.975,-0.151,-2.167,-2.075,-0.671,66.667,63.000,1.000,20.138,0.000
126333.900,122912.200,141096.200,131646.500,126203.100,131693.400,135664.700,128977.500,-0.180,0.980,-0.153,-2.411,-2.258,-0.732,66.667,64.000,1.000,0.012,0.000
126242.800,122828.100,140998.000,131553.300,126116.600,131608.300,135572.500,128888.600,-0.182,0.981,-0.155,-2.808,-2.533,-0.793,66.667,65.000,1.000,0.003,0.000
126165.100,122758.300,140915.700,131477.800,126046.200,131541.900,135498.200,128813.800,-0.179,0.983,-0.155,-3.021,-2.838,-0.854,66.667,66.000,1.000,6.123,0.000
126093.300,122692.800,140838.600,131403.900,125985.500,131480.400,135442.100,128749.200,-0.180,0.985,-0.157,-3.418,-2.930,-0.977,66.667,67.000,1.000,2.616,0.000
126028.400,122629.300,140763.800,131333.400,125920.300,131407.400,135365.700,128680.400,-0.178,0.986,-0.155,-3.601,-3.143,-1.038,66.667,68.000,1.000,4.950,0.000
125960.000,122557.100,140685.500,131266.500,125846.000,131312.000,135273.300,128615.900,-0.177,0.982,-0.154,-3.845,-3.113,-1.282,66.667,69.000,1.000,4.967,0.000
125887.800,122481.600,140602.400,131187.800,125767.100,131223.300,135181.400,128531.100,-0.173,0.978,-0.152,-4.211,-3.052,-1.343,66.667,70.000,1.000,4.917,0.000
125819.400,122410.800,140522.900,131112.800,125692.600,131144.000,135099.000,128453.800,-0.171,0.971,-0.151,-4.425,-3.143,-1.404,66.667,71.000,1.000,2.529,0.000
125771.200,122365.400,140467.600,131061.300,125646.400,131106.200,135058.300,128406.000,-0.170,0.965,-0.152,-4.303,-2.899,-1.282,66.667,72.000,1.000,2.530,0.000
125719.500,122310.200,140405.100,131003.900,125587.300,131036.800,134989.400,128346.700,-0.173,0.961,-0.150,-4.089,-2.655,-1.129,66.667,73.000,1.000,2.473,0.000
125668.400,122258.100,140345.800,130949.000,125533.300,130974.400,134929.200,128293.200,-0.171,0.957,-0.151,-3.937,-2.686,-1.038,66.667,74.000,1.000,2.572,0.000
125623.900,122215.600,140296.200,130902.200,125492.200,130929.700,134884.100,128253.600,-0.169,0.953,-0.144,-3.693,-2.441,-0.854,66.667,75.000,1.000,2.381,0.000
125581.000,122177.100,140248.900,130858.400,125452.100,130889.500,134839.500,128211.500,-0.168,0.952,-0.145,-3.204,-2.136,-0.671,66.667,76.000,1.000,7.586,0.000
125538.400,122137.800,140202.600,130812.800,125412.000,130850.900,134798.800,128164.900,-0.166,0.956,-0.149,-2.716,-1.770,-0.397,66.667,77.000,1.000,9.262,0.000
125497.600,122096.700,140157.700,130771.000,125371.800,130808.800,134757.700,128123.200,-0.166,0.960,-0.146,-2.350,-1.434,-0.092,66.667,78.000,1.000,0.009,0.000
125471.900,122068.600,140125.000,130741.500,125343.300,130779.400,134728.100,128094.100,-0.165,0.965,-0.143,-2.136,-1.007,0.305,66.667,79.000,1.000,1.905,0.000
125438.100,122033.600,140083.700,130702.500,125308.900,130746.400,134692.900,128059.800,-0.169,0.968,-0.143,-1.953,-0.793,0.702,66.667,80.000,1.000,2.534,0.000
125400.500,121995.000,140037.500,130660.700,125270.800,130711.400,134658.100,128019.100,-0.170,0.966,-0.142,-1.740,-0.397,0.977,66.667,81.000,1.000,5.011,0.000
125369.100,121964.600,140000.000,130628.800,125241.000,130681.600,134630.700,127991.700,-0.171,0.969,-0.142,-1.404,-0.122,1.099,66.667,82.000,1.000,5.023,0.000
125346.200,121942.500,139973.700,130607.000,125220.300,130656.600,134610.000,127972.600,-0.171,0.970,-0.143,-1.038,0.214,1.312,66.667,83.000,1.000,2.412,0.000
125308.800,121909.100,139934.400,130569.400,125187.400,130621.200,134573.800,127939.500,-0.171,0.972,-0.142,-0.916,0.458,1.495,66.667,84.000,1.000,5.638,0.000
125278.000,121881.200,139900.700,130538.000,125159.700,130594.800,134541.800,127908.700,-0.171,0.973,-0.138,-0.732,0.641,1.740,66.667,85.000,1.000,0.060,0.000
125262.500,121867.700,139882.400,130521.100,125144.400,130577.600,134523.400,127889.500,-0.172,0.974,-0.142,-0.549,0.824,1.587,66.667,86.000,1.000,1.753,0.000
125249.900,121857.000,139866.400,130504.500,125131.200,130560.700,134505.900,127878.000,-0.174,0.977,-0.145,-0.580,1.068,1.434,66.667,87.000,1.000,10.024,0.000
125226.700,121836.200,139841.300,130480.500,125108.400,130543.000,134480.300,127855.600,-0.174,0.978,-0.145,-0.580,1.160,1.495,66.667,88.000,1.000,2.489,0.000
125193.400,121802.800,139805.800,130445.300,125073.500,130509.300,134443.600,127822.700,-0.173,0.980,-0.148,-0.641,1.190,1.373,66.667,89.000,1.000,7.558,0.000
125168.700,121779.600,139777.400,130417.600,125046.700,130484.800,134415.300,127793.200,-0.174,0.980,-0.147,-0.580,1.343,1.221,66.667,90.000,1.000,2.496,0.000
125154.000,121763.500,139757.100,130399.100,125028.200,130464.400,134394.800,127771.300,-0.172,0.981,-0.146,-0.702,1.465,1.129,66.667,91.000,1.000,2.444,0.000
125152.300,121760.700,139750.300,130394.600,125023.500,130456.200,134387.500,127765.500,-0.172,0.981,-0.148,-0.824,1.495,1.190,66.667,92.000,1.000,2.595,0.000
125128.600,121737.800,139724.400,130370.700,124999.700,130431.500,134366.400,127740.000,-0.171,0.982,-0.151,-0.946,1.526,0.977,66.667,93.000,1.000,2.486,0.000
125103.400,121714.600,139698.000,130347.300,124976.000,130407.000,134344.800,127719.000,-0.171,0.983,-0.147,-1.129,1.556,0.763,66.667,94.000,1.000,9.955,0.000
125090.300,121706.000,139684.600,130333.700,124964.900,130397.900,134331.200,127704.100,-0.170,0.984,-0.152,-1.221,1.495,0.702,66.667,95.000,1.000,2.492,0.000
125084.700,121702.200,139676.500,130327.100,124960.300,130390.400,134324.800,127695.800,-0.168,0.982,-0.153,-1.465,1.556,0.549,66.667,96.000,1.000,3.021,0.000
125075.800,121691.000,139665.000,130318.500,124952.000,130380.300,134315.400,127689.800,-0.167,0.984,-0.152,-1.617,1.587,0.244,66.667,97.000,1.000,0.007,0.000
125065.100,121677.400,139654.900,130312.600,124945.800,130374.000,134312.600,127691.100,-0.165,0.983,-0.154,-1.831,1.587,0.031,66.667,98.000,1.000,4.493,0.000
125043.600,121655.500,139631.400,130287.200,124925.600,130354.000,134293.400,127668.500,-0.163,0.981,-0.153,-2.197,1.556,0.000,66.667,99.000,1.000,2.434,0.000
125014.700,121625.600,139598.000,130250.900,124893.400,130319.500,134259.300,127630.300,-0.163,0.980,-0.153,-2.472,1.648,-0.214,66.667,100.000,1.000,2.493,0.000
125016.100,121625.600,139596.500,130249.500,124892.500,130318.300,134253.300,127625.800,-0.163,0.980,-0.154,-2.686,1.617,-0.153,66.667,101.000,1.000,5.052,0.000
125025.600,121634.700,139604.500,130259.000,124901.500,130328.800,134260.000,127634.800,-0.166,0.979,-0.153,-2.899,1.648,-0.244,66.667,102.000,1.000,2.984,0.000
125024.800,121634.000,139601.200,130257.300,124900.000,130326.900,134258.300,127632.600,-0.168,0.978,-0.155,-3.296,1.556,-0.427,66.667,103.000,1.000,0.009,0.000
125020.800,121633.000,139597.000,130254.800,124898.800,130329.500,134262.300,127632.900,-0.169,0.976,-0.155,-3.632,1.404,-0.458,66.667,104.000,1.000,8.248,0.000
125005.200,121620.900,139582.300,130241.000,124888.700,130322.800,134256.900,127625.000,-0.172,0.976,-0.154,-3.876,1.221,-0.519,66.667,105.000,1.000,3.003,0.000
124997.900,121614.000,139575.100,130237.200,124881.400,130305.400,134245.300,127626.400,-0.174,0.978,-0.152,-4.272,1.251,-0.824,66.667,106.000,1.000,0.009,0.000
124983.500,121598.200,139559.000,130221.700,124865.300,130289.900,134233.300,127604.400,-0.177,0.976,-0.150,-4.517,1.038,-0.977,66.667,107.000,1.000,1.941,0.000
124960.200,121571.500,139529.800,130194.100,124831.900,130259.400,134180.600,127565.300,-0.177,0.972,-0.149,-4.761,0.885,-1.221,66.667,108.000,1.000,8.813,0.000
124940.900,121548.100,139506.400,130172.100,124804.600,130222.500,134140.100,127543.200,-0.177,0.970,-0.147,-5.005,0.854,-1.404,66.667,109.000,1.000,4.314,0.000
124934.000,121545.100,139498.200,130166.800,124799.500,130217.300,134138.400,127543.800,-0.176,0.963,-0.144,-5.035,0.702,-1.556,66.667,110.000,1.000,0.009,0.000
124935.500,121550.700,139498.600,130168.200,124806.700,130228.900,134152.300,127553.900,-0.177,0.960,-0.144,-4.944,0.702,-1.648,66.667,111.000,1.000,1.882,0.000
124941.800,121559.100,139503.900,130176.500,124816.600,130240.000,134163.300,127562.600,-0.177,0.958,-0.145,-4.791,0.641,-1.770,66.667,112.000,1.000,11.252,0.000
124933.600,121553.400,139494.900,130168.000,124810.700,130234.100,134159.900,127555.200,-0.177,0.958,-0.146,-4.486,0.397,-1.801,66.667,113.000,1.000,13.119,0.000
124921.000,121541.500,139483.300,130153.400,124802.400,130220.500,134155.500,127545.200,-0.175,0.957,-0.150,-4.120,0.427,-1.862,66.667,114.000,1.000,0.012,0.000
124917.600,121538.100,139480.600,130149.800,124798.800,130217.300,134150.200,127541.700,-0.174,0.957,-0.148,-3.815,0.427,-1.801,66.667,115.000,1.000,1.898,0.000
124912.000,121534.800,139477.500,130146.000,124793.200,130213.800,134140.300,127533.400,-0.172,0.957,-0.147,-3.448,0.488,-1.709,66.667,116.000,1.000,2.489,0.000
124907.300,121530.400,139474.700,130144.000,124791.700,130214.600,134140.100,127531.800,-0.171,0.958,-0.146,-3.082,0.610,-1.617,66.667,117.000,1.000,2.436,0.000
124912.500,121534.800,139478.100,130146.300,124797.900,130223.400,134149.700,127539.000,-0.171,0.961,-0.144,-2.716,0.793,-1.465,66.667,118.000,1.000,2.571,0.000
124909.700,121528.500,139468.500,130137.100,124791.000,130219.000,134146.700,127534.600,-0.172,0.963,-0.146,-2.472,0.946,-1.190,66.667,119.000,1.000,27.509,0.000
124899.900,121515.000,139453.800,130127.200,124777.000,130206.300,134131.700,127521.300,-0.172,0.962,-0.144,-2.136,1.129,-0.977,66.667,120.000,1.000,2.448,0.000
124891.900,121507.900,139444.400,130117.400,124767.000,130197.000,134118.300,127508.700,-0.175,0.965,-0.144,-1.923,1.282,-0.732,66.667,121.000,1.000,2.496,0.000
124899.000,121513.000,139448.500,130121.400,124768.300,130196.100,134117.800,127509.000,-0.174,0.968,-0.143,-1.801,1.404,-0.549,66.667,122.000,1.000,2.464,0.000
124907.000,121521.400,139454.200,130125.400,124772.700,130201.000,134119.100,127506.700,-0.173,0.970,-0.143,-1.617,1.587,-0.305,66.667,123.000,1.000,5.006,0.000
124894.800,121512.200,139441.000,130110.200,124760.000,130186.300,134105.900,127491.900,-0.173,0.971,-0.143,-1.434,1.678,-0.122,66.667,124.000,1.000,2.560,0.000
124891.700,121509.400,139437.300,130106.900,124756.400,130180.100,134100.500,127491.700,-0.174,0.973,-0.144,-1.404,1.770,-0.031,66.667,125.000,1.000,2.515,0.000
124901.500,121518.300,139444.200,130114.800,124764.600,130189.000,134107.300,127502.000,-0.172,0.976,-0.143,-1.404,1.892,0.153,66.667,126.000,1.000,4.919,0.000
124897.400,121510.700,139434.400,130104.100,124756.500,130177.900,134102.300,127492.000,-0.174,0.976,-0.147,-1.251,2.014,0.244,66.667,127.000,1.000,2.508,0.000
124889.800,121497.700,139423.800,130095.300,124744.100,130160.900,134091.100,127483.100,-0.178,0.979,-0.147,-1.221,2.075,0.305,66.667,128.000,1.000,2.528,0.000
124889.200,121494.300,139424.400,130097.200,124744.500,130160.500,134095.500,127485.800,-0.179,0.979,-0.148,-1.251,2.228,0.427,66.667,129.000,1.000,12.561,0.000
124886.500,121491.100,139419.400,130092.900,124740.300,130157.300,134089.300,127480.000,-0.180,0.980,-0.147,-1.282,2.228,0.519,66.667,130.000,1.000,2.501,0.000
124889.600,121493.400,139421.500,130095.200,124743.200,130157.700,134089.600,127482.100,-0.177,0.978,-0.146,-1.465,2.197,0.488,66.667,131.000,1.000,2.396,0.000
124894.300,121498.100,139426.800,130099.400,124748.700,130158.800,134093.400,127488.500,-0.178,0.977,-0.147,-1.648,2.075,0.488,66.667,132.000,1.000,5.073,0.000
124906.700,121509.600,139438.300,130110.300,124760.800,130169.700,134105.800,127500.400,-0.178,0.975,-0.151,-1.770,2.045,0.427,66.667,133.000,1.000,5.522,0.000
124885.400,121488.100,139416.800,130093.200,124741.500,130152.400,134088.400,127485.300,-0.179,0.975,-0.148,-1.923,2.014,0.336,66.667,134.000,1.000,0.010,0.000
124871.900,121477.800,139403.800,130080.800,124731.900,130147.100,134081.200,127476.600,-0.177,0.975,-0.147,-1.953,1.892,0.244,66.667,135.000,1.000,1.881,0.000
124873.900,121483.800,139406.100,130083.900,124735.600,130151.500,134082.700,127473.600,-0.177,0.975,-0.149,-2.045,1.801,0.275,66.667,136.000,1.000,2.487,0.000
124868.100,121478.700,139399.300,130080.800,124731.300,130148.300,134080.400,127472.600,-0.178,0.975,-0.151,-2.197,1.617,0.122,66.667,137.000,1.000,3.170,0.000
124873.200,121485.000,139403.200,130086.100,124736.200,130152.000,134086.400,127479.300,-0.179,0.976,-0.146,-2.258,1.526,-0.031,66.667,138.000,1.000,0.009,0.000
124877.800,121490.900,139407.200,130088.900,124740.100,130157.300,134087.400,127483.000,-0.176,0.974,-0.149,-2.380,1.343,-0.092,66.667,139.000,1.000,1.888,0.000
124878.800,121491.800,139409.200,130088.900,124742.800,130157.700,134086.000,127488.400,-0.175,0.973,-0.148,-2.563,1.129,-0.092,66.667,140.000,1.000,2.511,0.000
124867.000,121477.600,139396.400,130077.300,124727.800,130143.800,134067.000,127461.100,-0.175,0.972,-0.148,-2.594,0.916,-0.153,66.667,141.000,1.000,2.534,0.000
124862.500,121472.200,139391.800,130073.000,124721.900,130133.100,134060.200,127456.000,-0.174,0.971,-0.151,-2.716,0.763,-0.214,66.667,142.000,1.000,3.028,0.000
124859.300,121468.700,139389.800,130068.500,124719.000,130127.100,134058.500,127455.900,-0.173,0.972,-0.153,-2.808,0.641,-0.305,66.667,143.000,1.000,0.006,0.000
124864.000,121472.600,139395.000,130074.900,124725.900,130133.800,134067.200,127464.200,-0.173,0.972,-0.149,-2.991,0.427,-0.366,66.667,144.000,1.000,1.928,0.000
124853.600,121465.600,139385.300,130065.300,124719.500,130127.500,134058.100,127456.900,-0.173,0.970,-0.151,-3.204,0.244,-0.397,66.667,145.000,1.000,6.225,0.000
124864.500,121481.600,139397.800,130079.800,124736.100,130146.100,134077.900,127474.200,-0.173,0.970,-0.149,-3.265,0.031,-0.458,66.667,146.000,1.000,3.046,0.000
124873.200,121493.400,139407.600,130089.300,124749.900,130159.800,134095.400,127489.100,-0.174,0.970,-0.152,-3.296,-0.183,-0.488,66.667,147.000,1.000,0.008,0.000
124859.800,121485.100,139396.800,130077.000,124743.600,130159.000,134096.000,127480.100,-0.174,0.972,-0.150,-3.418,-0.305,-0.641,66.667,148.000,1.000,11.932,0.000
124856.800,121486.800,139397.500,130077.100,124746.800,130162.000,134103.100,127485.300,-0.175,0.973,-0.149,-3.571,-0.488,-0.824,66.667,149.000,1.000,2.574,0.000
124848.900,121479.500,139391.100,130072.200,124738.900,130151.600,134091.500,127476.800,-0.177,0.973,-0.148,-3.632,-0.854,-0.946,66.667,150.000,1.000,2.444,0.000
124844.500,121469.800,139385.200,130067.000,124727.300,130133.000,134061.500,127464.900,-0.176,0.972,-0.146,-3.723,-0.977,-1.190,66.667,151.000,1.000,2.489,0.000
124836.900,121456.100,139374.800,130057.900,124712.300,130101.300,134029.500,127455.600,-0.176,0.967,-0.146,-3.845,-1.160,-1.221,66.667,152.000,1.000,3.774,0.000
124831.500,121452.100,139370.200,130052.300,124709.200,130097.700,134029.200,127449.600,-0.176,0.960,-0.149,-3.845,-1.312,-1.343,66.667,153.000,1.000,11.789,0.000
124830.400,121450.800,139369.500,130052.400,124711.500,130105.000,134034.200,127448.100,-0.176,0.955,-0.151,-3.510,-1.434,-1.343,66.667,154.000,1.000,0.016,0.000
124825.800,121444.600,139364.100,130047.800,124708.100,130103.100,134032.200,127443.400,-0.175,0.954,-0.152,-3.174,-1.587,-1.190,66.667,155.000,1.000,2.488,0.000
124829.900,121449.600,139365.700,130047.600,124711.000,130111.400,134038.600,127445.300,-0.174,0.953,-0.150,-2.777,-1.617,-1.129,66.667,156.000,1.000,0.014,0.000
124831.700,121448.600,139363.900,130047.000,124710.000,130111.200,134035.300,127447.700,-0.174,0.957,-0.147,-2.350,-1.678,-1.038,66.667,157.000,1.000,1.894,0.000
124824.300,121439.600,139355.600,130040.000,124701.000,130097.400,134030.500,127441.000,-0.175,0.961,-0.147,-1.984,-1.617,-0.916,66.667,158.000,1.000,8.784,0.000
124833.400,121445.600,139364.700,130049.700,124709.500,130105.100,134043.200,127453.900,-0.175,0.961,-0.145,-1.678,-1.648,-0.641,66.667,159.000,1.000,11.826,0.000
124830.800,121442.900,139360.700,130044.600,124706.600,130102.000,134040.900,127451.500,-0.176,0.962,-0.146,-1.404,-1.526,-0.458,66.667,160.000,1.000,0.010,0.000
124833.100,121445.800,139362.300,130047.600,124708.600,130101.600,134040.600,127454.000,-0.177,0.966,-0.144,-1.129,-1.434,-0.183,66.667,161.000,1.000,2.480,0.000
124832.500,121449.700,139365.100,130051.100,124712.000,130103.600,134044.200,127459.800,-0.177,0.969,-0.141,-0.885,-1.526,0.092,66.667,162.000,1.000,0.009,0.000
124832.600,121447.400,139361.700,130048.000,124707.400,130097.600,134038.300,127453.300,-0.177,0.971,-0.139,-0.641,-1.404,0.336,66.667,163.000,1.000,6.944,0.000
124833.500,121447.100,139359.900,130045.700,124704.000,130092.300,134031.400,127449.700,-0.176,0.973,-0.142,-0.488,-1.343,0.427,66.667,164.000,1.000,2.958,0.000
124828.300,121442.000,139355.400,130042.300,124699.600,130084.400,134020.800,127441.800,-0.173,0.979,-0.142,-0.336,-1.282,0.580,66.667,165.000,1.000,0.007,0.000
124839.100,121454.100,139367.100,130054.200,124712.500,130095.000,134029.500,127452.200,-0.172,0.981,-0.144,-0.366,-1.282,0.732,66.667,166.000,1.000,10.721,0.000
124837.000,121455.700,139367.000,130051.700,124713.000,130098.600,134031.600,127448.400,-0.173,0.984,-0.144,-0.427,-1.251,0.763,66.667,167.000,1.000,3.098,0.000
124828.300,121452.000,139361.600,130045.200,124707.200,130097.300,134029.400,127442.300,-0.168,0.986,-0.142,-0.427,-1.038,0.885,66.667,168.000,1.000,0.010,0.000
124828.100,121454.600,139361.300,130045.600,124705.400,130103.900,134030.100,127437.900,-0.166,0.986,-0.146,-0.580,-0.916,0.824,66.667,169.000,1.000,4.388,0.000
124820.300,121448.000,139351.800,130037.200,124696.800,130092.200,134022.400,127430.300,-0.160,0.986,-0.143,-0.793,-0.793,0.763,66.667,170.000,1.000,2.552,0.000
124810.300,121439.800,139340.500,130026.000,124688.100,130088.300,134020.100,127421.100,-0.159,0.985,-0.146,-0.854,-0.427,0.793,66.667,171.000,1.000,6.269,0.000
124801.100,121429.700,139330.100,130017.500,124679.000,130083.900,134018.500,127415.000,-0.156,0.982,-0.145,-1.038,-0.092,0.732,66.667,172.000,1.000,6.169,0.000
124802.700,121431.300,139333.900,130021.400,124684.500,130091.500,134028.500,127424.400,-0.154,0.978,-0.149,-0.977,0.214,0.580,66.667,173.000,1.000,21.901,0.000
124802.300,121429.000,139335.100,130024.100,124686.100,130093.800,134034.100,127429.900,-0.151,0.977,-0.151,-0.946,0.610,0.458,66.667,174.000,1.000,0.015,0.000
124801.700,121426.000,139335.100,130026.900,124684.800,130088.900,134033.200,127433.800,-0.148,0.976,-0.147,-0.977,1.129,0.214,66.667,175.000,1.000,1.871,0.000
124802.000,121428.000,139337.500,130029.600,124686.900,130088.100,134033.000,127438.700,-0.149,0.979,-0.146,-1.099,1.556,-0.061,66.667,176.000,1.000,5.014,0.000
124804.800,121430.300,139341.800,130033.000,124690.900,130092.600,134036.300,127444.600,-0.151,0.979,-0.146,-1.099,2.106,-0.305,66.667,177.000,1.000,9.919,0.000
124812.300,121436.300,139349.800,130040.800,124699.100,130095.600,134047.300,127460.600,-0.154,0.981,-0.148,-1.282,2.563,-0.549,66.667,178.000,1.000,2.590,0.000
124821.800,121445.000,139359.900,130046.600,124707.200,130092.300,134051.900,127467.400,-0.154,0.979,-0.149,-1.495,3.021,-0.702,66.667,179.000,1.000,2.509,0.000
124810.200,121435.900,139349.600,130029.600,124695.700,130076.300,134037.200,127444.100,-0.156,0.975,-0.153,-1.617,3.326,-1.007,66.667,180.000,1.000,2.496,0.000
124808.000,121433.500,139347.700,130026.600,124691.800,130069.900,134020.800,127427.700,-0.158,0.969,-0.152,-1.740,3.693,-1.251,66.667,181.000,1.000,4.981,0.000
124807.000,121435.300,139347.800,130027.300,124697.600,130078.100,134034.700,127434.900,-0.161,0.965,-0.152,-1.831,3.967,-1.404,66.667,182.000,1.000,2.403,0.000
124804.600,121431.900,139344.000,130022.500,124696.000,130075.400,134028.800,127431.700,-0.166,0.964,-0.152,-1.831,4.303,-1.678,66.667,183.000,1.000,5.015,0.000
124802.300,121425.200,139338.800,130019.300,124686.400,130057.000,134006.200,127416.800,-0.166,0.960,-0.154,-1.770,4.608,-1.770,66.667,184.000,1.000,8.775,0.000
124802.000,121425.300,139337.000,130015.700,124684.600,130058.200,134003.900,127412.100,-0.167,0.955,-0.156,-1.801,4.791,-1.923,66.667,185.000,1.000,2.569,0.000
124799.500,121423.700,139334.600,130009.700,124683.800,130066.500,134007.100,127406.600,-0.169,0.951,-0.156,-1.709,4.913,-1.953,66.667,186.000,1.000,4.945,0.000
124793.200,121415.000,139327.700,130004.600,124676.800,130056.800,133996.100,127404.600,-0.169,0.948,-0.155,-1.434,5.005,-1.831,66.667,187.000,1.000,7.455,0.000
124826.600,121445.800,139359.300,130034.700,124704.800,130090.500,134021.800,127437.400,-0.170,0.948,-0.156,-1.282,5.096,-1.678,66.667,188.000,1.000,5.028,0.000
124823.500,121439.800,139353.000,130030.000,124698.100,130089.400,134020.800,127430.300,-0.174,0.952,-0.157,-0.946,5.310,-1.404,66.667,189.000,1.000,4.944,0.000
124816.100,121433.400,139344.200,130019.500,124689.800,130085.100,134014.500,127422.600,-0.178,0.955,-0.155,-0.824,5.280,-1.099,66.667,190.000,1.000,3.161,0.000
124820.200,121438.400,139346.900,130021.300,124693.600,130092.300,134021.300,127431.000,-0.183,0.957,-0.158,-0.641,5.219,-0.977,66.667,191.000,1.000,0.008,0.000
124810.400,121426.700,139331.800,130008.300,124678.800,130081.300,134008.900,127412.200,-0.189,0.962,-0.157,-0.549,5.127,-0.824,66.667,192.000,1.000,1.887,0.000
124798.200,121416.700,139320.500,130000.300,124669.100,130072.900,134003.100,127403.400,-0.194,0.968,-0.158,-0.427,4.761,-0.732,66.667,193.000,1.000,2.525,0.000
124804.400,121426.100,139330.300,130011.100,124681.100,130086.700,134017.800,127416.900,-0.198,0.970,-0.157,-0.427,4.456,-0.519,66.667,194.000,1.000,12.447,0.000
124810.300,121436.200,139339.300,130014.600,124689.700,130095.100,134025.300,127422.800,-0.203,0.973,-0.156,-0.671,3.998,-0.336,66.667,195.000,1.000,12.489,0.000
124815.400,121442.400,139345.600,130016.500,124694.900,130099.300,134029.700,127426.100,-0.206,0.978,-0.156,-0.671,3.418,-0.153,66.667,196.000,1.000,2.491,0.000
124818.900,121448.000,139350.700,130022.400,124699.600,130101.800,134032.200,127431.200,-0.209,0.981,-0.156,-0.946,2.808,-0.092,66.667,197.000,1.000,2.490,0.000
124810.500,121439.400,139344.700,130020.000,124695.300,130093.100,134025.000,127428.100,-0.210,0.982,-0.155,-1.251,2.045,0.122,66.667,198.000,1.000,5.045,0.000
124801.800,121430.200,139336.000,130014.400,124688.600,130079.100,134018.900,127425.100,-0.208,0.989,-0.156,-1.587,1.282,0.122,66.667,199.000,1.000,4.984,0.000
124795.100,121423.300,139328.100,130006.800,124680.800,130067.800,134008.500,127416.100,-0.205,0.992,-0.155,-1.831,0.641,0.244,66.667,200.000,1.000,2.538,0.000
124789.100,121414.200,139318.600,130002.800,124673.700,130061.100,134001.900,127410.700,-0.197,0.992,-0.156,-2.380,-0.427,0.336,66.667,201.000,1.000,2.480,0.000
124796.000,121420.800,139320.300,130009.600,124677.900,130067.200,134009.500,127419.900,-0.193,0.991,-0.154,-2.930,-0.793,0.427,66.667,202.000,1.000,2.511,0.000
124787.300,121415.000,139310.100,129995.200,124669.800,130062.100,134003.100,127408.000,-0.188,0.988,-0.155,-3.448,-1.343,0.580,66.667,203.000,1.000,11.193,0.000
124791.900,121422.400,139318.300,130002.900,124676.900,130070.900,134010.100,127411.900,-0.183,0.986,-0.154,-3.784,-1.740,0.702,66.667,204.000,1.000,2.556,0.000
124799.500,121433.700,139329.400,130010.500,124686.400,130079.900,134018.800,127420.900,-0.180,0.980,-0.155,-4.211,-2.167,0.793,66.667,205.000,1.000,2.434,0.000
124791.800,121426.800,139322.700,130002.000,124679.200,130074.600,134011.800,127415.800,-0.177,0.977,-0.155,-4.425,-2.441,0.793,66.667,206.000,1.000,4.415,0.000
124797.800,121432.000,139329.300,130008.300,124685.500,130078.700,134019.000,127417.600,-0.178,0.974,-0.154,-4.639,-2.594,0.763,66.667,207.000,1.000,0.644,0.000
124806.600,121441.600,139338.600,130016.700,124692.300,130084.700,134020.900,127419.300,-0.175,0.975,-0.157,-4.730,-2.716,0.702,66.667,208.000,1.000,9.998,0.000
124802.100,121436.500,139334.600,130013.000,124692.000,130088.500,134030.500,127420.100,-0.174,0.973,-0.156,-4.913,-2.930,0.763,66.667,209.000,1.000,2.499,0.000
124803.800,121437.900,139333.500,130015.000,124694.400,130104.200,134042.400,127415.700,-0.175,0.972,-0.154,-5.096,-3.143,0.763,66.667,210.000,1.000,3.133,0.000
124812.200,121445.800,139338.300,130021.300,124699.200,130112.400,134047.700,127423.900,-0.175,0.972,-0.151,-5.310,-3.174,0.519,66.667,211.000,1.000,0.007,0.000
124798.500,121427.700,139321.800,130007.200,124676.300,130074.900,134012.400,127405.400,-0.175,0.967,-0.144,-5.554,-3.052,0.244,66.667,212.000,1.000,1.836,0.000
124792.700,121422.500,139315.800,130003.000,124665.200,130058.600,133988.800,127395.900,-0.170,0.963,-0.145,-5.646,-3.082,-0.214,66.667,213.000,1.000,5.049,0.000
124799.500,121431.500,139322.400,130007.700,124670.200,130060.200,133986.700,127397.700,-0.166,0.957,-0.146,-5.493,-2.869,-0.427,66.667,214.000,1.000,2.421,0.000
124799.500,121431.300,139320.700,130006.300,124668.000,130054.200,133982.400,127397.300,-0.161,0.949,-0.146,-5.280,-2.716,-0.641,66.667,215.000,1.000,3.139,0.000
124796.000,121426.700,139315.300,130003.000,124667.700,130057.500,133989.400,127403.300,-0.158,0.945,-0.154,-4.974,-2.472,-0.885,66.667,216.000,1.000,0.009,0.000
124794.100,121422.900,139313.700,130003.900,124667.800,130057.700,133995.400,127408.200,-0.156,0.945,-0.152,-4.425,-2.258,-0.946,66.667,217.000,1.000,1.886,0.000
124787.000,121415.000,139307.600,129998.100,124661.700,130051.800,133991.900,127403.000,-0.156,0.950,-0.148,-3.906,-1.892,-1.068,66.667,218.000,1.000,2.526,0.000
124793.500,121423.200,139316.200,130003.700,124671.400,130071.200,134008.600,127413.000,-0.154,0.956,-0.145,-3.418,-1.404,-1.007,66.667,219.000,1.000,2.421,0.000
124794.400,121421.600,139317.400,130006.100,124672.500,130074.500,134012.500,127413.500,-0.156,0.957,-0.143,-3.143,-0.916,-1.038,66.667,220.000,1.000,5.082,0.000
124794.400,121420.500,139317.200,130006.800,124672.800,130073.800,134014.600,127413.400,-0.157,0.957,-0.144,-2.747,-0.427,-1.068,66.667,221.000,1.000,3.021,0.000
124796.800,121423.900,139319.100,130010.200,124676.200,130077.400,134018.000,127421.100,-0.158,0.958,-0.150,-2.441,-0.031,-1.068,66.667,222.000,1.000,0.007,0.000
124796.600,121425.300,139318.300,130007.900,124678.000,130085.300,134023.900,127422.400,-0.161,0.957,-0.151,-2.106,0.397,-1.160,66.667,223.000,1.000,1.882,0.000
124791.500,121421.900,139313.700,130001.700,124674.100,130081.800,134021.100,127420.400,-0.163,0.958,-0.147,-1.648,0.793,-1.129,66.667,224.000,1.000,2.600,0.000
124791.900,121423.500,139315.600,130003.700,124677.900,130083.500,134022.900,127426.200,-0.164,0.960,-0.147,-1.312,1.190,-1.221,66.667,225.000,1.000,7.430,0.000
124791.500,121421.800,139315.600,130005.200,124679.500,130083.000,134024.500,127429.500,-0.166,0.962,-0.145,-1.099,1.587,-1.099,66.667,226.000,1.000,5.636,0.000
124785.900,121415.500,139309.300,130001.600,124673.600,130076.900,134017.800,127426.200,-0.169,0.967,-0.145,-0.946,1.862,-0.977,66.667,227.000,1.000,0.014,0.000
124783.600,121413.600,139305.700,130000.700,124671.100,130070.500,134014.100,127424.800,-0.171,0.970,-0.147,-0.732,2.197,-0.793,66.667,228.000,1.000,1.848,0.000
124789.400,121419.400,139310.000,130006.800,124676.300,130073.600,134017.900,127428.300,-0.172,0.971,-0.148,-0.763,2.289,-0.702,66.667,229.000,1.000,3.125,0.000
124791.900,121420.000,139311.200,130006.600,124678.300,130076.200,134017.600,127429.900,-0.173,0.973,-0.146,-0.763,2.472,-0.580,66.667,230.000,1.000,0.010,0.000
124793.200,121420.700,139311.900,130006.100,124680.200,130079.400,134020.400,127431.900,-0.174,0.977,-0.149,-0.885,2.716,-0.488,66.667,231.000,1.000,4.981,0.000
124794.900,121420.300,139312.700,130008.400,124679.200,130076.500,134021.900,127430.600,-0.175,0.978,-0.154,-1.007,2.838,-0.336,66.667,232.000,1.000,0.011,0.000
124789.200,121414.500,139305.000,129998.600,124671.100,130069.800,134015.900,127417.600,-0.178,0.979,-0.153,-1.068,3.052,-0.122,66.667,233.000,1.000,1.850,0.000
124789.200,121410.700,139302.300,129996.400,124666.100,130058.200,134001.500,127414.300,-0.180,0.980,-0.151,-1.373,3.235,0.000,66.667,234.000,1.000,8.821,0.000
124794.800,121414.300,139307.900,130002.000,124672.500,130065.500,134008.500,127419.700,-0.179,0.981,-0.148,-1.556,3.387,0.031,66.667,235.000,1.000,9.290,0.000
124802.400,121422.400,139316.200,130007.000,124680.500,130075.300,134015.300,127423.400,-0.179,0.980,-0.149,-1.801,3.510,0.031,66.667,236.000,1.000,0.008,0.000
124799.300,121420.800,139313.800,130001.700,124676.800,130072.200,134009.100,127412.600,-0.180,0.981,-0.152,-1.984,3.540,0.153,66.667,237.000,1.000,2.484,0.000
124791.900,121414.300,139307.400,129992.700,124667.400,130063.000,134000.900,127401.000,-0.181,0.982,-0.155,-2.380,3.510,0.092,66.667,238.000,1.000,0.010,0.000
124803.300,121426.100,139317.200,130001.100,124676.200,130074.500,134009.600,127410.900,-0.180,0.983,-0.153,-2.625,3.601,0.183,66.667,239.000,1.000,1.940,0.000
124802.000,121423.000,139311.800,129995.500,124668.900,130068.500,133995.900,127402.300,-0.182,0.984,-0.152,-2.930,3.571,0.305,66.667,240.000,1.000,8.735,0.000
124786.500,121406.500,139295.000,129978.600,124651.900,130051.900,133981.800,127386.400,-0.181,0.984,-0.152,-3.235,3.479,0.275,66.667,241.000,1.000,8.102,0.000
124779.100,121399.600,139287.700,129974.500,124646.500,130044.200,133979.000,127386.000,-0.182,0.981,-0.155,-3.510,3.448,0.336,66.667,242.000,1.000,0.006,0.000
124786.800,121410.300,139296.800,129986.200,124656.900,130054.600,133992.100,127397.600,-0.182,0.976,-0.154,-3.632,3.448,0.427,66.667,243.000,1.000,8.730,0.000
124802.000,121428.200,139314.300,130001.500,124674.300,130074.300,134010.900,127411.200,-0.181,0.974,-0.154,-3.784,3.357,0.610,66.667,244.000,1.000,0.010,0.000
124808.700,121434.400,139321.700,130009.800,124679.300,130078.400,134012.800,127415.100,-0.179,0.973,-0.158,-3.906,3.265,0.610,66.667,245.000,1.000,11.264,0.000
124801.000,121425.700,139314.800,130001.600,124672.700,130065.900,134005.900,127412.700,-0.178,0.977,-0.154,-3.937,3.235,0.610,66.667,246.000,1.000,0.015,0.000
124796.800,121420.300,139311.400,129997.900,124669.900,130060.700,134003.800,127408.300,-0.177,0.981,-0.150,-4.089,2.991,0.580,66.667,247.000,1.000,3.052,0.000
124806.600,121426.500,139318.300,130005.300,124677.200,130068.500,134013.300,127411.900,-0.178,0.980,-0.146,-4.333,2.899,0.671,66.667,248.000,1.000,0.012,0.000
124800.100,121417.600,139311.000,129997.500,124668.900,130058.300,134003.900,127404.800,-0.177,0.979,-0.152,-4.456,2.716,0.885,66.667,249.000,1.000,0.004,0.000
124796.400,121415.200,139308.900,129995.300,124667.400,130055.200,134005.300,127407.100,-0.176,0.979,-0.153,-4.517,2.533,0.977,66.667,250.000,1.000,3.805,0.000
124799.500,121418.600,139312.700,130000.600,124672.400,130064.900,134012.800,127414.300,-0.176,0.977,-0.153,-4.730,2.411,1.099,66.667,251.000,1.000,3.710,0.000
124804.000,121422.800,139316.000,130001.100,124675.500,130069.800,134013.400,127412.600,-0.178,0.976,-0.154,-4.761,2.258,1.343,66.667,252.000,1.000,8.752,0.000
124804.000,121425.000,139315.800,130000.100,124676.500,130073.900,134016.200,127412.000,-0.179,0.973,-0.150,-5.005,1.892,1.343,66.667,253.000,1.000,18.832,0.000
124792.400,121414.100,139302.700,129988.700,124664.600,130062.100,134007.300,127401.600,-0.183,0.971,-0.149,-5.066,1.526,1.190,66.667,254.000,1.000,0.028,0.000
124792.500,121413.200,139301.400,129989.500,124665.200,130062.400,134008.500,127403.100,-0.185,0.969,-0.148,-5.096,1.343,1.007,66.667,255.000,1.000,0.006,0.000
124794.800,121413.400,139303.000,129992.700,124666.600,130063.300,134005.500,127405.800,-0.184,0.970,-0.147,-5.157,0.946,0.793,66.667,256.000,1.000,3.671,0.000
124795.400,121415.000,139304.200,129994.400,124668.000,130066.100,134006.200,127406.900,-0.183,0.969,-0.147,-5.035,0.427,0.580,66.667,257.000,1.000,12.472,0.000
124789.400,121409.000,139297.800,129984.000,124661.000,130063.600,134001.200,127400.300,-0.183,0.968,-0.145,-4.822,0.061,0.366,66.667,258.000,1.000,0.023,0.000
124791.200,121412.400,139299.600,129984.900,124662.700,130065.100,134002.800,127409.100,-0.183,0.967,-0.144,-4.761,-0.336,0.092,66.667,259.000,1.000,0.004,0.000
124783.000,121404.000,139292.300,129979.300,124652.900,130048.200,133979.600,127395.600,-0.182,0.964,-0.144,-4.669,-0.610,-0.153,66.667,260.000,1.000,2.421,0.000
124773.200,121400.200,139284.900,129974.300,124646.800,130045.900,133971.400,127388.300,-0.178,0.960,-0.144,-4.486,-1.007,-0.336,66.667,261.000,1.000,2.565,0.000
124772.700,121405.900,139287.200,129975.200,124651.600,130059.700,133981.600,127392.000,-0.175,0.960,-0.145,-4.242,-1.221,-0.580,66.667,262.000,1.000,2.477,0.000
124775.900,121408.300,139291.300,129978.400,124655.900,130061.900,133990.000,127396.000,-0.171,0.959,-0.146,-3.998,-1.373,-0.732,66.667,263.000,1.000,2.549,0.000
124775.200,121405.100,139290.800,129981.800,124651.900,130050.900,133984.500,127392.900,-0.167,0.959,-0.146,-3.693,-1.434,-0.793,66.667,264.000,1.000,4.932,0.000
124768.600,121399.300,139284.300,129978.400,124644.900,130041.600,133977.500,127388.000,-0.163,0.961,-0.145,-3.418,-1.434,-0.854,66.667,265.000,1.000,2.501,0.000
124770.500,121404.300,139286.300,129977.500,124646.700,130046.800,133980.300,127386.400,-0.161,0.961,-0.145,-3.052,-1.282,-0.793,66.667,266.000,1.000,2.978,0.000
124776.000,121411.500,139291.700,129981.000,124652.900,130054.400,133985.400,127391.400,-0.160,0.963,-0.145,-2.655,-1.160,-0.793,66.667,267.000,1.000,0.011,0.000
124775.900,121409.200,139288.600,129977.500,124650.900,130052.600,133982.700,127388.500,-0.160,0.965,-0.143,-2.472,-0.916,-0.885,66.667,268.000,1.000,3.194,0.000
124785.200,121415.800,139296.400,129984.600,124660.600,130061.000,133990.600,127394.500,-0.160,0.967,-0.142,-2.197,-0.702,-0.946,66.667,269.000,1.000,13.683,0.000
124793.500,121424.800,139307.600,129992.700,124672.600,130069.400,134000.800,127404.200,-0.160,0.969,-0.143,-2.045,-0.397,-0.916,66.667,270.000,1.000,3.149,0.000
124792.300,121419.900,139302.000,129991.600,124667.200,130061.100,133992.000,127403.600,-0.161,0.970,-0.146,-1.923,-0.153,-0.885,66.667,271.000,1.000,0.006,0.000
124788.500,121411.200,139292.000,129986.200,124657.400,130051.500,133980.100,127395.200,-0.162,0.971,-0.146,-1.862,0.122,-0.885,66.667,272.000,1.000,1.889,0.000
124788.100,121412.000,139292.300,129985.100,124658.300,130054.400,133983.600,127395.600,-0.162,0.973,-0.143,-1.770,0.336,-0.885,66.667,273.000,1.000,2.573,0.000
124783.400,121406.700,139286.300,129980.700,124654.600,130046.800,133982.500,127396.300,-0.161,0.975,-0.145,-1.678,0.824,-0.793,66.667,274.000,1.000,8.698,0.000
124780.000,121402.500,139283.100,129980.400,124653.200,130044.900,133986.000,127395.600,-0.164,0.977,-0.144,-1.678,1.099,-0.824,66.667,275.000,1.000,3.078,0.000
124777.100,121399.200,139281.000,129977.300,124651.000,130045.100,133985.200,127391.900,-0.162,0.978,-0.144,-1.648,1.434,-0.702,66.667,276.000,1.000,0.005,0.000
124778.200,121397.500,139280.500,129975.700,124647.500,130041.300,133981.200,127388.400,-0.165,0.977,-0.146,-1.770,1.678,-0.580,66.667,277.000,1.000,1.952,0.000
124782.700,121399.200,139283.400,129976.400,124645.800,130037.400,133979.300,127388.200,-0.165,0.978,-0.146,-1.770,1.984,-0.519,66.667,278.000,1.000,33.769,0.000
124779.800,121395.000,139279.500,129971.100,124640.800,130032.900,133974.700,127385.400,-0.165,0.978,-0.148,-1.862,2.319,-0.549,66.667,279.000,1.000,2.420,0.000
124786.900,121401.900,139287.100,129980.200,124649.700,130042.100,133984.500,127396.800,-0.167,0.978,-0.149,-2.075,2.533,-0.580,66.667,280.000,1.000,6.281,0.000
124784.600,121400.400,139287.500,129981.800,124649.600,130041.300,133984.400,127399.000,-0.170,0.978,-0.152,-2.167,2.777,-0.610,66.667,281.000,1.000,2.484,0.000
124771.800,121388.400,139273.700,129968.200,124635.200,130027.900,133972.200,127383.900,-0.173,0.977,-0.151,-2.380,2.960,-0.549,66.667,282.000,1.000,2.521,0.000
124767.100,121385.300,139268.700,129966.600,124631.800,130028.600,133976.100,127388.900,-0.175,0.978,-0.150,-2.472,3.082,-0.488,66.667,283.000,1.000,2.489,0.000
124763.100,121380.300,139261.900,129959.500,124623.100,130021.600,133964.200,127376.500,-0.175,0.979,-0.154,-2.594,3.052,-0.488,66.667,284.000,1.000,5.041,0.000
124766.000,121384.100,139263.800,129957.500,124623.000,130019.500,133954.100,127366.200,-0.176,0.980,-0.154,-2.808,3.082,-0.305,66.667,285.000,1.000,2.456,0.000
124765.200,121385.300,139265.000,129957.800,124625.900,130022.600,133959.900,127366.100,-0.175,0.977,-0.149,-2.991,3.082,-0.275,66.667,286.000,1.000,2.496,0.000
124776.700,121400.700,139280.300,129971.100,124645.000,130042.500,133984.300,127383.800,-0.175,0.976,-0.147,-3.204,3.113,-0.214,66.667,287.000,1.000,2.472,0.000
124785.100,121408.800,139289.400,129980.900,124653.700,130044.600,133988.600,127391.000,-0.175,0.974,-0.148,-3.357,3.204,-0.244,66.667,288.000,1.000,2.503,0.000
124787.700,121410.000,139292.000,129984.400,124656.300,130047.300,133986.200,127389.800,-0.177,0.970,-0.148,-3.510,3.113,-0.214,66.667,289.000,1.000,2.527,0.000
124782.000,121406.100,139288.900,129981.800,124656.400,130043.000,133983.200,127393.700,-0.177,0.969,-0.149,-3.540,3.052,-0.122,66.667,290.000,1.000,3.012,0.000
124784.000,121411.600,139293.900,129988.000,124663.600,130045.200,133988.100,127402.400,-0.177,0.965,-0.152,-3.510,3.052,-0.092,66.667,291.000,1.000,0.010,0.000
124775.700,121405.600,139286.300,129982.100,124657.700,130038.300,133981.100,127393.100,-0.178,0.964,-0.151,-3.418,3.021,-0.122,66.667,292.000,1.000,1.892,0.000
124764.200,121392.700,139273.300,129968.600,124646.200,130026.600,133971.200,127380.500,-0.178,0.964,-0.149,-3.387,2.838,-0.092,66.667,293.000,1.000,2.511,0.000
124768.700,121397.300,139279.000,129971.700,124650.400,130033.100,133979.800,127386.300,-0.178,0.965,-0.147,-3.265,2.716,-0.153,66.667,294.000,1.000,2.564,0.000
124777.500,121407.200,139289.200,129977.500,124657.100,130038.200,133987.700,127392.900,-0.178,0.967,-0.146,-3.174,2.594,-0.122,66.667,295.000,1.000,3.078,0.000
124776.000,121404.700,139288.700,129976.600,124656.400,130037.400,133987.200,127393.300,-0.178,0.965,-0.147,-2.991,2.441,0.000,66.667,296.000,1.000,0.007,0.000
124781.200,121412.000,139296.300,129985.700,124664.900,130046.800,133998.600,127403.400,-0.181,0.966,-0.149,-2.930,2.258,-0.092,66.667,297.000,1.000,8.159,0.000
124778.100,121413.200,139296.200,129984.800,124665.600,130048.200,133999.800,127405.500,-0.181,0.968,-0.151,-2.930,2.167,-0.244,66.667,298.000,1.000,4.327,0.000
124777.800,121413.300,139294.600,129983.300,124665.600,130045.400,133999.200,127404.400,-0.183,0.969,-0.147,-2.899,1.953,-0.275,66.667,299.000,1.000,0.010,0.000
124781.200,121414.500,139296.300,129986.000,124667.500,130048.800,134000.400,127408.300,-0.184,0.972,-0.143,-2.777,1.709,-0.427,66.667,300.000,1.000,6.249,0.000
124772.500,121406.100,139286.100,129975.900,124657.200,130040.600,133989.700,127397.600,-0.181,0.972,-0.143,-2.655,1.434,-0.549,66.667,301.000,1.000,0.009,0.000
124768.200,121402.700,139282.300,129971.800,124651.200,130036.600,133982.500,127392.900,-0.183,0.973,-0.145,-2.594,1.221,-0.610,66.667,302.000,1.000,13.193,0.000
124771.600,121404.700,139285.200,129977.300,124653.300,130037.800,133981.600,127393.600,-0.180,0.973,-0.143,-2.625,1.099,-0.793,66.667,303.000,1.000,9.899,0.000
124771.600,121404.300,139285.700,129977.900,124652.800,130035.800,133984.200,127392.700,-0.179,0.974,-0.146,-2.655,0.824,-0.702,66.667,304.000,1.000,0.008,0.000
124765.000,121398.900,139281.400,129971.300,124647.700,130031.700,133981.200,127387.600,-0.178,0.974,-0.147,-2.747,0.610,-0.671,66.667,305.000,1.000,0.003,0.000
124768.000,121403.400,139284.500,129973.500,124652.500,130039.800,133988.300,127391.300,-0.178,0.974,-0.149,-2.686,0.549,-0.732,66.667,306.000,1.000,3.123,0.000
124770.800,121406.300,139285.900,129975.800,124657.200,130045.400,133996.800,127398.500,-0.174,0.976,-0.154,-2.838,0.397,-0.793,66.667,307.000,1.000,0.013,0.000
124774.500,121408.100,139285.900,129977.300,124657.700,130045.700,133998.400,127399.700,-0.172,0.978,-0.150,-2.869,0.519,-0.824,66.667,308.000,1.000,1.908,0.000
124781.200,121413.400,139287.900,129981.100,124663.900,130058.500,134009.200,127400.800,-0.170,0.979,-0.148,-3.052,0.580,-0.854,66.667,309.000,1.000,8.700,0.000
124773.600,121404.500,139277.100,129973.600,124658.500,130058.500,134011.300,127398.600,-0.167,0.979,-0.146,-3.052,0.702,-0.824,66.667,310.000,1.000,6.870,0.000
124774.400,121400.500,139275.400,129973.300,124655.100,130049.100,134003.500,127398.500,-0.166,0.978,-0.150,-3.235,0.916,-0.854,66.667,311.000,1.000,0.008,0.000
124775.700,121400.300,139275.300,129970.900,124651.600,130041.800,133997.500,127393.100,-0.166,0.977,-0.147,-3.510,1.221,-0.732,66.667,312.000,1.000,2.464,0.000
124774.700,121393.900,139270.700,129966.800,124642.200,130025.600,133975.100,127385.100,-0.167,0.975,-0.144,-3.571,1.434,-0.702,66.667,313.000,1.000,0.008,0.000
124782.200,121396.200,139276.800,129974.400,124646.100,130026.700,133973.500,127392.300,-0.166,0.973,-0.144,-3.601,1.923,-0.732,66.667,314.000,1.000,10.683,0.000
124783.300,121398.300,139278.000,129971.600,124648.400,130033.500,133984.700,127397.400,-0.162,0.970,-0.144,-3.632,2.197,-0.702,66.667,315.000,1.000,9.429,0.000
124784.400,121396.300,139276.000,129969.100,124642.400,130023.800,133969.000,127387.000,-0.161,0.968,-0.146,-3.693,2.502,-0.671,66.667,316.000,1.000,0.024,0.000
124785.000,121395.500,139275.300,129974.300,124642.900,130025.400,133963.300,127384.200,-0.159,0.967,-0.145,-3.510,2.777,-0.610,66.667,317.000,1.000,2.935,0.000
124772.900,121385.900,139264.600,129963.500,124634.600,130019.000,133958.900,127380.400,-0.159,0.966,-0.145,-3.357,3.204,-0.458,66.667,318.000,1.000,0.012,0.000
124762.400,121379.900,139257.300,129952.100,124630.300,130017.200,133961.300,127374.500,-0.162,0.967,-0.145,-3.204,3.571,-0.305,66.667,319.000,1.000,0.006,0.000
124760.300,121381.700,139256.000,129949.600,124630.000,130023.100,133961.600,127367.600,-0.162,0.966,-0.143,-2.960,3.998,-0.305,66.667,320.000,1.000,3.810,0.000
124755.800,121377.300,139250.800,129944.000,124623.100,130016.900,133951.900,127358.700,-0.164,0.966,-0.143,-2.869,4.364,-0.183,66.667,321.000,1.000,3.805,0.000
124760.200,121381.400,139257.000,129948.700,124626.500,130017.200,133957.200,127362.800,-0.170,0.967,-0.143,-2.747,4.669,-0.092,66.667,322.000,1.000,8.659,0.000
124764.000,121384.300,139261.800,129952.000,124628.800,130018.600,133961.200,127364.400,-0.171,0.967,-0.141,-2.533,4.883,-0.092,66.667,323.000,1.000,9.337,0.000
124780.000,121401.800,139277.600,129964.900,124645.700,130033.200,133977.900,127380.600,-0.175,0.968,-0.144,-2.289,5.066,-0.153,66.667,324.000,1.000,0.014,0.000
124786.800,121410.200,139284.500,129972.100,124654.400,130041.800,133988.100,127393.000,-0.179,0.969,-0.144,-2.075,5.096,-0.153,66.667,325.000,1.000,2.434,0.000
124780.800,121403.300,139279.500,129971.500,124650.100,130033.400,133982.000,127390.600,-0.181,0.969,-0.143,-1.862,4.944,-0.275,66.667,326.000,1.000,0.005,0.000
124776.300,121399.200,139275.600,129969.900,124645.500,130029.100,133977.100,127384.800,-0.185,0.973,-0.145,-1.709,4.883,-0.214,66.667,327.000,1.000,10.726,0.000
124766.800,121391.300,139266.600,129960.300,124636.200,130020.100,133969.800,127375.800,-0.183,0.973,-0.144,-1.709,4.761,-0.244,66.667,328.000,1.000,3.130,0.000
124771.600,121397.600,139271.800,129965.700,124642.100,130026.700,133975.900,127383.600,-0.186,0.971,-0.144,-1.526,4.486,-0.305,66.667,329.000,1.000,0.026,0.000
124785.200,121415.100,139287.300,129979.800,124658.300,130043.900,133992.200,127395.000,-0.186,0.972,-0.144,-1.343,4.181,-0.275,66.667,330.000,1.000,10.598,0.000
124776.800,121408.000,139280.300,129973.300,124651.800,130037.300,133984.800,127389.200,-0.187,0.972,-0.148,-1.343,3.876,-0.366,66.667,331.000,1.000,2.468,0.000
124770.400,121402.500,139275.400,129967.000,124646.300,130032.400,133982.000,127383.700,-0.187,0.971,-0.147,-1.251,3.632,-0.427,66.667,332.000,1.000,2.534,0.000
124769.900,121403.000,139274.900,129965.000,124645.000,130034.100,133982.100,127383.000,-0.186,0.972,-0.146,-1.251,3.235,-0.458,66.667,333.000,1.000,4.955,0.000
124769.800,121398.900,139272.700,129967.400,124644.800,130030.800,133981.400,127386.300,-0.185,0.973,-0.148,-1.312,2.869,-0.336,66.667,334.000,1.000,2.517,0.000
124781.600,121408.200,139282.300,129980.000,124656.900,130041.500,133992.300,127401.400,-0.187,0.974,-0.152,-1.343,2.380,-0.366,66.667,335.000,1.000,4.339,0.000
124780.100,121405.600,139282.200,129978.700,124657.300,130042.500,133994.300,127403.400,-0.188,0.974,-0.148,-1.373,1.923,-0.366,66.667,336.000,1.000,0.085,0.000
124775.000,121398.500,139277.300,129975.500,124652.800,130040.900,133992.800,127402.200,-0.186,0.975,-0.149,-1.526,1.495,-0.366,66.667,337.000,1.000,5.605,0.000
124775.800,121401.400,139278.100,129976.600,124654.400,130043.700,133993.500,127402.400,-0.185,0.975,-0.148,-1.709,1.007,-0.336,66.667,338.000,1.000,14.321,0.000
124776.400,121405.600,139279.300,129976.800,124656.000,130044.200,133995.500,127405.200,-0.182,0.973,-0.150,-1.770,0.549,-0.366,66.667,339.000,1.000,0.010,0.000
124770.900,121400.900,139273.700,129970.800,124650.000,130035.500,133988.000,127392.600,-0.184,0.973,-0.151,-1.862,0.153,-0.366,66.667,340.000,1.000,1.882,0.000
124768.300,121397.300,139270.700,129968.300,124646.700,130029.600,133984.000,127389.500,-0.184,0.974,-0.151,-1.984,-0.275,-0.214,66.667,341.000,1.000,7.501,0.000
124766.700,121397.900,139271.400,129967.400,124649.900,130033.800,133992.400,127400.800,-0.182,0.975,-0.156,-2.258,-0.671,-0.244,66.667,342.000,1.000,2.521,0.000
124777.000,121412.500,139283.900,129980.100,124666.200,130061.100,134014.700,127414.300,-0.182,0.976,-0.155,-2.411,-1.038,-0.336,66.667,343.000,1.000,3.148,0.000
124776.600,121416.700,139287.200,129982.000,124670.700,130072.600,134023.900,127412.600,-0.183,0.978,-0.155,-2.655,-1.434,-0.458,66.667,344.000,1.000,0.012,0.000
124770.800,121410.600,139280.500,129974.600,124663.400,130062.000,134016.100,127401.900,-0.181,0.976,-0.151,-2.869,-1.862,-0.610,66.667,345.000,1.000,1.785,0.000
124772.200,121410.100,139278.700,129972.000,124659.600,130054.600,134005.700,127402.300,-0.180,0.974,-0.151,-3.082,-2.106,-0.641,66.667,346.000,1.000,8.808,0.000
124766.600,121397.500,139270.200,129967.100,124646.600,130028.900,133977.100,127393.100,-0.177,0.970,-0.151,-3.387,-2.258,-0.732,66.667,347.000,1.000,3.036,0.000
124757.300,121379.500,139255.400,129956.300,124632.200,130002.700,133957.800,127382.500,-0.172,0.968,-0.148,-3.448,-2.411,-0.854,66.667,348.000,1.000,0.010,0.000
124760.300,121377.000,139254.900,129960.100,124632.100,129998.600,133960.400,127384.100,-0.168,0.964,-0.149,-3.510,-2.411,-0.793,66.667,349.000,1.000,1.938,0.000
124763.200,121381.200,139257.500,129960.100,124636.100,130009.600,133972.000,127384.000,-0.165,0.964,-0.152,-3.448,-2.258,-0.793,66.667,350.000,1.000,8.751,0.000
124768.200,121391.500,139264.700,129960.500,124644.100,130024.000,133982.400,127386.100,-0.163,0.964,-0.150,-3.326,-2.167,-0.671,66.667,351.000,1.000,2.476,0.000
124767.500,121388.000,139263.800,129961.100,124640.800,130012.300,133968.200,127381.000,-0.160,0.965,-0.149,-3.204,-2.045,-0.671,66.667,352.000,1.000,3.771,0.000
124764.200,121386.100,139263.400,129958.700,124639.100,130005.700,133963.700,127383.000,-0.158,0.960,-0.148,-3.082,-1.740,-0.610,66.667,353.000,1.000,14.402,0.000
124767.400,121395.800,139272.200,129962.800,124648.500,130019.400,133973.900,127386.900,-0.154,0.957,-0.147,-2.747,-1.526,-0.610,66.667,354.000,1.000,0.017,0.000
124765.500,121397.600,139275.600,129965.000,124653.400,130020.900,133977.600,127391.700,-0.151,0.957,-0.146,-2.380,-1.038,-0.732,66.667,355.000,1.000,1.849,0.000
124765.100,121394.600,139278.500,129969.200,124657.900,130021.300,133985.000,127398.600,-0.151,0.959,-0.148,-1.953,-0.610,-0.519,66.667,356.000,1.000,6.233,0.000
124767.600,121397.200,139281.200,129971.600,124661.500,130027.800,133990.700,127401.100,-0.154,0.963,-0.146,-1.709,-0.092,-0.519,66.667,357.000,1.000,2.451,0.000
124759.200,121390.500,139273.700,129963.300,124652.600,130022.000,133983.400,127390.900,-0.158,0.967,-0.144,-1.465,0.305,-0.580,66.667,358.000,1.000,2.521,0.000
124753.900,121388.500,139268.900,129959.600,124648.600,130022.000,133981.100,127389.400,-0.160,0.973,-0.143,-1.190,0.702,-0.488,66.667,359.000,1.000,2.468,0.000
124748.800,121383.800,139260.000,129953.900,124640.700,130018.000,133975.000,127382.100,-0.164,0.979,-0.143,-1.099,1.190,-0.641,66.667,360.000,1.000,4.354,0.000
124764.200,121397.800,139270.500,129964.800,124650.400,130031.300,133984.600,127390.700,-0.164,0.977,-0.143,-1.007,1.587,-0.793,66.667,361.000,1.000,0.010,0.000
124771.800,121405.400,139276.500,129971.500,124656.100,130039.100,133988.400,127396.700,-0.163,0.978,-0.142,-0.885,1.923,-0.885,66.667,362.000,1.000,10.685,0.000
124770.400,121403.100,139275.600,129968.900,124656.200,130039.500,133989.700,127396.600,-0.163,0.978,-0.142,-0.671,2.289,-1.099,66.667,363.000,1.000,3.036,0.000
124765.700,121394.500,139271.000,129965.900,124650.800,130032.900,133983.300,127394.100,-0.162,0.974,-0.147,-0.549,2.625,-1.099,66.667,364.000,1.000,0.010,0.000
124770.900,121397.000,139274.300,129968.900,124652.000,130035.100,133981.600,127393.400,-0.162,0.976,-0.147,-0.488,3.113,-1.129,66.667,365.000,1.000,5.641,0.000
124769.900,121393.300,139272.200,129966.900,124648.700,130030.500,133979.500,127391.600,-0.159,0.974,-0.146,-0.305,3.326,-1.251,66.667,366.000,1.000,4.345,0.000
124764.600,121388.700,139268.800,129965.100,124645.300,130024.800,133978.200,127387.200,-0.160,0.974,-0.146,-0.244,3.723,-1.160,66.667,367.000,1.000,0.007,0.000
124760.200,121385.900,139266.200,129961.900,124644.000,130020.600,133977.800,127388.300,-0.163,0.977,-0.147,-0.214,4.089,-1.099,66.667,368.000,1.000,5.612,0.000
124763.200,121393.100,139270.600,129967.600,124650.900,130028.000,133986.500,127398.300,-0.167,0.976,-0.146,-0.214,4.333,-1.129,66.667,369.000,1.000,9.438,0.000
124760.600,121391.300,139265.100,129962.800,124646.000,130024.200,133983.000,127394.100,-0.170,0.976,-0.148,-0.275,4.608,-1.068,66.667,370.000,1.000,0.012,0.000
124766.800,121392.800,139265.100,129963.400,124645.200,130022.600,133980.400,127395.200,-0.173,0.976,-0.151,-0.397,4.669,-1.038,66.667,371.000,1.000,1.860,0.000
124758.800,121380.500,139256.100,129953.700,124636.200,130013.800,133971.100,127385.500,-0.174,0.976,-0.152,-0.580,4.608,-0.977,66.667,372.000,1.000,8.739,0.000
124758.900,121376.100,139252.700,129949.100,124631.400,130006.100,133965.100,127378.700,-0.177,0.976,-0.152,-0.641,4.700,-0.854,66.667,373.000,1.000,3.061,0.000
124771.200,121385.300,139261.900,129955.900,124638.100,130013.300,133968.000,127381.200,-0.181,0.977,-0.154,-0.732,4.700,-0.763,66.667,374.000,1.000,0.010,0.000
124768.600,121384.900,139258.300,129950.200,124633.200,130010.700,133960.000,127372.900,-0.188,0.977,-0.152,-0.977,4.517,-0.763,66.667,375.000,1.000,1.932,0.000
124776.700,121394.500,139266.800,129959.800,124642.100,130021.600,133972.300,127384.900,-0.195,0.977,-0.154,-1.099,4.272,-0.854,66.667,376.000,1.000,14.292,0.000
124795.000,121409.000,139282.800,129977.000,124659.100,130038.700,133991.500,127401.600,-0.196,0.978,-0.157,-1.282,3.784,-0.885,66.667,377.000,1.000,0.009,0.000
124809.000,121425.500,139296.500,129991.600,124675.200,130054.800,134010.900,127420.300,-0.199,0.982,-0.158,-1.434,3.143,-0.885,66.667,378.000,1.000,2.581,0.000
124804.100,121424.300,139292.900,129988.800,124673.900,130054.700,134008.500,127420.600,-0.199,0.985,-0.156,-1.831,2.625,-0.854,66.667,379.000,1.000,0.014,0.000
124801.100,121422.800,139292.400,129987.100,124673.900,130057.300,134008.600,127418.000,-0.194,0.986,-0.156,-2.106,1.953,-0.793,66.667,380.000,1.000,5.539,0.000
124793.800,121416.800,139287.300,129985.300,124669.900,130051.700,134005.700,127419.800,-0.192,0.985,-0.155,-2.502,1.526,-0.671,66.667,381.000,1.000,12.574,0.000
124791.300,121413.900,139286.000,129983.900,124667.000,130048.600,134001.200,127416.800,-0.189,0.981,-0.154,-2.869,1.099,-0.549,66.667,382.000,1.000,3.072,0.000
124797.300,121422.100,139291.700,129985.100,124670.700,130057.900,134006.000,127407.900,-0.188,0.979,-0.156,-3.204,0.641,-0.427,66.667,383.000,1.000,0.010,0.000
124797.500,121422.600,139289.200,129978.300,124669.500,130066.400,134012.500,127402.600,-0.187,0.976,-0.155,-3.540,0.214,-0.275,66.667,384.000,1.000,1.950,0.000
124803.000,121430.000,139294.300,129983.000,124678.100,130084.600,134033.100,127410.600,-0.189,0.974,-0.154,-3.754,-0.275,-0.153,66.667,385.000,1.000,2.456,0.000
124803.100,121424.800,139290.300,129981.600,124668.900,130064.400,134006.800,127402.500,-0.188,0.969,-0.151,-3.937,-0.702,0.000,66.667,386.000,1.000,3.702,0.000
124791.600,121406.500,139274.800,129969.000,124646.700,130029.400,133961.900,127381.000,-0.191,0.969,-0.148,-4.089,-1.038,-0.122,66.667,387.000,1.000,13.132,0.000
124785.000,121396.300,139267.000,129963.600,124636.400,130007.900,133948.300,127375.400,-0.188,0.968,-0.148,-4.211,-1.312,-0.214,66.667,388.000,1.000,0.009,0.000
124791.600,121406.000,139276.800,129971.700,124647.000,130017.200,133965.800,127384.400,-0.185,0.965,-0.152,-4.333,-1.404,-0.183,66.667,389.000,1.000,11.282,0.000
124798.100,121414.100,139287.500,129982.600,124659.400,130033.000,133982.700,127392.900,-0.181,0.963,-0.153,-4.425,-1.648,-0.244,66.667,390.000,1.000,0.014,0.000
124801.300,121414.300,139291.500,129985.100,124663.500,130031.500,133984.300,127397.200,-0.181,0.962,-0.154,-4.303,-1.801,-0.183,66.667,391.000,1.000,4.914,0.000
124791.500,121409.000,139284.800,129973.800,124656.400,130024.500,133975.100,127389.800,-0.179,0.962,-0.149,-4.059,-1.892,-0.092,66.667,392.000,1.000,0.012,0.000
124788.900,121409.400,139285.300,129973.100,124658.700,130029.300,133980.800,127391.200,-0.175,0.964,-0.148,-3.876,-1.862,-0.153,66.667,393.000,1.000,1.859,0.000
124782.900,121404.000,139279.400,129969.500,124654.300,130023.800,133976.700,127389.700,-0.173,0.966,-0.149,-3.723,-1.953,-0.061,66.667,394.000,1.000,3.785,0.000
124780.800,121400.500,139276.600,129969.400,124653.200,130023.700,133977.300,127392.800,-0.169,0.968,-0.146,-3.448,-1.862,-0.092,66.667,395.000,1.000,6.896,0.000
124781.700,121399.900,139275.800,129968.300,124653.400,130026.500,133980.200,127388.300,-0.167,0.968,-0.147,-3.265,-1.678,-0.031,66.667,396.000,1.000,0.007,0.000
124786.800,121404.800,139280.300,129972.000,124658.700,130033.300,133987.200,127393.500,-0.163,0.971,-0.149,-3.174,-1.221,0.000,66.667,397.000,1.000,11.169,0.000
124787.500,121404.700,139279.100,129971.400,124657.800,130035.800,133990.000,127393.100,-0.163,0.968,-0.149,-2.991,-0.946,0.000,66.667,398.000,1.000,0.009,0.000
124790.000,121405.600,139280.800,129974.900,124658.400,130037.800,133989.500,127397.400,-0.161,0.967,-0.146,-2.594,-0.580,0.031,66.667,399.000,1.000,8.810,0.000
124784.500,121399.300,139275.200,129971.400,124653.300,130029.000,133982.500,127397.400,-0.161,0.968,-0.146,-2.533,-0.122,0.031,66.667,400.000,1.000,0.011,0.000
124776.600,121393.200,139268.700,129966.800,124649.300,130027.700,133978.600,127394.500,-0.160,0.964,-0.147,-2.319,0.366,-0.061,66.667,401.000,1.000,9.259,0.000
124776.500,121397.700,139271.700,129969.900,124653.400,130032.400,133980.500,127400.300,-0.162,0.968,-0.145,-2.045,0.763,-0.031,66.667,402.000,1.000,0.010,0.000
124777.900,121401.400,139275.100,129972.600,124659.100,130035.700,133986.400,127402.300,-0.162,0.968,-0.147,-1.801,1.129,-0.031,66.667,403.000,1.000,0.006,0.000
124770.900,121390.900,139266.000,129967.200,124651.300,130029.100,133980.200,127395.600,-0.162,0.967,-0.146,-1.587,1.587,-0.061,66.667,404.000,1.000,3.174,0.000
124765.900,121385.300,139260.300,129963.600,124647.900,130025.500,133977.800,127399.300,-0.164,0.968,-0.146,-1.526,1.984,-0.031,66.667,405.000,1.000,0.010,0.000
124760.200,121382.400,139255.500,129959.600,124641.600,130013.800,133971.900,127400.400,-0.163,0.966,-0.146,-1.312,2.380,-0.031,66.667,406.000,1.000,10.810,0.000
124762.600,121384.300,139257.000,129959.400,124639.800,130012.800,133969.800,127389.200,-0.165,0.968,-0.149,-1.129,2.747,0.122,66.667,407.000,1.000,10.489,0.000
124770.500,121390.400,139264.900,129963.500,124645.400,130022.200,133976.700,127393.100,-0.167,0.970,-0.150,-1.160,2.991,0.244,66.667,408.000,1.000,0.018,0.000
124768.100,121387.100,139263.900,129961.900,124642.000,130020.200,133974.500,127389.800,-0.169,0.972,-0.151,-1.190,3.174,0.366,66.667,409.000,1.000,18.041,0.000
124758.700,121378.600,139256.000,129952.500,124631.500,130011.000,133963.600,127377.800,-0.173,0.972,-0.147,-1.251,3.326,0.366,66.667,410.000,1.000,0.017,0.000
124745.800,121368.500,139244.700,129938.800,124619.000,130000.800,133949.500,127361.500,-0.175,0.973,-0.149,-1.251,3.418,0.549,66.667,411.000,1.000,0.008,0.000
124755.600,121383.700,139257.500,129947.600,124632.900,130016.800,133964.100,127373.100,-0.177,0.973,-0.150,-1.190,3.540,0.549,66.667,412.000,1.000,2.489,0.000
124767.400,121398.900,139271.600,129961.400,124648.100,130029.600,133977.600,127387.500,-0.179,0.972,-0.154,-1.282,3.540,0.641,66.667,413.000,1.000,4.999,0.000
124773.600,121405.000,139278.900,129970.700,124656.700,130035.900,133984.500,127394.900,-0.179,0.973,-0.152,-1.282,3.510,0.671,66.667,414.000,1.000,2.469,0.000
124796.800,121428.900,139302.200,129993.600,124680.500,130060.500,134009.400,127418.000,-0.181,0.972,-0.155,-1.617,3.357,0.671,66.667,415.000,1.000,2.540,0.000
124793.300,121422.100,139293.900,129984.900,124671.500,130054.900,133998.200,127406.600,-0.184,0.975,-0.151,-1.770,3.174,0.671,66.667,416.000,1.000,2.496,0.000
124800.400,121421.500,139294.500,129986.500,124671.200,130054.200,134000.100,127407.600,-0.184,0.976,-0.154,-1.953,2.960,0.671,66.667,417.000,1.000,2.464,0.000
124793.700,121406.000,139281.000,129972.400,124656.900,130039.500,133989.300,127392.300,-0.185,0.977,-0.150,-2.075,2.686,0.732,66.667,418.000,1.000,2.586,0.000
124789.900,121398.900,139275.300,129968.900,124652.600,130036.300,133987.500,127394.800,-0.187,0.978,-0.154,-2.441,2.380,0.702,66.667,419.000,1.000,2.430,0.000
124785.200,121397.500,139271.300,129965.900,124648.800,130033.200,133980.300,127388.900,-0.186,0.977,-0.153,-2.533,2.045,0.763,66.667,420.000,1.000,6.308,0.000
124785.700,121400.200,139273.100,129967.100,124649.100,130032.500,133978.300,127381.700,-0.184,0.978,-0.154,-2.808,1.617,0.641,66.667,421.000,1.000,3.063,0.000
124797.900,121417.600,139289.400,129981.000,124666.400,130052.100,134001.300,127399.400,-0.183,0.979,-0.154,-2.930,1.190,0.671,66.667,422.000,1.000,0.009,0.000
124786.200,121406.700,139277.000,129970.300,124655.500,130046.300,133993.600,127394.000,-0.185,0.980,-0.155,-3.143,0.946,0.610,66.667,423.000,1.000,3.068,0.000
124771.500,121388.600,139258.200,129954.500,124635.400,130026.800,133972.300,127372.300,-0.184,0.979,-0.151,-3.265,0.671,0.549,66.667,424.000,1.000,14.460,0.000
124772.800,121392.200,139260.900,129957.200,124638.300,130033.400,133976.200,127375.400,-0.186,0.975,-0.151,-3.510,0.244,0.488,66.667,425.000,1.000,0.015,0.000
124780.100,121397.300,139268.400,129963.000,124642.600,130035.400,133968.700,127379.600,-0.181,0.969,-0.148,-3.876,-0.031,0.397,66.667,426.000,1.000,2.476,0.000
124775.500,121385.200,139259.000,129953.500,124628.100,130008.100,133945.400,127367.400,-0.177,0.966,-0.147,-3.754,-0.305,0.305,66.667,427.000,1.000,0.008,0.000
124776.900,121382.900,139258.400,129957.000,124626.800,130006.300,133949.400,127369.100,-0.175,0.963,-0.152,-3.815,-0.458,0.214,66.667,428.000,1.000,1.883,0.000
124785.700,121394.000,139266.400,129963.100,124637.500,130023.300,133965.800,127373.000,-0.172,0.962,-0.150,-3.723,-0.610,0.183,66.667,429.000,1.000,13.710,0.000
124775.700,121383.700,139255.500,129949.000,124627.000,130013.700,133956.700,127360.300,-0.170,0.961,-0.153,-3.418,-0.793,0.153,66.667,430.000,1.000,5.567,0.000
124782.100,121385.000,139259.700,129957.500,124628.800,130007.500,133953.200,127365.700,-0.171,0.961,-0.152,-3.113,-0.977,0.153,66.667,431.000,1.000,0.014,0.000
124797.300,121401.100,139275.200,129972.200,124643.800,130019.700,133963.200,127382.200,-0.170,0.960,-0.150,-3.052,-1.007,0.244,66.667,432.000,1.000,1.725,0.000
124787.000,121393.500,139265.300,129962.700,124635.500,130010.200,133955.500,127376.300,-0.167,0.958,-0.152,-2.777,-1.038,0.183,66.667,433.000,1.000,6.511,0.000
124788.500,121397.200,139266.000,129962.800,124637.500,130019.100,133960.200,127373.900,-0.165,0.955,-0.150,-2.411,-1.007,0.031,66.667,434.000,1.000,2.406,0.000
124780.000,121394.700,139257.900,129952.900,124631.000,130016.400,133955.300,127364.000,-0.166,0.956,-0.149,-2.197,-0.977,-0.031,66.667,435.000,1.000,2.537,0.000
124785.100,121403.300,139264.600,129959.700,124638.200,130019.800,133961.400,127372.100,-0.167,0.957,-0.149,-1.831,-0.916,-0.031,66.667,436.000,1.000,2.447,0.000
124788.000,121406.100,139272.800,129964.500,124645.900,130028.200,133974.700,127383.400,-0.168,0.958,-0.148,-1.526,-0.824,0.000,66.667,437.000,1.000,4.347,0.000
124776.200,121394.400,139262.500,129953.500,124634.900,130019.500,133964.100,127373.600,-0.169,0.961,-0.148,-1.160,-0.702,-0.214,66.667,438.000,1.000,0.008,0.000
124765.900,121381.800,139253.100,129945.000,124625.400,130011.900,133957.400,127368.900,-0.171,0.964,-0.152,-0.977,-0.641,-0.366,66.667,439.000,1.000,26.973,0.000
124772.800,121389.000,139260.000,129952.700,124633.900,130025.100,133967.800,127375.400,-0.170,0.967,-0.150,-0.641,-0.610,-0.488,66.667,440.000,1.000,3.046,0.000
124778.500,121396.900,139265.000,129957.800,124642.200,130033.300,133976.900,127380.700,-0.169,0.970,-0.151,-0.549,-0.488,-0.549,66.667,441.000,1.000,0.014,0.000
124770.400,121385.700,139252.600,129947.200,124633.700,130026.600,133969.600,127374.400,-0.168,0.973,-0.147,-0.488,-0.336,-0.610,66.667,442.000,1.000,1.829,0.000
124768.300,121380.800,139245.400,129944.000,124628.100,130020.500,133966.400,127367.500,-0.169,0.978,-0.150,-0.427,-0.153,-0.641,66.667,443.000,1.000,2.614,0.000
124775.000,121386.400,139249.000,129948.400,124634.300,130025.300,133973.700,127372.800,-0.171,0.977,-0.152,-0.458,-0.122,-0.763,66.667,444.000,1.000,2.461,0.000
124780.100,121392.300,139253.400,129952.000,124639.500,130028.700,133981.400,127375.500,-0.169,0.977,-0.151,-0.458,0.122,-0.854,66.667,445.000,1.000,2.526,0.000
124774.100,121388.200,139249.200,129950.400,124633.400,130020.000,133971.800,127372.600,-0.170,0.978,-0.152,-0.610,0.214,-0.824,66.667,446.000,1.000,2.433,0.000
124781.700,121396.700,139260.300,129959.600,124640.600,130029.000,133972.900,127375.300,-0.171,0.979,-0.152,-0.763,0.305,-0.793,66.667,447.000,1.000,2.489,0.000
124792.400,121404.000,139273.100,129969.900,124650.700,130039.600,133986.300,127381.100,-0.172,0.979,-0.152,-0.916,0.244,-0.854,66.667,448.000,1.000,2.542,0.000
124794.100,121401.800,139276.400,129971.500,124650.400,130037.200,133979.500,127386.200,-0.173,0.979,-0.151,-1.099,0.366,-0.763,66.667,449.000,1.000,3.030,0.000
124792.700,121399.100,139275.800,129968.300,124644.000,130029.800,133954.900,127371.200,-0.171,0.976,-0.149,-1.190,0.519,-0.702,66.667,450.000,1.000,0.007,0.000
124781.700,121388.900,139265.100,129958.700,124636.800,130019.400,133950.900,127370.600,-0.170,0.976,-0.149,-1.373,0.702,-0.610,66.667,451.000,1.000,8.182,0.000
124780.600,121391.300,139263.500,129958.200,124638.600,130026.600,133958.800,127367.000,-0.169,0.972,-0.148,-1.556,0.854,-0.549,66.667,452.000,1.000,12.525,0.000
124783.400,121395.500,139264.400,129959.300,124640.500,130025.800,133963.000,127370.000,-0.168,0.969,-0.151,-1.556,1.038,-0.366,66.667,453.000,1.000,0.019,0.000
124788.700,121401.000,139267.800,129964.900,124645.700,130033.900,133972.700,127375.400,-0.170,0.966,-0.153,-1.556,1.038,-0.214,66.667,454.000,1.000,0.004,0.000
124789.800,121400.900,139266.700,129967.200,124647.300,130032.900,133977.400,127379.700,-0.171,0.963,-0.153,-1.495,1.251,-0.061,66.667,455.000,1.000,4.282,0.000
124786.200,121397.600,139263.400,129965.200,124644.900,130026.500,133976.200,127380.200,-0.173,0.963,-0.153,-1.495,1.282,-0.031,66.667,456.000,1.000,0.081,0.000
124774.600,121383.600,139252.700,129955.600,124635.400,130014.600,133968.700,127373.800,-0.175,0.965,-0.149,-1.221,1.312,0.061,66.667,457.000,1.000,8.741,0.000
124782.000,121391.100,139261.300,129961.900,124644.100,130021.900,133979.400,127383.600,-0.177,0.969,-0.150,-1.129,1.312,0.153,66.667,458.000,1.000,0.017,0.000
124793.100,121405.900,139275.800,129971.300,124656.700,130035.800,133992.700,127394.000,-0.177,0.970,-0.149,-1.068,1.373,0.244,66.667,459.000,1.000,7.343,0.000
124784.900,121402.000,139270.100,129962.600,124650.400,130032.500,133983.300,127383.400,-0.175,0.974,-0.150,-1.038,1.373,0.275,66.667,460.000,1.000,0.012,0.000
124783.900,121402.300,139270.700,129962.500,124648.500,130029.100,133979.600,127380.800,-0.173,0.975,-0.151,-1.068,1.312,0.336,66.667,461.000,1.000,6.217,0.000
124795.500,121413.700,139283.200,129974.600,124659.400,130039.000,133988.800,127396.000,-0.174,0.975,-0.153,-1.129,1.312,0.336,66.667,462.000,1.000,0.014,0.000
124792.800,121413.900,139279.600,129969.600,124657.000,130039.100,133988.000,127391.400,-0.175,0.974,-0.152,-1.190,1.251,0.275,66.667,463.000,1.000,8.179,0.000
124784.300,121404.000,139270.300,129961.200,124649.700,130036.500,133984.600,127382.200,-0.177,0.975,-0.154,-1.221,1.190,0.275,66.667,464.000,1.000,9.386,0.000
124783.400,121399.800,139267.300,129960.300,124645.200,130034.500,133978.700,127377.100,-0.177,0.974,-0.156,-1.312,1.160,0.122,66.667,465.000,1.000,0.012,0.000
124782.500,121396.900,139265.000,129960.300,124641.800,130031.500,133974.200,127372.700,-0.178,0.975,-0.158,-1.373,1.038,0.153,66.667,466.000,1.000,2.395,0.000
124780.800,121395.400,139261.500,129958.100,124638.100,130029.000,133972.300,127370.600,-0.176,0.974,-0.157,-1.434,0.885,0.183,66.667,467.000,1.000,0.004,0.000
124780.800,121397.000,139259.500,129955.500,124636.600,130029.800,133972.600,127368.700,-0.176,0.974,-0.160,-1.434,0.916,0.061,66.667,468.000,1.000,10.667,0.000
124773.400,121389.700,139251.400,129945.800,124627.800,130025.300,133967.000,127359.200,-0.175,0.975,-0.160,-1.678,0.916,-0.031,66.667,469.000,1.000,4.397,0.000
124777.300,121390.700,139255.600,129946.400,124630.100,130026.200,133969.600,127362.900,-0.173,0.977,-0.158,-1.892,0.671,0.000,66.667,470.000,1.000,0.007,0.000
124789.300,121402.900,139269.100,129959.800,124644.100,130041.600,133986.800,127375.900,-0.175,0.977,-0.161,-2.014,0.671,0.061,66.667,471.000,1.000,8.757,0.000
124791.300,121408.400,139274.000,129963.200,124651.500,130049.300,134002.800,127385.800,-0.175,0.979,-0.163,-2.319,0.610,-0.092,66.667,472.000,1.000,0.008,0.000
124802.400,121418.200,139284.400,129973.300,124660.600,130051.500,134004.300,127394.200,-0.174,0.982,-0.156,-2.563,0.397,0.000,66.667,473.000,1.000,2.412,0.000
124806.300,121418.700,139285.700,129973.500,124658.200,130038.200,133984.100,127396.700,-0.172,0.983,-0.153,-2.869,0.336,-0.092,66.667,474.000,1.000,0.006,0.000
124799.800,121410.300,139277.800,129965.900,124649.300,130023.900,133968.600,127381.200,-0.170,0.983,-0.149,-3.143,0.336,-0.275,66.667,475.000,1.000,10.734,0.000
124792.400,121395.000,139265.000,129955.200,124634.000,130001.700,133938.200,127362.600,-0.168,0.979,-0.150,-3.571,0.305,-0.305,66.667,476.000,1.000,6.782,0.000
124785.600,121385.100,139256.000,129949.400,124630.600,130000.200,133940.900,127359.600,-0.167,0.972,-0.153,-3.784,0.458,-0.244,66.667,477.000,1.000,0.009,0.000
124777.100,121378.100,139246.100,129938.700,124624.700,129999.400,133937.500,127354.300,-0.167,0.967,-0.154,-3.937,0.549,-0.427,66.667,478.000,1.000,1.976,0.000
124773.200,121374.800,139242.500,129938.100,124621.100,129997.400,133934.800,127351.700,-0.165,0.962,-0.155,-3.906,0.580,-0.458,66.667,479.000,1.000,3.720,0.000
124788.800,121390.600,139259.100,129954.400,124637.800,130015.300,133958.200,127371.200,-0.165,0.961,-0.155,-3.754,0.702,-0.488,66.667,480.000,1.000,6.759,0.000
124791.900,121391.500,139261.200,129957.200,124639.100,130023.500,133963.400,127377.600,-0.164,0.963,-0.152,-3.510,0.885,-0.580,66.667,481.000,1.000,0.006,0.000
124793.300,121394.500,139265.500,129961.200,124641.600,130025.000,133969.800,127383.300,-0.164,0.962,-0.151,-3.204,1.190,-0.732,66.667,482.000,1.000,8.255,0.000
124794.900,121400.300,139271.800,129967.900,124646.300,130030.100,133975.700,127387.000,-0.166,0.963,-0.150,-3.082,1.282,-0.854,66.667,483.000,1.000,3.028,0.000
124792.600,121395.100,139266.100,129964.900,124641.400,130024.700,133971.900,127383.400,-0.165,0.965,-0.151,-2.869,1.556,-0.885,66.667,484.000,1.000,0.009,0.000
124788.000,121388.000,139258.200,129958.500,124634.000,130019.700,133965.100,127373.800,-0.165,0.966,-0.152,-2.625,1.770,-1.038,66.667,485.000,1.000,4.643,0.000
124793.700,121397.300,139264.400,129963.900,124640.000,130027.900,133968.800,127376.600,-0.168,0.968,-0.148,-2.411,1.953,-1.038,66.667,486.000,1.000,4.751,0.000
124802.800,121407.600,139274.100,129968.600,124649.100,130038.400,133975.600,127383.100,-0.170,0.971,-0.148,-2.289,2.045,-1.129,66.667,487.000,1.000,2.505,0.000
124793.500,121397.900,139263.100,129954.400,124637.500,130028.800,133963.300,127371.200,-0.170,0.970,-0.149,-2.014,2.289,-1.251,66.667,488.000,1.000,8.787,0.000
124791.000,121394.000,139258.100,129948.800,124631.300,130024.800,133960.500,127363.600,-0.173,0.971,-0.149,-1.831,2.411,-1.099,66.667,489.000,1.000,3.046,0.000
124798.000,121403.000,139266.500,129955.500,124640.100,130035.000,133969.600,127372.600,-0.174,0.969,-0.151,-1.831,2.472,-1.007,66.667,490.000,1.000,0.014,0.000
124801.800,121407.900,139272.000,129961.600,124645.700,130040.300,133973.700,127377.300,-0.173,0.972,-0.149,-1.556,2.563,-1.068,66.667,491.000,1.000,5.681,0.000
124793.600,121399.100,139265.200,129956.100,124639.400,130032.800,133964.400,127369.100,-0.173,0.972,-0.149,-1.617,2.655,-0.946,66.667,492.000,1.000,11.300,0.000
124786.000,121390.800,139258.100,129952.700,124634.300,130022.200,133957.000,127367.500,-0.174,0.973,-0.153,-1.526,2.808,-0.854,66.667,493.000,1.000,3.008,0.000
124779.000,121382.400,139251.300,129950.900,124629.000,130010.000,133951.200,127364.500,-0.173,0.973,-0.154,-1.404,2.991,-0.763,66.667,494.000,1.000,0.009,0.000
124774.200,121377.700,139247.300,129950.700,124626.500,130007.000,133950.900,127362.200,-0.175,0.975,-0.154,-1.404,3.052,-0.702,66.667,495.000,1.000,1.936,0.000
124773.700,121379.000,139248.300,129954.800,124629.000,130009.600,133955.600,127366.400,-0.178,0.974,-0.154,-1.373,2.869,-0.641,66.667,496.000,1.000,3.761,0.000
124777.900,121388.500,139257.600,129964.500,124637.300,130019.000,133965.500,127377.100,-0.179,0.973,-0.155,-1.434,2.808,-0.519,66.667,497.000,1.000,14.841,0.000
124799.500,121418.400,139285.300,129987.800,124666.200,130049.500,133999.100,127409.500,-0.181,0.975,-0.153,-1.465,2.808,-0.397,66.667,498.000,1.000,0.009,0.000
124792.300,121416.300,139282.400,129981.300,124663.600,130049.300,133994.200,127408.000,-0.183,0.974,-0.158,-1.556,2.655,-0.275,66.667,499.000,1.000,0.003,0.000
124768.400,121393.300,139260.200,129955.400,124641.000,130025.500,133965.300,127378.300,-0.182,0.974,-0.157,-1.678,2.502,-0.275,66.667,500.000,1.000,2.620,0.000
124771.100,121398.100,139263.500,129954.200,124644.600,130028.800,133968.000,127374.900,-0.183,0.974,-0.156,-1.740,2.289,-0.122,66.667,501.000,1.000,2.495,0.000
124796.100,121425.100,139290.200,129980.900,124674.000,130058.700,134003.300,127410.600,-0.184,0.974,-0.154,-1.831,2.167,-0.061,66.667,502.000,1.000,2.527,0.000
124790.800,121415.400,139282.600,129977.000,124667.500,130050.000,133996.800,127399.700,-0.186,0.974,-0.155,-1.953,1.923,0.031,66.667,503.000,1.000,3.680,0.000
124791.900,121412.500,139281.800,129980.200,124668.400,130047.900,133994.500,127400.900,-0.184,0.974,-0.156,-2.228,1.709,0.061,66.667,504.000,1.000,8.872,0.000
124792.400,121413.700,139280.700,129978.700,124672.400,130050.000,134001.500,127407.000,-0.185,0.974,-0.157,-2.319,1.465,0.183,66.667,505.000,1.000,2.989,0.000
124786.100,121405.600,139274.900,129974.800,124670.300,130050.200,134009.900,127410.100,-0.185,0.975,-0.156,-2.502,1.160,0.183,66.667,506.000,1.000,0.070,0.000
124775.400,121393.900,139265.500,129968.000,124660.700,130043.900,133998.500,127395.400,-0.184,0.978,-0.155,-2.777,0.946,0.214,66.667,507.000,1.000,1.866,0.000
124757.700,121378.400,139249.100,129951.500,124645.000,130026.900,133983.400,127381.200,-0.184,0.979,-0.153,-3.052,0.702,0.183,66.667,508.000,1.000,8.769,0.000
124747.000,121366.000,139238.700,129940.600,124630.200,130003.200,133955.200,127370.000,-0.184,0.976,-0.151,-3.418,0.366,0.244,66.667,509.000,1.000,3.705,0.000
124762.600,121384.000,139255.200,129955.600,124647.600,130024.000,133970.500,127385.400,-0.180,0.970,-0.149,-3.571,0.214,0.183,66.667,510.000,1.000,14.390,0.000
124765.700,121390.500,139260.200,129959.800,124654.200,130037.300,133981.600,127389.400,-0.177,0.968,-0.147,-3.815,0.183,0.000,66.667,511.000,1.000,0.014,0.000
124759.500,121383.700,139252.600,129952.900,124643.700,130016.500,133959.000,127381.300,-0.175,0.965,-0.153,-3.815,0.092,-0.153,66.667,512.000,1.000,1.881,0.000
124762.900,121386.300,139254.700,129955.600,124646.500,130016.400,133962.000,127391.400,-0.171,0.961,-0.156,-3.632,0.153,-0.305,66.667,513.000,1.000,2.432,0.000
124763.900,121388.400,139254.100,129956.300,124646.500,130021.300,133968.500,127383.000,-0.168,0.958,-0.156,-3.296,0.122,-0.397,66.667,514.000,1.000,2.546,0.000
124769.400,121392.100,139256.200,129958.700,124646.600,130024.100,133970.600,127379.400,-0.165,0.958,-0.154,-3.021,0.214,-0.427,66.667,515.000,1.000,2.467,0.000
124775.400,121396.000,139260.700,129963.100,124650.100,130029.700,133973.700,127383.200,-0.162,0.959,-0.154,-2.716,0.397,-0.397,66.667,516.000,1.000,6.852,0.000
124781.800,121402.000,139268.200,129969.600,124656.400,130033.300,133980.000,127389.200,-0.159,0.961,-0.154,-2.380,0.641,-0.488,66.667,517.000,1.000,0.009,0.000
124785.900,121406.500,139273.400,129968.800,124660.400,130037.800,133984.500,127391.800,-0.159,0.963,-0.153,-2.136,0.977,-0.488,66.667,518.000,1.000,5.637,0.000
124780.700,121400.600,139267.600,129959.400,124655.100,130037.400,133979.600,127388.200,-0.159,0.965,-0.153,-1.892,1.190,-0.488,66.667,519.000,1.000,3.706,0.000
124772.900,121390.800,139258.100,129951.100,124645.200,130027.100,133968.100,127380.100,-0.159,0.966,-0.153,-1.648,1.526,-0.458,66.667,520.000,1.000,6.819,0.000
124762.800,121378.400,139247.000,129943.500,124633.800,130014.200,133957.400,127374.100,-0.161,0.970,-0.156,-1.526,1.923,-0.549,66.667,521.000,1.000,0.011,0.000
124753.700,121371.000,139237.300,129933.500,124626.300,130009.200,133953.700,127367.400,-0.162,0.969,-0.156,-1.282,2.197,-0.427,66.667,522.000,1.000,1.941,0.000
124749.400,121367.100,139231.500,129930.900,124623.900,130007.900,133953.200,127365.300,-0.163,0.974,-0.152,-1.099,2.625,-0.244,66.667,523.000,1.000,11.226,0.000
124753.900,121370.000,139235.100,129937.900,124628.800,130010.800,133956.400,127371.100,-0.165,0.978,-0.150,-1.068,2.899,-0.275,66.667,524.000,1.000,3.035,0.000
124762.300,121375.900,139240.600,129941.300,124632.500,130015.500,133956.900,127369.500,-0.167,0.978,-0.152,-1.099,3.143,-0.275,66.667,525.000,1.000,0.028,0.000
124768.200,121378.800,139242.800,129940.800,124635.100,130020.700,133962.400,127370.900,-0.168,0.977,-0.156,-1.129,3.357,-0.244,66.667,526.000,1.000,1.884,0.000
124779.800,121391.300,139255.000,129950.600,124646.100,130033.600,133973.800,127378.800,-0.168,0.977,-0.156,-1.160,3.479,-0.305,66.667,527.000,1.000,6.315,0.000
124785.000,121397.600,139261.000,129951.600,124649.400,130039.100,133974.000,127377.700,-0.169,0.975,-0.155,-1.190,3.540,-0.336,66.667,528.000,1.000,13.715,0.000
124799.500,121413.100,139276.400,129965.200,124664.500,130056.700,133992.000,127394.900,-0.175,0.978,-0.154,-1.282,3.540,-0.427,66.667,529.000,1.000,3.027,0.000
124801.300,121414.300,139277.800,129968.300,124662.800,130055.200,133988.100,127391.400,-0.177,0.979,-0.152,-1.434,3.418,-0.397,66.667,530.000,1.000,0.007,0.000
124794.100,121405.000,139269.800,129962.400,124652.900,130041.000,133974.900,127377.600,-0.179,0.977,-0.154,-1.495,3.326,-0.458,66.667,531.000,1.000,1.975,0.000
124790.100,121399.300,139266.600,129963.000,124650.900,130037.300,133974.600,127382.200,-0.182,0.977,-0.155,-1.648,3.265,-0.580,66.667,532.000,1.000,2.474,0.000
124789.300,121396.900,139264.700,129965.400,124652.000,130037.800,133979.800,127388.100,-0.184,0.977,-0.155,-1.801,3.021,-0.580,66.667,533.000,1.000,2.536,0.000
124787.900,121396.400,139261.300,129964.900,124650.900,130036.300,133978.300,127385.800,-0.183,0.978,-0.154,-2.014,2.777,-0.641,66.667,534.000,1.000,2.466,0.000
124776.200,121387.100,139251.900,129956.700,124641.100,130028.500,133966.600,127378.600,-0.184,0.976,-0.156,-2.258,2.350,-0.702,66.667,535.000,1.000,8.831,0.000
124772.400,121388.500,139251.300,129957.400,124641.400,130028.700,133964.700,127377.900,-0.184,0.975,-0.155,-2.289,2.045,-0.671,66.667,536.000,1.000,2.491,0.000
124761.200,121383.500,139243.200,129948.300,124635.900,130021.700,133960.800,127375.600,-0.184,0.976,-0.158,-2.502,1.709,-0.671,66.667,537.000,1.000,3.692,0.000
124767.900,121394.100,139252.100,129953.100,124644.300,130032.300,133971.300,127380.200,-0.185,0.976,-0.160,-2.838,1.282,-0.671,66.667,538.000,1.000,11.843,0.000
124768.300,121394.900,139253.500,129952.500,124646.200,130029.900,133972.400,127379.800,-0.186,0.972,-0.161,-2.991,0.854,-0.671,66.667,539.000,1.000,0.009,0.000
124764.200,121392.400,139249.600,129949.400,124642.500,130024.400,133965.900,127376.300,-0.186,0.973,-0.163,-3.143,0.488,-0.854,66.667,540.000,1.000,6.791,0.000
124767.100,121394.400,139252.100,129952.400,124645.500,130031.500,133971.700,127378.700,-0.186,0.972,-0.164,-3.418,0.031,-0.885,66.667,541.000,1.000,0.009,0.000
124768.800,121395.400,139255.200,129952.200,124647.000,130032.700,133974.200,127378.000,-0.187,0.971,-0.160,-3.387,-0.336,-0.916,66.667,542.000,1.000,0.006,0.000
124765.500,121391.500,139253.000,129950.300,124643.400,130029.400,133967.100,127371.700,-0.185,0.970,-0.157,-3.601,-0.824,-0.854,66.667,543.000,1.000,2.630,0.000
124764.900,121385.500,139250.300,129950.300,124639.900,130022.000,133961.500,127368.800,-0.185,0.969,-0.157,-3.784,-1.160,-0.916,66.667,544.000,1.000,8.708,0.000
124767.500,121384.300,139250.000,129949.400,124638.400,130016.400,133960.100,127369.500,-0.182,0.968,-0.152,-4.059,-1.495,-0.946,66.667,545.000,1.000,9.362,0.000
124771.100,121389.100,139252.400,129950.200,124640.100,130026.100,133963.800,127369.700,-0.180,0.963,-0.153,-4.089,-1.801,-1.129,66.667,546.000,1.000,0.011,0.000
124772.800,121385.800,139250.500,129949.700,124634.900,130022.400,133953.400,127371.500,-0.178,0.960,-0.152,-4.089,-2.045,-1.221,66.667,547.000,1.000,2.472,0.000
124768.400,121372.100,139240.400,129941.100,124621.600,130000.500,133935.800,127359.300,-0.176,0.959,-0.157,-4.089,-2.045,-1.221,66.667,548.000,1.000,0.009,0.000
124765.200,121367.600,139234.500,129935.500,124615.100,129994.500,133929.000,127351.100,-0.173,0.959,-0.158,-3.998,-2.167,-1.312,66.667,549.000,1.000,5.616,0.000
124765.700,121370.300,139236.700,129939.500,124621.400,130002.400,133939.100,127359.400,-0.169,0.958,-0.158,-3.784,-2.167,-1.373,66.667,550.000,1.000,6.849,0.000
124762.800,121369.000,139235.200,129941.500,124621.000,129997.100,133935.100,127358.100,-0.166,0.960,-0.156,-3.571,-2.075,-1.312,66.667,551.000,1.000,0.012,0.000
124771.100,121377.400,139244.100,129954.900,124631.100,129999.300,133941.100,127368.900,-0.164,0.958,-0.154,-3.296,-1.953,-1.190,66.667,552.000,1.000,10.716,0.000
124773.000,121379.200,139246.300,129958.200,124634.400,130000.200,133944.300,127366.300,-0.163,0.958,-0.156,-3.143,-1.648,-1.190,66.667,553.000,1.000,4.250,0.000
124770.200,121374.900,139244.300,129953.400,124632.500,129995.400,133938.500,127360.000,-0.161,0.961,-0.156,-2.777,-1.404,-1.160,66.667,554.000,1.000,0.007,0.000
124769.100,121373.600,139246.500,129953.700,124634.100,129992.700,133937.500,127362.500,-0.158,0.962,-0.155,-2.502,-1.068,-0.916,66.667,555.000,1.000,2.585,0.000
124765.700,121373.600,139244.900,129951.800,124634.600,129991.600,133938.700,127364.300,-0.158,0.963,-0.154,-2.014,-0.458,-0.763,66.667,556.000,1.000,0.008,0.000
124769.300,121381.700,139249.600,129955.600,124639.000,129999.500,133946.000,127369.300,-0.156,0.963,-0.152,-1.709,-0.061,-0.702,66.667,557.000,1.000,18.121,0.000
124765.700,121379.300,139247.000,129951.800,124635.500,129999.000,133945.300,127369.000,-0.157,0.964,-0.151,-1.526,0.305,-0.702,66.667,558.000,1.000,4.851,0.000
124773.600,121386.800,139253.400,129955.000,124640.600,130007.300,133952.500,127376.900,-0.159,0.965,-0.154,-1.312,0.732,-0.610,66.667,559.000,1.000,0.009,0.000
124783.300,121394.700,139260.400,129960.700,124645.300,130018.200,133957.900,127380.500,-0.158,0.966,-0.154,-1.190,1.190,-0.549,66.667,560.000,1.000,0.007,0.000
124772.500,121378.600,139244.900,129946.900,124628.800,130005.800,133945.200,127362.800,-0.161,0.969,-0.155,-1.068,1.587,-0.549,66.667,561.000,1.000,8.223,0.000
124761.900,121360.900,139229.900,129935.000,124613.600,129986.800,133935.800,127355.800,-0.161,0.971,-0.157,-0.854,1.984,-0.458,66.667,562.000,1.000,0.010,0.000
124767.400,121360.100,139230.800,129939.700,124616.300,129986.600,133940.900,127365.500,-0.164,0.975,-0.156,-0.885,2.350,-0.397,66.667,563.000,1.000,5.635,0.000
124775.800,121365.600,139236.400,129943.600,124620.900,129993.200,133944.300,127363.200,-0.166,0.977,-0.152,-0.946,2.716,-0.305,66.667,564.000,1.000,2.492,0.000
124782.900,121371.900,139244.500,129949.300,124627.200,129999.900,133948.300,127367.200,-0.169,0.976,-0.156,-1.007,2.777,-0.397,66.667,565.000,1.000,3.711,0.000
124783.900,121374.300,139247.900,129951.300,124628.600,130003.400,133947.400,127366.300,-0.170,0.976,-0.155,-1.068,3.052,-0.397,66.667,566.000,1.000,4.378,0.000
124775.700,121370.400,139244.800,129943.700,124623.200,129996.400,133942.500,127361.700,-0.171,0.978,-0.158,-1.129,3.235,-0.366,66.667,567.000,1.000,0.008,0.000
124777.500,121378.300,139253.300,129949.700,124631.400,130007.700,133952.000,127370.400,-0.174,0.978,-0.156,-1.221,3.326,-0.305,66.667,568.000,1.000,10.676,0.000
124785.700,121390.400,139265.300,129960.300,124643.100,130016.400,133963.600,127383.200,-0.175,0.980,-0.158,-1.404,3.326,-0.427,66.667,569.000,1.000,3.050,0.000
124789.400,121397.200,139270.400,129964.000,124648.200,130016.900,133968.600,127387.300,-0.176,0.981,-0.156,-1.526,3.296,-0.458,66.667,570.000,1.000,0.009,0.000
124793.900,121402.200,139274.200,129969.100,124652.500,130024.000,133970.300,127391.100,-0.177,0.980,-0.158,-1.648,3.357,-0.366,66.667,571.000,1.000,1.916,0.000
124776.200,121383.700,139254.600,129951.400,124634.600,130007.200,133951.800,127374.900,-0.180,0.978,-0.156,-1.984,3.418,-0.488,66.667,572.000,1.000,8.729,0.000
124770.000,121382.700,139249.200,129950.300,124632.800,130007.500,133954.400,127373.100,-0.180,0.977,-0.155,-2.167,3.326,-0.458,66.667,573.000,1.000,4.387,0.000
124773.600,121386.900,139251.500,129953.800,124639.300,130012.300,133963.500,127382.800,-0.183,0.976,-0.158,-2.319,3.052,-0.458,66.667,574.000,1.000,0.009,0.000
124771.000,121383.300,139247.600,129950.200,124636.700,130007.600,133958.800,127379.100,-0.187,0.975,-0.157,-2.411,2.930,-0.305,66.667,575.000,1.000,8.134,0.000
124757.400,121373.500,139234.500,129937.800,124625.600,129998.700,133943.800,127362.500,-0.187,0.973,-0.154,-2.594,2.716,-0.305,66.667,576.000,1.000,3.060,0.000
124758.800,121376.200,139237.300,129944.600,124630.100,130004.700,133953.500,127376.900,-0.186,0.972,-0.160,-2.716,2.502,-0.336,66.667,577.000,1.000,0.008,0.000
124776.500,121392.600,139254.200,129958.300,124643.000,130019.400,133960.800,127382.000,-0.185,0.972,-0.160,-2.747,2.258,-0.275,66.667,578.000,1.000,1.904,0.000
124784.600,121394.500,139260.400,129964.200,124645.000,130022.900,133966.300,127381.700,-0.187,0.969,-0.161,-2.899,2.045,-0.183,66.667,579.000,1.000,16.942,0.000
124780.800,121387.100,139253.500,129955.000,124635.200,130014.700,133957.300,127374.300,-0.185,0.966,-0.157,-2.960,1.801,0.031,66.667,580.000,1.000,0.022,0.000
124776.900,121379.500,139245.800,129944.000,124626.400,130005.800,133946.700,127365.700,-0.185,0.965,-0.157,-2.930,1.617,0.031,66.667,581.000,1.000,1.762,0.000
124778.000,121378.600,139244.900,129945.100,124626.700,130008.400,133948.000,127366.100,-0.186,0.966,-0.160,-2.899,1.221,0.000,66.667,582.000,1.000,2.530,0.000
124787.500,121386.600,139253.100,129954.200,124635.000,130012.600,133957.000,127374.900,-0.185,0.966,-0.159,-2.869,0.885,0.092,66.667,583.000,1.000,2.567,0.000
124787.800,121384.500,139251.600,129953.100,124634.300,130007.700,133956.100,127374.000,-0.184,0.963,-0.160,-2.899,0.488,0.122,66.667,584.000,1.000,11.737,0.000
124786.300,121384.500,139251.900,129951.600,124637.400,130010.600,133959.100,127369.800,-0.183,0.965,-0.155,-2.960,0.305,0.122,66.667,585.000,1.000,0.011,0.000
124789.400,121387.700,139255.600,129954.800,124641.300,130013.800,133957.500,127367.800,-0.181,0.966,-0.155,-2.838,0.092,0.214,66.667,586.000,1.000,1.903,0.000
124791.900,121389.300,139260.900,129961.200,124646.100,130015.500,133962.300,127372.000,-0.182,0.967,-0.155,-2.869,-0.153,0.061,66.667,587.000,1.000,2.466,0.000
124791.400,121390.600,139266.000,129966.300,124651.300,130018.400,133965.500,127379.100,-0.180,0.968,-0.155,-2.808,-0.458,0.000,66.667,588.000,1.000,3.826,0.000
124775.300,121378.100,139254.100,129953.300,124642.300,130008.400,133953.900,127370.000,-0.177,0.965,-0.157,-2.716,-0.610,-0.092,66.667,589.000,1.000,13.130,0.000
124780.500,121383.800,139258.100,129960.800,124648.400,130015.300,133956.300,127375.500,-0.175,0.965,-0.159,-2.686,-0.793,-0.092,66.667,590.000,1.000,0.026,0.000
124781.200,121379.300,139254.300,129960.000,124645.800,130012.900,133952.700,127376.300,-0.172,0.965,-0.161,-2.716,-1.007,-0.153,66.667,591.000,1.000,1.805,0.000
124771.300,121361.900,139237.500,129947.300,124629.400,129991.600,133937.100,127361.200,-0.167,0.960,-0.160,-2.777,-1.007,-0.214,66.667,592.000,1.000,2.465,0.000
124767.300,121357.600,139230.500,129938.600,124623.300,129983.200,133935.100,127352.700,-0.164,0.958,-0.161,-2.441,-0.885,-0.244,66.667,593.000,1.000,2.529,0.000
124765.600,121361.800,139231.600,129936.200,124625.500,129988.600,133942.000,127356.500,-0.162,0.961,-0.163,-2.350,-0.763,-0.275,66.667,594.000,1.000,7.459,0.000
124765.700,121368.800,139236.700,129938.800,124629.000,129996.300,133946.900,127360.200,-0.165,0.966,-0.162,-2.167,-0.549,-0.275,66.667,595.000,1.000,2.603,0.000
124763.800,121373.500,139239.800,129936.100,124628.100,129995.600,133942.700,127358.500,-0.165,0.969,-0.157,-2.106,-0.366,-0.275,66.667,596.000,1.000,2.454,0.000
124763.400,121376.900,139242.300,129934.400,124630.200,129998.600,133941.800,127357.700,-0.165,0.969,-0.155,-2.136,-0.305,-0.244,66.667,597.000,1.000,3.757,0.000
124768.400,121385.400,139249.100,129941.300,124637.300,130010.100,133951.500,127363.100,-0.166,0.966,-0.158,-2.167,-0.122,-0.244,66.667,598.000,1.000,26.916,0.000
124751.900,121368.300,139232.200,129929.200,124618.400,129994.000,133937.300,127348.000,-0.167,0.966,-0.158,-2.197,0.031,-0.305,66.667,599.000,1.000,0.036,0.000
124740.800,121360.000,139220.800,129921.600,124609.100,129985.000,133933.800,127345.900,-0.170,0.967,-0.159,-2.106,0.153,-0.214,66.667,600.000,1.000,1.924,0.000
124743.800,121365.600,139224.800,129927.300,124616.200,129992.500,133939.600,127352.100,-0.173,0.973,-0.157,-2.136,0.244,-0.244,66.667,601.000,1.000,2.320,0.000
124744.600,121367.000,139225.700,129928.200,124619.100,129996.200,133940.300,127351.800,-0.177,0.979,-0.156,-2.136,0.336,-0.458,66.667,602.000,1.000,5.010,0.000
124740.100,121364.100,139222.000,129921.800,124616.900,129994.300,133941.000,127350.800,-0.179,0.984,-0.155,-2.228,0.275,-0.610,66.667,603.000,1.000,2.510,0.000
124756.600,121380.500,139237.400,129937.900,124632.600,130011.300,133956.500,127366.900,-0.179,0.985,-0.154,-2.441,0.275,-0.732,66.667,604.000,1.000,2.436,0.000
124758.100,121377.900,139237.500,129939.700,124631.500,130005.200,133954.100,127366.100,-0.176,0.985,-0.154,-2.716,0.275,-0.854,66.667,605.000,1.000,2.567,0.000
124751.300,121369.600,139231.300,129932.700,124624.300,129993.500,133948.700,127358.800,-0.172,0.983,-0.155,-2.716,0.336,-0.885,66.667,606.000,1.000,2.463,0.000
124751.600,121368.300,139231.300,129931.400,124621.800,129991.600,133944.000,127350.300,-0.171,0.981,-0.155,-2.869,0.488,-0.916,66.667,607.000,1.000,2.535,0.000
124761.500,121379.500,139242.800,129943.300,124633.600,130001.800,133957.100,127369.100,-0.169,0.980,-0.154,-2.930,0.732,-0.824,66.667,608.000,1.000,2.466,0.000
124766.500,121386.200,139248.800,129949.000,124639.500,130007.400,133963.700,127369.600,-0.169,0.976,-0.150,-3.082,0.885,-0.793,66.667,609.000,1.000,2.443,0.000
124758.300,121379.000,139242.300,129941.300,124632.500,130003.800,133954.200,127359.000,-0.169,0.971,-0.151,-3.296,1.099,-0.732,66.667,610.000,1.000,8.126,0.000
124754.700,121374.400,139239.300,129943.600,124629.400,129998.600,133947.300,127357.000,-0.171,0.969,-0.151,-3.326,1.312,-0.793,66.667,611.000,1.000,0.006,0.000
124761.300,121380.800,139247.300,129952.000,124637.600,130011.700,133956.500,127365.300,-0.173,0.968,-0.149,-3.174,1.495,-0.824,66.667,612.000,1.000,1.899,0.000
124749.800,121366.200,139233.800,129938.500,124624.900,130001.000,133948.400,127355.900,-0.175,0.964,-0.149,-3.021,1.587,-1.007,66.667,613.000,1.000,3.160,0.000
124742.800,121352.700,139222.100,129927.900,124611.100,129979.600,133930.900,127344.300,-0.176,0.963,-0.150,-2.808,1.801,-1.129,66.667,614.000,1.000,0.006,0.000
124750.500,121359.700,139229.700,129934.600,124616.700,129983.300,133937.800,127352.500,-0.177,0.964,-0.149,-2.777,1.984,-1.312,66.667,615.000,1.000,10.599,0.000
124760.600,121367.800,139237.500,129941.100,124622.900,129990.900,133945.000,127353.900,-0.174,0.966,-0.150,-2.686,1.953,-1.434,66.667,616.000,1.000,20.651,0.000
124763.500,121369.800,139238.500,129939.700,124623.100,129990.900,133942.900,127352.900,-0.174,0.969,-0.149,-2.502,2.106,-1.526,66.667,617.000,1.000,0.016,0.000
124759.900,121368.900,139235.800,129935.200,124621.500,129989.700,133941.400,127350.100,-0.172,0.970,-0.151,-2.472,2.258,-1.709,66.667,618.000,1.000,0.003,0.000
124760.600,121375.700,139237.600,129935.500,124625.600,129998.400,133947.700,127353.600,-0.172,0.970,-0.152,-2.411,2.319,-1.709,66.667,619.000,1.000,0.003,0.000
124768.000,121388.800,139246.400,129943.300,124635.800,130009.300,133958.400,127363.000,-0.174,0.974,-0.155,-2.411,2.472,-1.709,66.667,620.000,1.000,1.839,0.000
124775.100,121399.500,139255.800,129950.400,124645.900,130018.400,133969.300,127369.100,-0.174,0.971,-0.155,-2.289,2.472,-1.709,66.667,621.000,1.000,3.651,0.000
124761.500,121389.600,139245.000,129939.300,124636.900,130011.200,133965.300,127362.400,-0.176,0.973,-0.155,-2.167,2.563,-1.709,66.667,622.000,1.000,0.005,0.000
124753.500,121383.900,139238.000,129935.300,124631.500,130005.300,133962.600,127360.300,-0.177,0.972,-0.156,-2.136,2.563,-1.648,66.667,623.000,1.000,0.004,0.000
124765.700,121396.700,139250.800,129945.500,124644.100,130018.100,133973.700,127369.500,-0.177,0.973,-0.153,-2.197,2.594,-1.648,66.667,624.000,1.000,2.586,0.000
124774.900,121403.700,139259.300,129951.800,124652.300,130028.000,133981.800,127373.800,-0.178,0.972,-0.154,-2.228,2.594,-1.587,66.667,625.000,1.000,3.775,0.000
124770.900,121394.700,139252.400,129948.100,124645.200,130019.200,133974.300,127368.300,-0.179,0.971,-0.156,-2.319,2.625,-1.495,66.667,626.000,1.000,11.261,0.000
124769.800,121386.800,139248.300,129944.800,124639.100,130006.200,133965.800,127363.500,-0.178,0.969,-0.156,-2.289,2.411,-1.434,66.667,627.000,1.000,3.052,0.000
124769.100,121382.700,139246.400,129942.400,124637.900,129998.300,133966.600,127363.100,-0.179,0.967,-0.155,-2.258,2.319,-1.404,66.667,628.000,1.000,0.009,0.000
124773.600,121386.600,139250.300,129944.800,124642.500,130003.400,133972.200,127366.300,-0.181,0.966,-0.155,-2.289,2.380,-1.251,66.667,629.000,1.000,1.854,0.000
124770.600,121382.100,139248.200,129944.000,124642.500,130000.600,133971.600,127372.400,-0.183,0.965,-0.159,-2.319,2.289,-1.160,66.667,630.000,1.000,14.385,0.000
124774.400,121389.600,139256.100,129953.000,124652.800,130013.400,133983.500,127384.700,-0.184,0.966,-0.159,-2.197,2.258,-1.007,66.667,631.000,1.000,0.015,0.000
124771.400,121387.800,139255.300,129949.700,124647.300,130006.600,133969.800,127375.500,-0.185,0.965,-0.158,-2.197,2.075,-0.854,66.667,632.000,1.000,2.538,0.000
124764.800,121382.200,139252.400,129947.000,124642.500,130001.600,133966.800,127376.200,-0.186,0.963,-0.155,-2.197,1.770,-0.641,66.667,633.000,1.000,0.012,0.000
124764.400,121382.100,139251.700,129946.700,124642.100,130004.200,133969.900,127368.900,-0.184,0.963,-0.160,-2.197,1.617,-0.427,66.667,634.000,1.000,8.148,0.000
124753.700,121368.200,139238.300,129934.200,124628.200,129990.700,133953.400,127350.900,-0.183,0.966,-0.156,-2.380,1.404,-0.183,66.667,635.000,1.000,9.323,0.000
124757.300,121364.300,139237.700,129934.500,124626.100,129988.500,133944.800,127346.700,-0.181,0.968,-0.157,-2.502,1.221,0.031,66.667,636.000,1.000,0.012,0.000
124758.800,121357.500,139234.400,129931.700,124620.900,129982.500,133935.300,127344.700,-0.179,0.966,-0.154,-2.686,1.129,0.183,66.667,637.000,1.000,2.409,0.000
124756.200,121350.200,139227.600,129925.700,124613.000,129971.200,133928.400,127338.600,-0.177,0.966,-0.154,-2.808,1.129,0.488,66.667,638.000,1.000,0.009,0.000
124754.800,121348.600,139225.700,129924.700,124612.000,129967.900,133924.900,127335.300,-0.177,0.965,-0.154,-2.899,1.129,0.641,66.667,639.000,1.000,14.458,0.000
124763.400,121361.200,139237.000,129937.500,124626.600,129982.700,133942.500,127349.400,-0.177,0.965,-0.158,-2.869,1.190,0.732,66.667,640.000,1.000,3.621,0.000
124782.000,121386.900,139259.600,129961.000,124652.100,130008.600,133971.200,127376.900,-0.176,0.965,-0.153,-2.777,1.099,0.763,66.667,641.000,1.000,0.005,0.000
124772.500,121386.400,139254.600,129954.200,124649.300,130007.900,133968.100,127368.800,-0.175,0.967,-0.154,-2.716,1.160,0.671,66.667,642.000,1.000,0.003,0.000
124751.100,121374.400,139238.300,129937.000,124634.300,129995.000,133953.900,127358.500,-0.173,0.969,-0.156,-2.502,1.129,0.580,66.667,643.000,1.000,5.156,0.000
124754.800,121383.800,139243.400,129941.700,124640.400,130006.800,133960.500,127364.400,-0.175,0.971,-0.154,-2.502,1.129,0.519,66.667,644.000,1.000,4.970,0.000
124753.700,121385.100,139241.600,129936.800,124637.100,130006.800,133955.400,127359.700,-0.174,0.971,-0.150,-2.472,1.190,0.366,66.667,645.000,1.000,2.493,0.000
124752.700,121380.600,139238.700,129931.900,124632.700,129999.200,133948.700,127360.300,-0.175,0.974,-0.156,-2.472,1.221,0.397,66.667,646.000,1.000,2.518,0.000
124753.000,121380.000,139237.000,129928.800,124629.200,129994.500,133946.800,127350.700,-0.175,0.974,-0.158,-2.563,1.343,0.275,66.667,647.000,1.000,2.502,0.000
124772.700,121395.200,139252.100,129946.300,124645.700,130010.200,133965.700,127367.300,-0.175,0.976,-0.156,-2.655,1.343,0.183,66.667,648.000,1.000,2.435,0.000
124772.200,121390.000,139246.900,129944.500,124641.200,130007.500,133961.200,127363.400,-0.175,0.975,-0.155,-2.655,1.465,-0.092,66.667,649.000,1.000,6.313,0.000
124766.400,121381.700,139239.600,129937.300,124632.300,129997.200,133953.200,127354.300,-0.175,0.975,-0.156,-2.655,1.465,-0.153,66.667,650.000,1.000,9.329,0.000
124762.600,121375.000,139235.800,129933.700,124626.000,129991.500,133945.800,127348.100,-0.175,0.976,-0.159,-2.655,1.434,-0.244,66.667,651.000,1.000,0.015,0.000
124760.200,121372.900,139236.100,129935.500,124626.500,129991.000,133944.700,127351.200,-0.175,0.978,-0.155,-2.747,1.434,-0.336,66.667,652.000,1.000,1.943,0.000
124760.600,121376.000,139239.000,129934.600,124631.500,129997.800,133951.200,127357.300,-0.172,0.981,-0.157,-2.777,1.526,-0.397,66.667,653.000,1.000,3.689,0.000
124763.000,121377.200,139243.200,129938.400,124636.300,130000.700,133953.200,127358.800,-0.170,0.976,-0.158,-3.021,1.587,-0.427,66.667,654.000,1.000,3.765,0.000
124769.900,121384.000,139251.700,129948.000,124644.100,130009.500,133957.900,127366.500,-0.171,0.971,-0.159,-3.021,1.709,-0.610,66.667,655.000,1.000,9.354,0.000
124767.100,121378.800,139246.500,129941.200,124639.200,130007.600,133955.000,127363.200,-0.173,0.971,-0.159,-2.991,1.831,-0.732,66.667,656.000,1.000,0.014,0.000
124765.600,121372.600,139238.000,129934.100,124632.900,130001.400,133955.700,127358.800,-0.171,0.971,-0.158,-2.991,1.923,-0.702,66.667,657.000,1.000,1.843,0.000
124765.400,121366.200,139230.700,129927.800,124625.700,129998.300,133950.000,127352.700,-0.172,0.971,-0.155,-3.052,2.045,-0.458,66.667,658.000,1.000,8.798,0.000
124774.500,121368.300,139235.000,129935.300,124626.200,130001.600,133949.400,127352.800,-0.172,0.972,-0.155,-2.960,2.075,-0.458,66.667,659.000,1.000,3.035,0.000
124780.400,121366.500,139237.600,129941.300,124626.300,129998.700,133953.400,127352.900,-0.172,0.973,-0.156,-3.021,2.136,-0.427,66.667,660.000,1.000,0.008,0.000
124796.600,121383.800,139255.500,129957.300,124643.400,130019.700,133970.500,127366.000,-0.173,0.969,-0.156,-3.143,2.167,-0.305,66.667,661.000,1.000,1.918,0.000
124783.400,121376.500,139247.800,129948.200,124635.800,130008.000,133962.900,127364.000,-0.173,0.968,-0.159,-3.143,2.136,-0.244,66.667,662.000,1.000,8.784,0.000
124768.600,121367.900,139238.600,129938.100,124625.500,129991.600,133946.900,127353.400,-0.177,0.965,-0.157,-3.113,2.197,-0.183,66.667,663.000,1.000,3.726,0.000
124771.400,121377.800,139245.000,129942.900,124629.400,129992.300,133940.300,127352.700,-0.174,0.964,-0.153,-3.021,2.136,-0.183,66.667,664.000,1.000,6.175,0.000
124767.700,121382.900,139247.700,129942.000,124634.900,130003.200,133952.500,127357.800,-0.177,0.964,-0.154,-2.899,2.106,-0.153,66.667,665.000,1.000,8.144,0.000
124762.000,121382.000,139243.100,129936.200,124631.900,130002.100,133949.900,127356.500,-0.180,0.964,-0.155,-2.716,2.136,-0.244,66.667,666.000,1.000,0.007,0.000
124766.400,121390.000,139247.700,129940.400,124636.300,130002.500,133947.500,127365.100,-0.182,0.964,-0.154,-2.594,2.075,-0.305,66.667,667.000,1.000,1.886,0.000
124754.100,121377.400,139232.300,129929.100,124622.600,129989.800,133934.200,127354.800,-0.183,0.965,-0.153,-2.441,1.862,-0.397,66.667,668.000,1.000,2.452,0.000
124750.300,121374.400,139226.700,129925.200,124618.200,129991.400,133933.700,127348.800,-0.183,0.967,-0.153,-2.472,1.770,-0.580,66.667,669.000,1.000,13.164,0.000
124753.800,121379.100,139230.200,129931.100,124622.800,129994.600,133940.400,127351.900,-0.182,0.966,-0.156,-2.258,1.648,-0.671,66.667,670.000,1.000,0.015,0.000
124755.300,121379.600,139232.400,129936.100,124625.300,129994.400,133945.400,127358.100,-0.181,0.969,-0.155,-2.167,1.434,-0.793,66.667,671.000,1.000,2.480,0.000
124759.000,121383.300,139238.500,129942.100,124631.700,130000.700,133955.500,127367.000,-0.178,0.971,-0.161,-2.106,1.373,-0.946,66.667,672.000,1.000,0.009,0.000
124753.700,121378.000,139233.500,129936.900,124627.200,129998.700,133953.300,127361.800,-0.177,0.969,-0.154,-1.862,1.221,-1.068,66.667,673.000,1.000,1.870,0.000
124753.900,121378.900,139233.500,129937.500,124626.600,129997.400,133952.800,127361.900,-0.177,0.970,-0.157,-1.740,1.282,-1.068,66.667,674.000,1.000,8.795,0.000
124759.100,121379.900,139237.400,129942.400,124630.000,129998.300,133955.400,127365.300,-0.176,0.969,-0.159,-1.740,1.251,-1.068,66.667,675.000,1.000,2.489,0.000
124762.200,121377.800,139237.600,129941.100,124630.000,129997.900,133955.200,127365.000,-0.174,0.971,-0.157,-1.648,1.312,-1.099,66.667,676.000,1.000,3.764,0.000
124767.000,121377.000,139239.100,129942.700,124630.000,129994.000,133955.400,127365.000,-0.174,0.971,-0.158,-1.617,1.373,-1.129,66.667,677.000,1.000,9.364,0.000
124771.400,121377.000,139242.300,129947.300,124633.000,129995.800,133962.200,127370.500,-0.172,0.971,-0.159,-1.556,1.404,-1.282,66.667,678.000,1.000,0.012,0.000
124764.900,121369.900,139235.600,129941.500,124625.100,129989.400,133954.000,127361.400,-0.172,0.973,-0.161,-1.526,1.404,-1.251,66.667,679.000,1.000,1.847,0.000
124760.800,121363.900,139231.300,129940.000,124621.800,129984.500,133948.700,127355.000,-0.173,0.974,-0.158,-1.678,1.495,-1.129,66.667,680.000,1.000,6.244,0.000
124761.800,121367.100,139232.500,129941.800,124626.000,129991.800,133954.500,127360.300,-0.171,0.974,-0.156,-1.740,1.495,-1.160,66.667,681.000,1.000,9.387,0.000
124766.500,121372.000,139236.500,129946.400,124634.100,130003.200,133965.900,127370.200,-0.170,0.974,-0.156,-1.770,1.526,-1.099,66.667,682.000,1.000,0.018,0.000
124760.600,121364.000,139230.300,129939.500,124628.100,129998.100,133960.800,127364.200,-0.168,0.974,-0.157,-1.892,1.709,-0.977,66.667,683.000,1.000,1.794,0.000
124760.000,121357.000,139227.300,129936.300,124622.300,129986.800,133954.100,127361.200,-0.172,0.976,-0.154,-2.014,1.770,-0.946,66.667,684.000,1.000,3.786,0.000
124759.800,121352.200,139224.400,129935.000,124615.400,129977.500,133943.800,127355.700,-0.172,0.974,-0.156,-2.075,1.892,-0.946,66.667,685.000,1.000,6.905,0.000
124763.300,121355.600,139226.200,129935.900,124615.400,129977.500,133942.100,127357.800,-0.171,0.974,-0.158,-2.289,1.923,-0.824,66.667,686.000,1.000,0.008,0.000
124759.900,121350.400,139220.400,129930.000,124609.100,129971.200,133934.600,127349.600,-0.172,0.972,-0.161,-2.350,2.106,-0.824,66.667,687.000,1.000,8.065,0.000
124758.100,121351.200,139216.900,129926.000,124606.400,129970.800,133937.700,127342.800,-0.172,0.972,-0.154,-2.319,2.289,-0.732,66.667,688.000,1.000,3.130,0.000
124748.900,121344.700,139206.700,129917.300,124594.200,129959.900,133921.600,127332.400,-0.173,0.973,-0.153,-2.502,2.472,-0.793,66.667,689.000,1.000,0.010,0.000
124750.500,121352.000,139210.400,129920.800,124598.500,129964.000,133923.900,127338.800,-0.172,0.973,-0.150,-2.594,2.655,-0.824,66.667,690.000,1.000,11.922,0.000
124746.000,121355.300,139208.300,129917.200,124598.000,129964.300,133917.000,127330.400,-0.170,0.972,-0.155,-2.716,2.777,-0.885,66.667,691.000,1.000,3.049,0.000
124767.700,121382.700,139233.600,129944.400,124625.500,129991.900,133944.100,127359.600,-0.173,0.972,-0.152,-2.808,2.899,-0.854,66.667,692.000,1.000,0.008,0.000
124762.400,121381.900,139231.300,129940.900,124625.100,129988.900,133938.700,127356.900,-0.175,0.968,-0.152,-2.808,2.991,-0.793,66.667,693.000,1.000,1.913,0.000
124768.300,121390.800,139239.600,129942.900,124634.600,130000.300,133949.700,127362.300,-0.175,0.966,-0.153,-2.686,3.143,-0.732,66.667,694.000,1.000,2.443,0.000
124758.400,121382.800,139230.900,129931.500,124625.500,129991.400,133940.200,127353.200,-0.176,0.966,-0.155,-2.563,3.265,-0.702,66.667,695.000,1.000,6.312,0.000
124762.300,121386.000,139235.400,129935.800,124629.500,129995.000,133944.100,127356.700,-0.178,0.966,-0.156,-2.502,3.204,-0.763,66.667,696.000,1.000,3.694,0.000
124767.700,121389.500,139239.600,129939.900,124635.200,130001.100,133953.800,127360.200,-0.178,0.968,-0.154,-2.289,3.265,-0.793,66.667,697.000,1.000,6.874,0.000
124755.800,121376.100,139227.800,129929.700,124624.300,129992.400,133946.000,127351.600,-0.180,0.967,-0.152,-2.258,3.265,-0.793,66.667,698.000,1.000,0.010,0.000
124751.000,121367.700,139221.300,129926.900,124617.900,129984.600,133940.300,127350.100,-0.182,0.967,-0.153,-2.197,3.235,-0.793,66.667,699.000,1.000,8.153,0.000
124754.800,121368.300,139223.500,129931.700,124618.600,129983.400,133941.700,127355.400,-0.183,0.966,-0.154,-2.075,3.021,-0.885,66.667,700.000,1.000,2.531,0.000
124755.900,121368.000,139223.800,129931.000,124615.800,129982.600,133937.800,127347.100,-0.181,0.969,-0.153,-1.923,3.052,-0.854,66.667,701.000,1.000,4.243,0.000
124754.200,121367.700,139222.000,129930.000,124613.800,129985.100,133937.700,127344.800,-0.181,0.969,-0.150,-1.892,2.930,-0.885,66.667,702.000,1.000,0.008,0.000
124756.600,121371.900,139224.500,129932.500,124617.800,129991.300,133943.000,127350.600,-0.183,0.969,-0.150,-1.831,2.747,-0.732,66.667,703.000,1.000,1.970,0.000
124755.000,121369.100,139223.400,129933.300,124617.900,129989.400,133942.100,127351.100,-0.182,0.968,-0.154,-1.678,2.625,-0.763,66.667,704.000,1.000,13.826,0.000
124756.600,121367.300,139223.800,129934.500,124617.100,129987.900,133939.600,127346.300,-0.183,0.969,-0.153,-1.831,2.533,-0.671,66.667,705.000,1.000,2.364,0.000
124766.000,121369.000,139231.300,129943.300,124623.200,129991.800,133942.800,127354.300,-0.183,0.968,-0.154,-1.770,2.380,-0.732,66.667,706.000,1.000,3.157,0.000
124767.000,121359.300,139227.400,129941.800,124618.900,129984.300,133936.700,127351.400,-0.181,0.970,-0.153,-1.648,2.197,-0.702,66.667,707.000,1.000,0.012,0.000
124760.400,121346.600,139218.100,129934.400,124609.900,129974.400,133931.800,127345.900,-0.183,0.971,-0.154,-1.770,2.106,-0.671,66.667,708.000,1.000,1.869,0.000
124759.900,121345.400,139214.800,129929.000,124607.900,129975.300,133933.100,127340.900,-0.182,0.971,-0.156,-1.923,1.923,-0.641,66.667,709.000,1.000,16.360,0.000
124764.000,121353.300,139218.800,129929.900,124612.000,129983.700,133942.600,127344.400,-0.183,0.974,-0.155,-1.984,1.740,-0.610,66.667,710.000,1.000,2.979,0.000
124763.200,121362.200,139220.600,129929.000,124613.100,129987.600,133950.100,127346.900,-0.181,0.978,-0.156,-2.075,1.556,-0.610,66.667,711.000,1.000,0.009,0.000
124758.300,121363.200,139216.700,129922.300,124609.700,129983.400,133945.000,127342.200,-0.181,0.978,-0.156,-2.228,1.648,-0.610,66.667,712.000,1.000,1.876,0.000
124760.600,121367.900,139218.000,129924.900,124610.400,129978.500,133937.600,127343.500,-0.179,0.975,-0.151,-2.533,1.556,-0.702,66.667,713.000,1.000,7.493,0.000
124769.600,121382.000,139227.500,129936.400,124623.400,129990.000,133951.100,127358.700,-0.178,0.975,-0.153,-2.747,1.526,-0.763,66.667,714.000,1.000,2.481,0.000
124750.700,121365.400,139210.200,129917.600,124603.900,129966.300,133920.300,127339.800,-0.174,0.974,-0.155,-2.899,1.587,-0.793,66.667,715.000,1.000,5.081,0.000
124742.600,121358.000,139203.200,129909.300,124594.700,129957.000,133908.000,127329.500,-0.173,0.971,-0.152,-3.021,1.648,-0.793,66.667,716.000,1.000,2.456,0.000
124744.600,121359.100,139206.000,129913.200,124597.100,129962.000,133909.800,127326.500,-0.173,0.969,-0.153,-2.991,1.648,-0.580,66.667,717.000,1.000,6.265,0.000
124751.700,121365.100,139213.900,129918.100,124604.500,129965.800,133916.700,127331.000,-0.170,0.969,-0.154,-2.991,1.770,-0.549,66.667,718.000,1.000,2.477,0.000
124749.200,121357.200,139210.800,129912.900,124600.200,129957.300,133916.000,127329.700,-0.169,0.968,-0.153,-2.899,1.953,-0.488,66.667,719.000,1.000,2.535,0.000
124742.500,121348.000,139203.600,129905.500,124591.000,129947.500,133905.200,127318.800,-0.169,0.967,-0.152,-2.747,2.167,-0.458,66.667,720.000,1.000,2.429,0.000
124753.000,121358.600,139213.700,129914.500,124599.600,129960.300,133912.200,127322.800,-0.168,0.965,-0.155,-2.777,2.472,-0.458,66.667,721.000,1.000,4.367,0.000
124754.400,121361.700,139217.100,129919.600,124603.600,129967.000,133918.500,127327.500,-0.168,0.963,-0.153,-2.594,2.625,-0.366,66.667,722.000,1.000,0.007,0.000
124757.300,121368.100,139221.300,129925.000,124610.900,129975.500,133929.400,127338.600,-0.169,0.963,-0.150,-2.380,2.747,-0.427,66.667,723.000,1.000,14.456,0.000
124779.000,121393.000,139246.300,129949.400,124638.900,130003.700,133960.000,127366.400,-0.172,0.964,-0.150,-2.167,2.960,-0.397,66.667,724.000,1.000,3.692,0.000
124771.600,121387.300,139245.000,129948.400,124639.100,130003.400,133961.200,127366.200,-0.176,0.964,-0.153,-2.045,3.143,-0.397,66.667,725.000,1.000,0.010,0.000
124769.500,121382.800,139239.600,129945.100,124633.700,130000.800,133956.100,127363.500,-0.175,0.964,-0.154,-1.801,3.235,-0.427,66.667,726.000,1.000,0.004,0.000
124768.400,121373.300,139231.400,129935.900,124623.100,129990.100,133947.400,127351.800,-0.178,0.966,-0.153,-1.678,3.296,-0.397,66.667,727.000,1.000,3.758,0.000
124771.700,121371.000,139231.500,129935.300,124621.200,129986.800,133947.300,127350.700,-0.177,0.967,-0.155,-1.495,3.326,-0.366,66.667,728.000,1.000,3.730,0.000
124771.300,121363.300,139224.400,129929.900,124613.800,129980.900,133939.800,127344.200,-0.178,0.967,-0.157,-1.343,3.296,-0.427,66.667,729.000,1.000,14.479,0.000
124775.600,121360.800,139222.900,129928.900,124610.400,129979.500,133933.600,127339.700,-0.179,0.969,-0.156,-1.373,3.357,-0.397,66.667,730.000,1.000,0.013,0.000
124780.700,121356.500,139222.500,129930.100,124606.600,129974.000,133928.800,127335.800,-0.179,0.966,-0.157,-1.190,3.326,-0.458,66.667,731.000,1.000,1.737,0.000
124789.000,121359.000,139229.300,129937.800,124611.200,129973.700,133933.500,127343.600,-0.179,0.966,-0.160,-1.099,3.235,-0.305,66.667,732.000,1.000,2.496,0.000
124791.400,121361.200,139232.100,129941.500,124613.500,129973.700,133934.700,127349.200,-0.182,0.967,-0.159,-0.946,3.082,-0.275,66.667,733.000,1.000,2.491,0.000
124790.300,121363.200,139230.400,129936.100,124610.900,129976.200,133932.800,127343.800,-0.180,0.968,-0.159,-1.007,3.082,-0.275,66.667,734.000,1.000,8.803,0.000
124777.200,121355.000,139218.200,129922.800,124601.100,129968.400,133921.700,127331.600,-0.181,0.970,-0.159,-1.007,2.930,-0.244,66.667,735.000,1.000,3.037,0.000
124786.000,121366.300,139228.100,129931.200,124614.500,129977.200,133933.500,127343.500,-0.182,0.972,-0.160,-1.190,2.808,-0.305,66.667,736.000,1.000,0.011,0.000
124792.000,121377.800,139236.700,129938.800,124624.100,129984.000,133943.200,127350.900,-0.182,0.973,-0.160,-1.129,2.716,-0.244,66.667,737.000,1.000,11.306,0.000
124793.300,121383.000,139239.100,129941.300,124627.300,129985.100,133947.900,127354.800,-0.181,0.974,-0.160,-1.221,2.563,-0.244,66.667,738.000,1.000,0.015,0.000
124804.300,121395.900,139249.000,129952.100,124638.400,129997.800,133963.200,127366.800,-0.180,0.973,-0.162,-1.312,2.289,-0.305,66.667,739.000,1.000,2.358,0.000
124796.300,121389.100,139239.100,129942.600,124627.800,129991.200,133950.600,127349.200,-0.181,0.974,-0.162,-1.495,2.045,-0.305,66.667,740.000,1.000,0.011,0.000
124795.300,121387.800,139237.200,129941.800,124625.400,129988.900,133943.000,127342.700,-0.183,0.973,-0.163,-1.678,1.740,-0.305,66.667,741.000,1.000,8.178,0.000
124802.000,121397.300,139245.700,129948.400,124633.600,129995.300,133948.100,127347.000,-0.184,0.973,-0.163,-1.892,1.587,-0.397,66.667,742.000,1.000,3.087,0.000
124818.700,121417.000,139265.100,129965.900,124654.700,130013.100,133970.400,127365.700,-0.185,0.975,-0.163,-2.014,1.251,-0.519,66.667,743.000,1.000,0.010,0.000
124810.400,121410.300,139260.000,129961.400,124650.700,130007.300,133963.600,127359.900,-0.185,0.975,-0.165,-2.228,1.007,-0.610,66.667,744.000,1.000,8.234,0.000
