EEG 1, EEG 2, EEG 3, EEG 4, EEG 5, EEG 6, EEG 7, EEG 8, ACC X, ACC Y, ACC Z, GYR X, GYR Y, GYR Z, BAT, CNT, VALID, DT, TRIG
31839.950,30962.690,35499.150,33088.370,31459.140,33414.370,33638.640,32122.950,-0.168,0.946,-0.146,0.000,0.000,0.000,66.667,1.000,1.000,0.000,0.000
108698.100,105705.300,121171.500,112948.800,107398.800,114071.800,114833.300,109663.500,-0.161,0.969,-0.160,0.000,0.000,0.000,66.667,2.000,1.000,19.421,0.000
167289.400,162688.100,186437.600,173802.100,165292.200,175557.800,176719.500,168774.200,-0.157,0.976,-0.163,-2.167,0.397,-0.275,66.667,3.000,1.000,2.480,0.000
180200.600,175249.000,200755.100,187172.000,178052.100,189104.600,190341.600,181800.000,-0.154,0.979,-0.173,-5.341,-2.838,-0.946,66.667,4.000,1.000,2.441,0.000
179802.300,174863.000,200244.100,186716.000,177658.100,188682.300,189904.900,181398.100,-0.154,0.978,-0.172,-4.730,-3.662,-0.793,66.667,5.000,1.000,3.846,0.000
172668.200,167925.300,192237.300,179268.300,170606.100,181189.700,182354.900,174199.800,-0.150,0.977,-0.169,-4.547,-3.937,-0.580,66.667,6.000,1.000,3.656,0.000
154374.800,150136.500,171803.200,160233.500,152529.000,161987.600,163018.300,155742.800,-0.145,0.972,-0.167,-4.517,-3.845,-0.519,66.667,7.000,1.000,15.041,0.000
143752.700,139807.700,159939.000,149182.000,142032.300,150838.000,151788.200,145024.300,-0.139,0.969,-0.168,-4.608,-3.693,-0.244,66.667,8.000,1.000,3.048,0.000
149116.000,145023.500,165905.400,154747.100,147329.200,156462.600,157447.100,150431.200,-0.133,0.963,-0.169,-4.730,-3.326,0.092,66.667,9.000,1.000,0.012,0.000
158859.200,154497.600,176752.300,164861.200,156953.500,166681.300,167735.400,160257.000,-0.125,0.958,-0.169,-4.608,-3.021,0.305,66.667,10.000,1.000,1.927,0.000
158312.800,153964.800,176123.000,164280.300,156413.000,166102.900,167155.000,159705.300,-0.121,0.956,-0.175,-4.517,-2.472,0.610,66.667,11.000,1.000,2.491,0.000
143939.800,139987.300,160081.400,149332.900,142213.100,151017.600,151968.600,145205.100,-0.120,0.951,-0.179,-4.242,-1.923,0.702,66.667,12.000,1.000,3.746,0.000
134704.500,131007.100,149779.300,139729.600,133089.600,141326.300,142212.400,135885.800,-0.121,0.951,-0.182,-3.906,-1.373,0.916,66.667,13.000,1.000,6.266,0.000
138720.600,134913.000,154256.600,143900.700,137057.700,145541.800,146455.600,139935.200,-0.123,0.948,-0.184,-3.540,-0.977,1.099,66.667,14.000,1.000,4.410,0.000
146598.300,142574.600,163035.100,152085.300,144841.800,153811.100,154778.400,147883.500,-0.124,0.946,-0.186,-3.235,-0.641,1.190,66.667,15.000,1.000,0.010,0.000
146453.700,142437.300,162865.800,151931.700,144701.700,153664.600,154628.300,147740.600,-0.125,0.941,-0.191,-2.594,-0.275,1.038,66.667,16.000,1.000,3.038,0.000
135442.400,131733.000,150582.300,140484.900,133824.800,142115.000,142999.100,136634.000,-0.125,0.937,-0.194,-2.228,0.092,1.068,66.667,17.000,1.000,13.759,0.000
128257.700,124746.900,142570.500,133017.800,126726.300,134578.800,135412.700,129387.100,-0.128,0.939,-0.195,-1.526,0.427,0.977,66.667,18.000,1.000,3.124,0.000
131207.400,127614.900,145859.000,136082.600,129639.800,137677.000,138532.300,132364.000,-0.130,0.940,-0.203,-0.854,0.641,0.854,66.667,19.000,1.000,0.010,0.000
137150.500,133396.900,152482.500,142256.000,135513.000,143918.300,144813.900,138360.700,-0.134,0.944,-0.203,-0.244,0.854,0.671,66.667,20.000,1.000,5.640,0.000
137098.000,133349.300,152418.700,142198.400,135463.400,143866.300,144759.600,138307.200,-0.135,0.949,-0.207,0.275,1.068,0.427,66.667,21.000,1.000,2.497,0.000
128904.200,125381.700,143278.700,133681.800,127367.800,135267.800,136101.600,130037.900,-0.136,0.949,-0.209,0.732,1.099,0.061,66.667,22.000,1.000,2.503,0.000
123434.800,120060.900,137180.800,127999.300,121961.700,129526.500,130321.300,124517.900,-0.136,0.950,-0.212,1.312,1.221,-0.275,66.667,23.000,1.000,3.748,0.000
125369.200,121940.500,139339.500,130012.200,123871.000,131554.300,132364.900,126470.400,-0.136,0.951,-0.215,1.648,1.373,-0.580,66.667,24.000,1.000,6.798,0.000
129533.700,125990.400,143982.300,134340.000,127984.800,135923.100,136765.900,130673.500,-0.135,0.956,-0.218,2.136,1.495,-0.732,66.667,25.000,1.000,0.011,0.000
129449.400,125908.200,143884.500,134248.800,127900.400,135832.500,136676.200,130587.800,-0.136,0.960,-0.223,2.655,1.587,-0.885,66.667,26.000,1.000,8.175,0.000
123582.300,120199.100,137338.400,128148.400,122101.000,129670.200,130474.700,124667.700,-0.135,0.965,-0.229,3.052,1.587,-1.099,66.667,27.000,1.000,3.010,0.000
119550.400,116272.100,132841.100,123958.500,118114.700,125433.600,126214.000,120600.400,-0.137,0.965,-0.230,3.479,1.740,-1.251,66.667,28.000,1.000,0.008,0.000
120628.200,117316.300,134043.500,125080.500,119179.800,126564.400,127356.900,121690.200,-0.137,0.962,-0.229,3.723,1.831,-1.404,66.667,29.000,1.000,1.998,0.000
123271.400,119886.100,136991.500,127828.300,121792.700,129339.800,130152.300,124359.200,-0.134,0.959,-0.229,3.967,1.953,-1.526,66.667,30.000,1.000,15.024,0.000
123110.300,119730.000,136809.900,127658.600,121632.600,129169.000,129977.400,124193.200,-0.138,0.956,-0.229,4.211,2.045,-1.434,66.667,31.000,1.000,27.503,0.000
119130.600,115861.700,132369.400,123519.500,117699.400,124990.200,125768.400,120172.900,-0.140,0.953,-0.228,4.425,2.014,-1.526,66.667,32.000,1.000,2.464,0.000
116257.400,113070.600,129165.200,120532.800,114861.300,121975.100,122735.100,117274.500,-0.146,0.954,-0.228,4.730,2.075,-1.587,66.667,33.000,1.000,2.514,0.000
116612.500,113416.700,129561.800,120903.100,115213.000,122348.600,123114.500,117635.600,-0.152,0.956,-0.230,5.035,2.014,-1.648,66.667,34.000,1.000,2.505,0.000
118005.400,114769.800,131114.000,122351.800,116589.500,123810.400,124587.600,119041.500,-0.152,0.958,-0.231,5.188,1.953,-1.678,66.667,35.000,1.000,2.429,0.000
117770.700,114540.200,130850.100,122108.200,116357.700,123563.400,124339.100,118804.100,-0.151,0.958,-0.229,5.341,1.770,-1.709,66.667,36.000,1.000,2.485,0.000
115289.200,112125.500,128081.700,119528.400,113905.800,120957.800,121717.400,116300.800,-0.151,0.958,-0.229,5.219,1.801,-1.678,66.667,37.000,1.000,2.621,0.000
113340.600,110228.400,125910.000,117502.100,111980.400,118910.100,119657.800,114333.600,-0.151,0.958,-0.230,5.188,1.434,-1.648,66.667,38.000,1.000,2.468,0.000
113132.400,110024.800,125679.600,117285.600,111774.200,118688.900,119433.300,114117.100,-0.153,0.957,-0.228,5.157,1.343,-1.740,66.667,39.000,1.000,2.447,0.000
113527.900,110409.300,126121.100,117697.400,112164.600,119103.000,119846.300,114508.900,-0.153,0.957,-0.231,5.127,1.160,-1.740,66.667,40.000,1.000,2.469,0.000
113200.900,110091.000,125756.300,117359.400,111842.400,118760.800,119501.800,114179.400,-0.153,0.953,-0.228,4.913,1.099,-1.587,66.667,41.000,1.000,2.502,0.000
111857.300,108784.600,124258.500,115965.500,110516.000,117352.600,118085.500,112828.600,-0.153,0.952,-0.230,4.852,1.038,-1.465,66.667,42.000,1.000,2.528,0.000
110630.500,107593.500,122891.800,114691.800,109303.200,116066.600,116788.700,111591.800,-0.150,0.948,-0.229,4.822,0.885,-1.312,66.667,43.000,1.000,3.054,0.000
110015.600,106997.000,122206.400,114050.900,108692.100,115421.500,116135.500,110967.000,-0.153,0.947,-0.225,4.822,0.854,-1.007,66.667,44.000,1.000,0.013,0.000
109663.600,106653.900,121811.700,113680.800,108339.400,115051.300,115759.700,110605.800,-0.156,0.947,-0.226,4.761,0.854,-0.702,66.667,45.000,1.000,1.898,0.000
109259.300,106258.800,121357.900,113256.800,107935.500,114627.800,115329.900,110193.400,-0.162,0.950,-0.221,4.669,0.854,-0.336,66.667,46.000,1.000,3.083,0.000
108751.200,105763.000,120789.100,112725.900,107429.600,114096.200,114792.100,109678.700,-0.163,0.955,-0.224,4.425,0.641,0.031,66.667,47.000,1.000,0.065,0.000
108064.300,105092.200,120020.600,112010.100,106746.800,113373.500,114065.900,108985.300,-0.166,0.961,-0.223,4.303,0.549,0.397,66.667,48.000,1.000,2.422,0.000
107175.200,104223.600,119026.300,111085.800,105866.400,112436.600,113127.800,108090.600,-0.167,0.972,-0.224,3.998,0.183,0.671,66.667,49.000,1.000,0.014,0.000
106292.300,103361.200,118040.300,110168.800,104995.300,111507.500,112198.300,107203.800,-0.169,0.977,-0.222,3.632,0.153,1.068,66.667,50.000,1.000,8.129,0.000
105828.700,102907.600,117523.400,109686.400,104539.300,111019.700,111711.200,106737.800,-0.170,0.980,-0.219,3.204,-0.061,1.526,66.667,51.000,1.000,3.794,0.000
105916.400,102991.900,117621.400,109776.500,104627.600,111111.700,111806.100,106826.800,-0.170,0.982,-0.221,2.808,-0.214,1.801,66.667,52.000,1.000,9.316,0.000
105623.100,102706.800,117294.000,109472.100,104339.600,110806.100,111500.900,106532.700,-0.170,0.979,-0.219,2.289,-0.336,2.075,66.667,53.000,1.000,0.015,0.000
104554.800,101668.000,116101.400,108362.200,103284.800,109686.800,110375.300,105454.400,-0.171,0.978,-0.219,1.709,-0.580,2.380,66.667,54.000,1.000,1.872,0.000
103310.900,100457.300,114712.800,107069.100,102053.500,108376.900,109054.700,104194.300,-0.173,0.975,-0.222,1.404,-0.763,2.563,66.667,55.000,1.000,3.699,0.000
102796.500,99953.140,114137.300,106533.800,101539.000,107824.700,108494.900,103666.900,-0.172,0.973,-0.222,1.038,-0.916,2.716,66.667,56.000,1.000,8.854,0.000
103255.800,100393.900,114647.100,107010.000,101985.500,108295.800,108966.000,104122.300,-0.172,0.972,-0.217,0.793,-1.038,2.930,66.667,57.000,1.000,3.055,0.000
103218.100,100353.800,114604.200,106971.000,101945.400,108254.900,108925.700,104083.600,-0.169,0.972,-0.213,0.519,-1.190,3.204,66.667,58.000,1.000,0.009,0.000
102061.200,99229.760,113315.300,105769.800,100803.700,107045.600,107712.100,102923.200,-0.164,0.972,-0.210,0.305,-1.251,3.418,66.667,59.000,1.000,15.578,0.000
100610.600,97822.410,111699.800,104262.000,99372.120,105527.300,106186.200,101465.200,-0.159,0.972,-0.207,-0.061,-1.221,3.632,66.667,60.000,1.000,0.011,0.000
100068.900,97298.450,111097.300,103698.100,98837.200,104958.800,105614.700,100918.300,-0.155,0.971,-0.207,-0.488,-1.160,3.937,66.667,61.000,1.000,0.004,0.000
100753.900,97967.200,111862.900,104410.600,99514.910,105676.600,106336.600,101605.500,-0.153,0.969,-0.206,-0.610,-0.977,4.120,66.667,62.000,1.000,2.526,0.000
100883.200,98097.340,112011.300,104547.100,99646.120,105813.800,106472.000,101732.800,-0.150,0.972,-0.201,-0.885,-0.824,4.211,66.667,63.000,1.000,10.222,0.000
99700.890,96952.930,110698.500,103321.500,98482.480,104575.300,105222.500,100539.500,-0.147,0.976,-0.196,-1.038,-0.610,4.517,66.667,64.000,1.000,2.856,0.000
98151.770,95450.470,108976.900,101717.300,96956.760,102953.000,103589.100,98981.260,-0.142,0.981,-0.190,-1.312,-0.366,4.608,66.667,65.000,1.000,0.005,0.000
97583.730,94900.320,108349.200,101133.300,96400.870,102363.200,102996.600,98415.380,-0.137,0.984,-0.186,-1.556,0.000,4.639,66.667,66.000,1.000,1.984,0.000
98354.730,95651.630,109212.700,101936.800,97166.400,103178.400,103817.700,99196.250,-0.135,0.985,-0.186,-1.831,0.549,4.608,66.667,67.000,1.000,3.716,0.000
98575.660,95867.000,109458.500,102163.800,97385.050,103412.200,104051.900,99416.950,-0.132,0.984,-0.183,-2.258,1.038,4.669,66.667,68.000,1.000,9.299,0.000
97429.850,94752.100,108178.600,100968.600,96250.840,102208.300,102836.400,98256.230,-0.130,0.981,-0.183,-2.655,1.526,4.761,66.667,69.000,1.000,0.008,0.000
95880.100,93245.510,106449.400,99355.640,94717.690,100582.100,101193.800,96687.840,-0.131,0.980,-0.180,-2.808,1.923,4.761,66.667,70.000,1.000,1.946,0.000
95315.550,92698.480,105821.100,98771.590,94160.990,99993.260,100600.400,96120.180,-0.129,0.979,-0.178,-3.021,2.411,4.669,66.667,71.000,1.000,11.852,0.000
96092.870,93455.360,106691.700,99586.030,94933.510,100814.400,101432.700,96915.160,-0.129,0.980,-0.175,-3.174,2.930,4.547,66.667,72.000,1.000,0.013,0.000
96329.140,93684.680,106960.800,99839.190,95172.160,101067.700,101693.600,97163.690,-0.129,0.982,-0.175,-3.387,3.387,4.333,66.667,73.000,1.000,2.374,0.000
95227.480,92612.270,105736.800,98698.510,94085.620,99913.940,100534.300,96055.010,-0.130,0.986,-0.176,-3.632,3.906,4.303,66.667,74.000,1.000,0.012,0.000
93721.980,91147.140,104059.800,97133.310,92596.480,98334.390,98944.330,94535.420,-0.133,0.987,-0.173,-3.784,4.272,4.150,66.667,75.000,1.000,10.758,0.000
93150.200,90590.380,103423.300,96538.190,92029.050,97735.080,98341.050,93958.620,-0.136,0.985,-0.172,-4.089,4.608,3.967,66.667,76.000,1.000,3.088,0.000
93868.210,91287.970,104222.900,97283.160,92735.110,98486.000,99096.950,94682.590,-0.140,0.983,-0.170,-4.395,4.944,3.937,66.667,77.000,1.000,0.010,0.000
94107.210,91520.730,104487.000,97528.640,92968.490,98731.730,99343.940,94922.850,-0.141,0.976,-0.168,-4.486,5.219,3.723,66.667,78.000,1.000,1.875,0.000
93094.370,90537.270,103359.000,96476.810,91969.650,97667.790,98272.840,93902.460,-0.140,0.960,-0.167,-4.364,5.432,3.479,66.667,79.000,1.000,3.748,0.000
91682.490,89165.530,101789.200,95013.570,90579.150,96188.830,96783.670,92478.300,-0.140,0.946,-0.166,-4.211,5.737,3.204,66.667,80.000,1.000,13.776,0.000
91121.360,88620.490,101167.000,94433.590,90027.890,95602.230,96193.630,91908.510,-0.141,0.933,-0.169,-3.723,6.042,2.930,66.667,81.000,1.000,2.998,0.000
91739.800,89221.630,101857.500,95079.990,90640.370,96250.220,96847.700,92528.750,-0.141,0.924,-0.172,-2.960,6.226,2.441,66.667,82.000,1.000,0.010,0.000
91934.000,89408.050,102073.000,95282.800,90830.720,96446.340,97044.150,92718.780,-0.142,0.923,-0.172,-2.045,6.561,2.045,66.667,83.000,1.000,1.910,0.000
91007.040,88503.340,101039.400,94317.400,89912.720,95463.910,96054.410,91778.450,-0.144,0.922,-0.168,-1.129,6.836,1.923,66.667,84.000,1.000,2.568,0.000
89717.800,87248.450,99604.350,92979.520,88640.520,94108.210,94693.550,90481.560,-0.142,0.921,-0.167,-0.366,6.989,1.465,66.667,85.000,1.000,14.960,0.000
89177.480,86724.640,99004.810,92422.190,88110.310,93546.050,94130.610,89944.100,-0.138,0.922,-0.162,0.427,7.324,1.160,66.667,86.000,1.000,3.104,0.000
89668.000,87204.920,99554.160,92933.210,88597.590,94068.880,94654.840,90442.850,-0.138,0.928,-0.158,1.251,7.751,0.977,66.667,87.000,1.000,0.010,0.000
89797.960,87334.470,99700.890,93068.780,88727.810,94212.330,94796.170,90576.320,-0.139,0.939,-0.159,2.014,8.087,0.854,66.667,88.000,1.000,1.888,0.000
88974.080,86534.990,98783.550,92214.810,87915.520,93352.320,93929.380,89749.070,-0.139,0.948,-0.162,2.655,8.514,0.641,66.667,89.000,1.000,2.451,0.000
87828.950,85422.380,97508.730,91026.050,86785.700,92153.840,92722.670,88596.790,-0.141,0.959,-0.158,3.265,8.820,0.336,66.667,90.000,1.000,2.540,0.000
87306.590,84915.800,96929.730,90483.160,86271.290,91607.340,92173.620,88071.520,-0.141,0.971,-0.160,3.906,9.277,0.061,66.667,91.000,1.000,9.291,0.000
87659.300,85261.050,97327.410,90851.680,86622.500,91978.410,92550.100,88430.700,-0.146,0.984,-0.160,4.150,9.521,-0.031,66.667,92.000,1.000,0.010,0.000
87718.110,85322.190,97396.830,90915.850,86684.410,92043.720,92618.490,88494.950,-0.150,0.992,-0.163,4.059,9.735,-0.214,66.667,93.000,1.000,1.949,0.000
86979.140,84607.850,96575.410,90150.930,85957.460,91273.670,91845.210,87754.250,-0.150,1.001,-0.164,4.028,10.010,-0.488,66.667,94.000,1.000,3.749,0.000
85962.670,83620.900,95444.560,89098.990,84955.080,90210.520,90777.410,86733.630,-0.146,1.006,-0.170,3.693,10.284,-0.519,66.667,95.000,1.000,14.300,0.000
85460.120,83131.170,94886.600,88579.560,84459.000,89684.670,90248.820,86229.320,-0.146,1.008,-0.171,3.326,10.406,-0.458,66.667,96.000,1.000,0.013,0.000
85683.520,83346.580,95136.580,88809.630,84677.670,89919.550,90482.410,86451.470,-0.147,1.010,-0.175,2.808,10.559,-0.183,66.667,97.000,1.000,2.534,0.000
85672.980,83334.130,95124.710,88795.280,84664.060,89907.850,90467.400,86435.760,-0.150,1.010,-0.175,2.319,10.651,-0.122,66.667,98.000,1.000,0.006,0.000
85014.340,82691.520,94390.450,88110.630,84011.410,89215.670,89770.600,85771.480,-0.152,1.012,-0.180,1.984,10.834,-0.031,66.667,99.000,1.000,1.923,0.000
84123.350,81823.200,93397.730,87186.840,83130.150,88278.970,88829.800,84875.950,-0.153,1.010,-0.187,1.434,10.895,0.031,66.667,100.000,1.000,8.693,0.000
83639.830,81352.540,92860.670,86685.770,82651.720,87769.770,88317.880,84388.660,-0.150,1.010,-0.190,0.885,10.925,0.336,66.667,101.000,1.000,4.384,0.000
83737.460,81448.480,92972.270,86786.540,82747.380,87869.860,88417.690,84484.600,-0.149,1.013,-0.190,0.336,10.925,0.336,66.667,102.000,1.000,0.008,0.000
83664.200,81377.950,92891.640,86709.010,82673.160,87788.770,88334.380,84406.840,-0.145,1.017,-0.188,-0.122,11.017,0.427,66.667,103.000,1.000,8.091,0.000
83091.700,80822.170,92253.480,86114.690,82106.430,87186.470,87724.250,83824.450,-0.144,1.016,-0.191,-0.641,10.925,0.610,66.667,104.000,1.000,2.603,0.000
82329.160,80081.500,91405.200,85324.670,81354.910,86389.410,86917.610,83051.460,-0.141,1.014,-0.194,-1.373,10.956,0.793,66.667,105.000,1.000,3.622,0.000
81874.680,79638.980,90901.540,84853.400,80909.570,85915.260,86439.760,82593.570,-0.140,1.004,-0.191,-2.014,10.620,0.977,66.667,106.000,1.000,8.834,0.000
81866.860,79630.090,90895.200,84844.870,80904.800,85907.280,86434.290,82588.840,-0.143,0.998,-0.191,-2.625,10.468,1.007,66.667,107.000,1.000,3.012,0.000
81731.950,79497.500,90745.470,84705.090,80771.630,85764.840,86292.330,82452.370,-0.144,0.992,-0.190,-3.021,10.406,0.854,66.667,108.000,1.000,0.009,0.000
81219.630,78998.400,90173.290,84172.420,80262.330,85225.990,85748.840,81930.050,-0.145,0.986,-0.187,-3.235,10.223,0.732,66.667,109.000,1.000,1.897,0.000
80560.270,78358.210,89437.310,83484.880,79607.190,84533.450,85048.950,81258.240,-0.146,0.979,-0.187,-3.540,9.888,0.549,66.667,110.000,1.000,8.820,0.000
80127.720,77939.720,88955.820,83034.340,79177.270,84078.980,84586.590,80816.280,-0.143,0.971,-0.189,-3.662,9.552,0.214,66.667,111.000,1.000,4.299,0.000
80019.170,77835.130,88836.690,82923.550,79068.670,83964.770,84467.710,80704.090,-0.142,0.961,-0.187,-3.571,9.216,-0.092,66.667,112.000,1.000,0.009,0.000
79820.540,77641.230,88616.860,82719.540,78873.450,83758.610,84263.120,80507.480,-0.138,0.949,-0.187,-3.387,9.094,-0.397,66.667,113.000,1.000,5.736,0.000
79360.410,77192.080,88103.840,82241.700,78420.830,83277.090,83786.620,80050.010,-0.132,0.938,-0.189,-3.021,8.789,-0.580,66.667,114.000,1.000,3.710,0.000
78796.030,76641.050,87472.480,81653.430,77861.470,82678.550,83189.100,79479.840,-0.130,0.934,-0.195,-2.777,8.514,-0.702,66.667,115.000,1.000,4.308,0.000
78383.520,76238.520,87011.200,81223.780,77449.380,82235.450,82742.160,79057.000,-0.128,0.930,-0.200,-2.594,8.148,-0.763,66.667,116.000,1.000,0.007,0.000
78193.180,76055.280,86800.730,81026.820,77259.820,82032.140,82535.020,78862.790,-0.127,0.926,-0.197,-2.014,7.935,-1.038,66.667,117.000,1.000,13.204,0.000
77951.340,75823.590,86532.600,80775.730,77021.740,81782.350,82280.870,78618.460,-0.129,0.928,-0.196,-0.885,7.874,-1.709,66.667,118.000,1.000,3.029,0.000
77535.450,75418.850,86067.630,80342.900,76609.310,81348.410,81841.630,78194.980,-0.130,0.939,-0.195,0.275,7.843,-2.380,66.667,119.000,1.000,0.008,0.000
77034.950,74928.450,85507.840,79823.260,76111.140,80821.950,81310.800,77686.630,-0.131,0.951,-0.197,0.885,7.660,-2.716,66.667,120.000,1.000,1.920,0.000
76630.950,74533.770,85056.730,79403.530,75709.440,80398.680,80884.550,77279.240,-0.135,0.958,-0.200,1.068,7.294,-2.747,66.667,121.000,1.000,3.778,0.000
76380.250,74291.130,84777.880,79140.640,75461.270,80138.350,80622.840,77026.990,-0.136,0.961,-0.197,1.373,6.958,-2.655,66.667,122.000,1.000,10.568,0.000
76102.410,74022.220,84471.050,78850.740,75187.950,79849.040,80332.540,76747.330,-0.141,0.967,-0.200,1.526,6.653,-2.625,66.667,123.000,1.000,0.012,0.000
75717.750,73647.930,84045.800,78453.300,74809.370,79446.450,79927.740,76360.630,-0.148,0.969,-0.205,1.678,6.256,-2.441,66.667,124.000,1.000,2.498,0.000
75283.180,73225.160,83562.980,78005.530,74381.860,78992.480,79472.720,75925.270,-0.154,0.968,-0.208,1.617,5.768,-2.319,66.667,125.000,1.000,0.009,0.000
74903.670,72857.450,83140.770,77615.700,74011.680,78599.920,79083.400,75550.740,-0.159,0.967,-0.211,1.648,5.219,-2.350,66.667,126.000,1.000,10.649,0.000
74602.590,72565.840,82806.980,77307.630,73720.050,78288.730,78775.520,75257.490,-0.164,0.962,-0.214,1.740,4.547,-2.319,66.667,127.000,1.000,2.491,0.000
74286.170,72257.780,82457.600,76983.310,73410.980,77957.000,78442.700,74945.260,-0.170,0.957,-0.219,1.984,3.845,-2.289,66.667,128.000,1.000,2.483,0.000
73921.450,71903.290,82055.330,76607.700,73053.070,77576.090,78057.070,74581.310,-0.171,0.954,-0.225,2.289,3.052,-2.197,66.667,129.000,1.000,3.735,0.000
73532.510,71526.990,81625.020,76204.790,72670.540,77172.730,77647.100,74191.200,-0.172,0.950,-0.227,2.625,2.502,-2.197,66.667,130.000,1.000,11.917,0.000
73162.660,71169.130,81214.450,75820.980,72304.240,76787.020,77253.480,73815.990,-0.173,0.950,-0.225,3.113,1.984,-2.106,66.667,131.000,1.000,0.024,0.000
72822.810,70838.490,80836.760,75470.080,71965.830,76429.390,76889.990,73467.860,-0.172,0.956,-0.229,3.387,1.282,-1.984,66.667,132.000,1.000,2.417,0.000
72493.140,70516.160,80470.230,75130.620,71637.790,76079.870,76540.740,73133.440,-0.169,0.961,-0.228,3.540,0.854,-1.923,66.667,133.000,1.000,0.007,0.000
72161.590,70192.120,80100.850,74784.830,71306.390,75726.230,76187.190,72796.300,-0.165,0.966,-0.226,3.693,0.519,-1.709,66.667,134.000,1.000,10.684,0.000
71815.310,69854.810,79713.840,74416.750,70957.730,75356.290,75812.240,72435.180,-0.158,0.968,-0.226,3.784,0.061,-1.465,66.667,135.000,1.000,2.404,0.000
71465.070,69514.730,79322.230,74044.300,70606.340,74984.720,75435.510,72068.330,-0.151,0.971,-0.223,3.845,-0.153,-1.129,66.667,136.000,1.000,2.561,0.000
71110.420,69170.320,78927.770,73674.260,70255.170,74614.410,75061.320,71706.040,-0.144,0.974,-0.222,3.784,-0.244,-0.763,66.667,137.000,1.000,2.515,0.000
70761.270,68830.310,78542.610,73316.190,69912.960,74254.060,74697.140,71358.320,-0.139,0.978,-0.222,3.662,-0.275,-0.519,66.667,138.000,1.000,6.246,0.000
70434.670,68512.360,78182.750,72982.980,69593.220,73915.210,74356.710,71036.300,-0.136,0.982,-0.224,3.510,0.031,-0.458,66.667,139.000,1.000,4.297,0.000
70118.340,68205.320,77830.920,72656.790,69281.520,73582.090,74024.120,70722.000,-0.133,0.990,-0.220,3.296,0.305,-0.580,66.667,140.000,1.000,0.007,0.000
69782.150,67877.580,77454.800,72306.910,68948.160,73226.230,73667.620,70383.870,-0.132,0.997,-0.221,3.174,0.641,-0.580,66.667,141.000,1.000,10.639,0.000
69407.480,67510.050,77036.900,71918.590,68575.580,72830.340,73268.440,70003.760,-0.132,1.002,-0.217,2.808,0.824,-0.488,66.667,142.000,1.000,3.115,0.000
69049.790,67160.670,76639.630,71549.290,68220.280,72453.630,72886.810,69638.700,-0.133,1.002,-0.215,2.258,1.038,-0.214,66.667,143.000,1.000,0.007,0.000
68735.690,66856.900,76292.450,71225.360,67911.070,72125.340,72555.060,69321.200,-0.135,0.998,-0.214,1.678,1.190,-0.122,66.667,144.000,1.000,1.937,0.000
68423.870,66555.970,75949.130,70904.310,67606.650,71802.880,72230.360,69012.150,-0.136,0.994,-0.210,1.251,1.434,-0.122,66.667,145.000,1.000,8.699,0.000
68082.530,66224.570,75570.690,70550.800,67271.210,71447.820,71873.840,68671.910,-0.137,0.990,-0.209,0.854,1.556,-0.061,66.667,146.000,1.000,3.106,0.000
67712.850,65864.280,75156.870,70165.490,66905.410,71058.410,71486.200,68299.690,-0.140,0.981,-0.212,0.244,1.770,-0.214,66.667,147.000,1.000,0.006,0.000
67371.110,65533.160,74774.980,69809.720,66569.300,70700.880,71131.540,67958.700,-0.140,0.971,-0.213,-0.122,1.831,-0.183,66.667,148.000,1.000,1.926,0.000
67068.700,65242.790,74441.200,69497.080,66274.980,70389.270,70819.780,67659.060,-0.141,0.959,-0.217,-0.214,2.045,-0.153,66.667,149.000,1.000,12.461,0.000
66762.000,64947.430,74106.290,69182.700,65977.010,70072.650,70501.300,67352.070,-0.139,0.948,-0.217,-0.244,2.350,-0.183,66.667,150.000,1.000,3.101,0.000
66412.420,64608.500,73723.800,68824.360,65635.950,69708.810,70136.150,67000.340,-0.138,0.940,-0.218,-0.214,2.411,-0.031,66.667,151.000,1.000,0.011,0.000
66028.110,64236.200,73298.730,68427.740,65258.750,69307.130,69732.790,66614.690,-0.142,0.940,-0.221,-0.122,2.533,0.000,66.667,152.000,1.000,10.614,0.000
65687.370,63906.340,72917.770,68074.020,64921.720,68948.210,69372.010,66272.160,-0.147,0.941,-0.221,0.000,2.625,0.000,66.667,153.000,1.000,9.374,0.000
65400.080,63626.540,72595.920,67775.130,64636.340,68644.360,69066.300,65981.630,-0.151,0.946,-0.222,0.092,2.777,0.153,66.667,154.000,1.000,0.006,0.000
65117.160,63349.060,72280.980,67481.100,64354.820,68344.700,68763.260,65694.100,-0.152,0.948,-0.226,0.305,2.747,0.305,66.667,155.000,1.000,14.350,0.000
64790.720,63028.140,71917.520,67141.230,64027.200,67994.610,68408.500,65359.360,-0.153,0.952,-0.226,0.397,2.747,0.427,66.667,156.000,1.000,0.013,0.000
64406.580,62652.690,71490.090,66741.140,63642.320,67585.350,67994.730,64967.460,-0.151,0.955,-0.233,0.214,2.777,0.793,66.667,157.000,1.000,0.004,0.000
64046.800,62304.380,71091.400,66366.700,63285.190,67210.020,67614.550,64603.290,-0.150,0.959,-0.231,0.092,2.747,1.160,66.667,158.000,1.000,2.544,0.000
63750.760,62019.960,70763.830,66058.900,62993.610,66906.020,67305.020,64302.710,-0.146,0.965,-0.231,0.122,2.838,1.465,66.667,159.000,1.000,3.678,0.000
63472.820,61752.330,70456.400,65772.340,62721.320,66618.990,67016.160,64023.550,-0.145,0.972,-0.231,0.000,2.777,2.014,66.667,160.000,1.000,0.006,0.000
63148.080,61437.310,70097.510,65440.110,62403.030,66278.890,66679.680,63702.570,-0.147,0.977,-0.234,-0.183,2.838,2.350,66.667,161.000,1.000,0.004,0.000
62772.370,61071.400,69680.300,65053.180,62032.020,65883.160,66286.430,63327.680,-0.149,0.980,-0.231,-0.305,2.991,2.838,66.667,162.000,1.000,2.577,0.000
62433.460,60739.200,69300.620,64698.620,61692.740,65522.020,65922.920,62981.030,-0.150,0.981,-0.229,-0.549,2.991,3.265,66.667,163.000,1.000,2.474,0.000
62149.490,60458.420,68981.660,64399.720,61406.290,65215.670,65614.720,62688.090,-0.152,0.982,-0.228,-0.702,2.930,3.540,66.667,164.000,1.000,12.490,0.000
61873.060,60186.190,68673.930,64112.640,61131.780,64922.070,65322.590,62409.820,-0.151,0.981,-0.223,-0.946,2.747,3.815,66.667,165.000,1.000,4.329,0.000
61555.080,59876.910,68322.030,63783.960,60820.530,64591.340,64989.730,62090.990,-0.150,0.978,-0.219,-1.190,2.747,4.120,66.667,166.000,1.000,0.007,0.000
61185.260,59518.950,67912.520,63400.290,60458.300,64206.820,64597.070,61715.120,-0.148,0.968,-0.215,-1.556,2.563,4.364,66.667,167.000,1.000,7.494,0.000
60838.350,59183.250,67527.790,63039.820,60117.750,63844.040,64226.770,61361.360,-0.144,0.954,-0.214,-1.526,2.502,4.669,66.667,168.000,1.000,0.004,0.000
60547.980,58902.250,67204.470,62736.480,59831.370,63537.340,63916.270,61066.210,-0.142,0.942,-0.216,-1.373,2.472,4.639,66.667,169.000,1.000,1.900,0.000
60278.450,58639.930,66902.510,62453.840,59562.870,63249.030,63626.950,60793.410,-0.138,0.937,-0.220,-1.068,2.411,4.700,66.667,170.000,1.000,2.483,0.000
59973.110,58341.130,66560.710,62136.390,59259.490,62925.270,63303.370,60487.330,-0.136,0.935,-0.223,-0.458,2.441,4.578,66.667,171.000,1.000,11.285,0.000
59618.360,57993.970,66165.180,61770.710,58909.810,62554.540,62930.280,60131.800,-0.133,0.934,-0.222,0.092,2.472,4.639,66.667,172.000,1.000,9.972,0.000
59276.430,57659.070,65785.500,61419.600,58572.930,62198.390,62568.670,59786.530,-0.135,0.939,-0.221,0.458,2.533,4.578,66.667,173.000,1.000,0.006,0.000
58974.380,57363.230,65451.520,61108.340,58273.810,61882.130,62248.590,59481.120,-0.140,0.940,-0.224,0.824,2.563,4.517,66.667,174.000,1.000,0.003,0.000
58694.610,57089.980,65141.300,60818.070,57995.910,61587.800,61955.070,59201.160,-0.141,0.943,-0.226,1.038,2.594,4.364,66.667,175.000,1.000,3.097,0.000
58399.200,56802.470,64811.140,60511.180,57703.340,61279.340,61647.550,58906.890,-0.143,0.948,-0.227,1.587,2.380,4.150,66.667,176.000,1.000,0.003,0.000
58073.800,56485.920,64444.990,60171.130,57380.020,60939.750,61304.430,58576.830,-0.143,0.956,-0.226,1.801,2.319,3.998,66.667,177.000,1.000,3.166,0.000
57765.790,56186.250,64097.160,59846.860,57072.110,60614.300,60974.620,58259.850,-0.142,0.964,-0.223,1.984,2.289,3.906,66.667,178.000,1.000,11.301,0.000
57483.160,55912.350,63780.950,59552.180,56791.450,60315.620,60674.380,57973.160,-0.144,0.970,-0.222,2.136,2.106,3.723,66.667,179.000,1.000,4.268,0.000
57191.390,55630.280,63460.640,59253.610,56505.260,60012.460,60371.030,57684.670,-0.148,0.975,-0.222,2.136,2.014,3.510,66.667,180.000,1.000,0.012,0.000
56861.640,55310.480,63100.490,58916.530,56181.570,59671.360,60028.510,57358.710,-0.149,0.978,-0.221,1.984,1.831,3.296,66.667,181.000,1.000,9.983,0.000
56500.950,54959.860,62703.950,58544.440,55825.460,59295.410,59649.140,56996.050,-0.147,0.974,-0.223,1.709,1.556,2.899,66.667,182.000,1.000,0.007,0.000
56162.890,54632.040,62330.570,58194.660,55491.600,58940.720,59290.770,56652.840,-0.141,0.970,-0.227,1.678,1.312,2.655,66.667,183.000,1.000,2.554,0.000
55872.720,54351.250,62008.130,57893.860,55205.250,58634.480,58981.210,56356.520,-0.132,0.967,-0.226,1.831,1.343,2.258,66.667,184.000,1.000,0.008,0.000
55610.300,54097.210,61714.590,57620.190,54946.980,58357.550,58701.460,56087.240,-0.127,0.965,-0.229,1.862,1.343,1.984,66.667,185.000,1.000,10.631,0.000
55321.740,53818.180,61393.510,57319.910,54665.250,58056.380,58399.190,55795.490,-0.120,0.964,-0.229,1.892,1.526,1.770,66.667,186.000,1.000,3.040,0.000
54988.590,53496.330,61025.690,56975.700,54341.100,57710.430,58053.110,55464.870,-0.115,0.964,-0.226,1.923,1.709,1.678,66.667,187.000,1.000,0.009,0.000
54667.610,53186.200,60671.780,56646.040,54028.590,57374.800,57717.410,55148.050,-0.109,0.963,-0.226,1.678,2.075,1.678,66.667,188.000,1.000,1.889,0.000
54381.750,52909.880,60355.600,56353.420,53749.470,57074.040,57416.350,54864.110,-0.107,0.963,-0.229,1.495,2.441,1.678,66.667,189.000,1.000,12.535,0.000
54098.670,52636.300,60042.670,56063.090,53471.360,56778.820,57117.480,54579.640,-0.110,0.966,-0.232,1.404,2.777,1.617,66.667,190.000,1.000,2.548,0.000
53790.730,52338.480,59703.130,55745.300,53167.610,56459.890,56792.570,54268.220,-0.114,0.968,-0.237,1.160,3.021,1.617,66.667,191.000,1.000,27.545,0.000
53464.760,52021.850,59343.260,55407.500,52846.890,56121.000,56452.670,53941.040,-0.114,0.972,-0.238,1.038,3.235,1.312,66.667,192.000,1.000,2.439,0.000
53145.450,51709.720,58989.520,55076.610,52532.970,55787.620,56122.890,53623.210,-0.115,0.978,-0.239,0.916,3.601,1.129,66.667,193.000,1.000,2.481,0.000
52841.570,51411.870,58651.900,54762.390,52232.700,55470.020,55806.290,53319.660,-0.115,0.986,-0.232,0.641,3.815,0.916,66.667,194.000,1.000,2.508,0.000
52556.800,51133.460,58334.800,54468.520,51950.080,55170.410,55504.340,53033.650,-0.115,0.994,-0.233,0.305,4.028,0.519,66.667,195.000,1.000,2.522,0.000
52275.520,50859.840,58020.870,54178.290,51670.880,54870.430,55202.680,52751.600,-0.118,0.998,-0.228,-0.061,4.211,0.092,66.667,196.000,1.000,2.454,0.000
51982.450,50576.290,57693.510,53875.520,51380.250,54558.100,54888.280,52457.040,-0.124,0.999,-0.228,-0.488,4.395,-0.336,66.667,197.000,1.000,2.476,0.000
51681.800,50284.930,57358.100,53563.880,51080.360,54241.390,54565.230,52150.220,-0.132,0.997,-0.229,-0.824,4.517,-0.732,66.667,198.000,1.000,2.496,0.000
51379.610,49988.310,57020.530,53248.510,50775.870,53921.910,54238.920,51838.200,-0.137,0.992,-0.228,-1.068,4.456,-1.068,66.667,199.000,1.000,2.572,0.000
51091.270,49702.870,56696.660,52945.490,50485.190,53614.270,53930.060,51541.450,-0.138,0.977,-0.222,-1.160,4.242,-1.709,66.667,200.000,1.000,2.458,0.000
50802.950,49419.310,56372.970,52643.220,50197.340,53309.080,53626.390,51247.910,-0.135,0.966,-0.219,-1.007,4.181,-1.892,66.667,201.000,1.000,2.467,0.000
50494.700,49118.660,56029.310,52323.120,49891.330,52986.330,53302.490,50936.430,-0.136,0.961,-0.214,-0.763,4.059,-2.014,66.667,202.000,1.000,2.547,0.000
50184.540,48817.270,55685.460,52002.050,49584.420,52663.580,52976.150,50623.820,-0.135,0.953,-0.212,-0.427,3.906,-2.136,66.667,203.000,1.000,2.553,0.000
49890.770,48533.160,55361.500,51697.360,49295.540,52358.390,52667.960,50327.990,-0.134,0.942,-0.207,-0.031,3.906,-2.167,66.667,204.000,1.000,3.015,0.000
49612.740,48265.290,55056.060,51410.130,49023.700,52068.750,52376.190,50049.070,-0.134,0.933,-0.207,0.519,3.937,-2.228,66.667,205.000,1.000,0.007,0.000
49330.700,47992.100,54745.800,51120.770,48748.180,51774.330,52079.720,49768.230,-0.137,0.928,-0.206,1.312,4.059,-2.167,66.667,206.000,1.000,1.913,0.000
49033.300,47701.300,54416.990,50814.550,48455.860,51461.040,51766.160,49471.480,-0.142,0.926,-0.207,2.167,4.059,-2.136,66.667,207.000,1.000,3.749,0.000
48733.000,47406.700,54084.060,50503.380,48159.580,51143.000,51450.210,49169.980,-0.146,0.928,-0.210,2.960,4.089,-2.197,66.667,208.000,1.000,4.316,0.000
48439.470,47119.290,53758.570,50199.700,47871.230,50834.730,51143.500,48876.130,-0.151,0.934,-0.208,3.784,4.059,-2.289,66.667,209.000,1.000,0.006,0.000
48155.620,46842.780,53443.050,49906.320,47593.800,50540.270,50847.300,48593.680,-0.154,0.940,-0.205,4.517,3.967,-2.289,66.667,210.000,1.000,16.329,0.000
47873.620,46569.500,53128.660,49614.320,47318.360,50249.540,50553.610,48313.710,-0.155,0.946,-0.204,4.944,3.845,-2.167,66.667,211.000,1.000,0.009,0.000
47581.100,46285.430,52802.870,49312.590,47031.550,49946.530,50249.490,48022.170,-0.157,0.949,-0.200,5.371,3.540,-2.014,66.667,212.000,1.000,4.291,0.000
47286.650,45998.360,52474.910,49008.680,46741.180,49638.390,49941.100,47726.160,-0.159,0.958,-0.200,5.737,3.326,-1.648,66.667,213.000,1.000,2.563,0.000
47005.790,45724.270,52160.560,48716.070,46462.200,49342.050,49643.300,47441.070,-0.163,0.970,-0.202,5.890,2.960,-1.282,66.667,214.000,1.000,2.517,0.000
46734.650,45458.910,51855.910,48431.940,46190.420,49055.010,49353.230,47163.230,-0.169,0.981,-0.204,5.768,2.655,-0.854,66.667,215.000,1.000,9.975,0.000
46458.580,45187.720,51545.950,48142.810,45911.840,48761.450,49056.050,46878.330,-0.175,0.988,-0.202,5.402,2.045,-0.397,66.667,216.000,1.000,2.490,0.000
46174.340,44908.920,51227.880,47846.110,45624.890,48457.380,48748.490,46585.450,-0.183,0.981,-0.208,5.249,1.587,-0.366,66.667,217.000,1.000,3.073,0.000
45887.120,44629.350,50908.730,47547.930,45337.060,48151.440,48440.130,46293.210,-0.190,0.978,-0.215,4.944,0.854,-0.336,66.667,218.000,1.000,0.006,0.000
45601.370,44353.240,50593.880,47253.370,45055.090,47852.470,48140.690,46007.460,-0.188,0.974,-0.222,4.486,-0.061,0.000,66.667,219.000,1.000,4.426,0.000
45321.460,44083.000,50285.940,46965.240,44781.800,47563.360,47851.130,45728.700,-0.185,0.974,-0.233,4.395,-0.824,0.183,66.667,220.000,1.000,2.427,0.000
45046.590,43817.040,49981.680,46679.580,44511.510,47277.950,47562.710,45450.520,-0.177,0.979,-0.235,4.211,-1.587,0.244,66.667,221.000,1.000,2.558,0.000
44772.070,43550.290,49675.800,46392.130,44238.230,46990.100,47270.130,45169.150,-0.166,0.980,-0.242,4.211,-2.380,0.366,66.667,222.000,1.000,3.748,0.000
44493.660,43278.360,49365.180,46102.550,43961.300,46697.780,46974.530,44885.950,-0.156,0.976,-0.245,3.876,-2.625,0.824,66.667,223.000,1.000,9.382,0.000
44212.750,43004.410,49052.820,45813.350,43684.190,46403.940,46678.020,44602.280,-0.144,0.962,-0.248,3.357,-2.899,1.312,66.667,224.000,1.000,0.009,0.000
43935.580,42735.310,48745.310,45527.820,43411.150,46113.870,46383.570,44320.240,-0.134,0.951,-0.250,3.204,-2.960,1.770,66.667,225.000,1.000,8.662,0.000
43663.330,42471.330,48443.270,45245.700,43142.160,45826.870,46094.250,44043.230,-0.125,0.942,-0.254,3.204,-2.960,2.136,66.667,226.000,1.000,0.011,0.000
43390.810,42206.520,48141.180,44962.050,42872.860,45537.790,45807.730,43769.140,-0.118,0.940,-0.256,3.265,-2.869,2.594,66.667,227.000,1.000,4.458,0.000
43114.850,41937.030,47835.150,44674.010,42599.690,45244.150,45517.510,43491.130,-0.113,0.946,-0.259,3.479,-2.625,3.082,66.667,228.000,1.000,2.461,0.000
42839.160,41667.570,47529.310,44386.700,42326.480,44950.940,45225.540,43211.510,-0.109,0.958,-0.259,3.571,-2.472,3.540,66.667,229.000,1.000,2.504,0.000
42566.290,41402.400,47226.790,44103.370,42056.700,44662.130,44936.700,42935.550,-0.109,0.966,-0.264,3.448,-2.197,3.876,66.667,230.000,1.000,2.499,0.000
42296.380,41140.610,46926.720,43823.110,41789.520,44377.380,44649.970,42661.840,-0.111,0.971,-0.266,3.082,-1.831,4.089,66.667,231.000,1.000,8.777,0.000
42029.780,40880.860,46629.790,43546.190,41525.550,44097.200,44365.740,42390.210,-0.115,0.970,-0.269,2.686,-1.465,4.364,66.667,232.000,1.000,5.581,0.000
41765.670,40622.480,46335.670,43271.910,41264.810,43820.140,44085.520,42123.070,-0.114,0.964,-0.272,2.319,-1.190,4.303,66.667,233.000,1.000,0.012,0.000
41502.370,40364.700,46041.540,42997.610,41003.890,43543.370,43806.790,41857.940,-0.114,0.960,-0.274,2.075,-0.946,4.211,66.667,234.000,1.000,1.838,0.000
41236.450,40104.250,45744.010,42720.200,40738.550,43264.260,43524.090,41588.830,-0.114,0.958,-0.274,1.953,-0.763,3.998,66.667,235.000,1.000,11.299,0.000
40969.500,39842.310,45445.970,42442.230,40471.540,42983.180,43238.300,41317.410,-0.115,0.958,-0.275,1.862,-0.488,3.693,66.667,236.000,1.000,2.476,0.000
40706.050,39584.550,45152.940,42167.780,40209.600,42704.520,42957.950,41049.980,-0.111,0.960,-0.271,1.831,-0.397,3.296,66.667,237.000,1.000,2.535,0.000
40443.030,39329.100,44861.530,41893.470,39951.070,42430.480,42684.320,40785.320,-0.111,0.958,-0.268,1.648,-0.092,2.777,66.667,238.000,1.000,2.533,0.000
40174.840,39068.790,44564.220,41613.850,39687.050,42153.910,42405.540,40515.400,-0.110,0.956,-0.263,1.373,0.214,2.441,66.667,239.000,1.000,2.496,0.000
39902.430,38802.850,44261.040,41329.640,39415.440,41867.320,42114.740,40237.610,-0.108,0.958,-0.262,1.068,0.549,2.045,66.667,240.000,1.000,8.661,0.000
39634.040,38540.030,43961.280,41049.610,39147.050,41581.640,41825.400,39962.150,-0.108,0.958,-0.267,0.763,0.854,1.556,66.667,241.000,1.000,3.055,0.000
39374.180,38285.680,43669.900,40778.090,38888.470,41307.200,41548.220,39696.610,-0.108,0.962,-0.266,0.488,1.160,1.068,66.667,242.000,1.000,0.013,0.000
39116.440,38032.790,43379.610,40508.070,38631.550,41031.960,41272.250,39434.380,-0.109,0.962,-0.269,0.244,1.587,0.732,66.667,243.000,1.000,8.197,0.000
38855.570,37775.870,43085.050,40235.940,38370.500,40749.360,40989.890,39169.750,-0.113,0.959,-0.269,0.000,1.831,0.397,66.667,244.000,1.000,3.056,0.000
38591.700,37516.590,42787.710,39962.700,38107.030,40467.500,40707.100,38902.120,-0.115,0.954,-0.266,-0.031,2.106,0.275,66.667,245.000,1.000,0.014,0.000
38325.430,37257.210,42490.350,39687.200,37842.700,40189.290,40427.700,38631.840,-0.117,0.948,-0.267,0.000,2.258,0.305,66.667,246.000,1.000,1.879,0.000
38059.190,37000.670,42196.680,39411.870,37580.010,39912.940,40150.920,38363.460,-0.121,0.947,-0.266,0.061,2.289,0.366,66.667,247.000,1.000,11.324,0.000
37797.370,36750.020,41909.660,39142.960,37322.600,39639.290,39877.510,38101.270,-0.126,0.952,-0.267,0.214,2.441,0.214,66.667,248.000,1.000,3.014,0.000
37543.240,36507.460,41630.310,38881.880,37072.920,39372.480,39610.670,37845.660,-0.134,0.954,-0.270,0.427,2.502,0.336,66.667,249.000,1.000,0.013,0.000
37290.270,36266.120,41351.590,38619.390,36824.910,39108.480,39345.700,37590.680,-0.138,0.957,-0.268,0.488,2.533,0.397,66.667,250.000,1.000,4.461,0.000
37031.250,36017.290,41066.490,38350.220,36571.690,38839.260,39075.300,37331.890,-0.140,0.959,-0.266,0.610,2.411,0.458,66.667,251.000,1.000,3.747,0.000
36769.740,35763.840,40777.840,38080.770,36315.370,38566.950,38800.470,37071.580,-0.140,0.958,-0.267,0.702,2.350,0.580,66.667,252.000,1.000,6.865,0.000
36509.160,35510.100,40488.840,37814.400,36059.680,38296.220,38525.910,36811.570,-0.137,0.952,-0.270,0.854,2.319,0.824,66.667,253.000,1.000,0.066,0.000
36250.160,35256.880,40200.500,37549.270,35805.990,38028.110,38254.980,36552.220,-0.137,0.945,-0.263,1.068,2.045,1.099,66.667,254.000,1.000,8.023,0.000
35992.880,35004.290,39913.030,37284.020,35553.270,37760.480,37986.380,36293.210,-0.135,0.936,-0.264,1.465,1.862,1.373,66.667,255.000,1.000,5.602,0.000
35736.140,34752.950,39626.680,37018.020,35300.730,37492.390,37718.380,36034.950,-0.137,0.927,-0.266,1.709,1.709,1.678,66.667,256.000,1.000,0.006,0.000
35477.980,34503.190,39341.250,36750.210,35047.610,37224.610,37449.630,35776.380,-0.138,0.918,-0.263,2.167,1.556,2.045,66.667,257.000,1.000,1.912,0.000
35215.860,34251.970,39054.100,36479.500,34791.550,36955.730,37177.620,35515.050,-0.136,0.915,-0.260,2.716,1.282,2.350,66.667,258.000,1.000,2.443,0.000
34952.130,33998.060,38765.640,36208.640,34533.860,36686.240,36904.690,35253.620,-0.138,0.916,-0.259,3.265,1.068,2.686,66.667,259.000,1.000,3.815,0.000
34694.050,33746.810,38480.970,35943.860,34280.240,36419.090,36635.930,34996.860,-0.140,0.918,-0.259,3.510,0.671,2.960,66.667,260.000,1.000,8.806,0.000
34444.170,33502.550,38202.670,35686.890,34033.990,36156.390,36372.930,34745.950,-0.141,0.920,-0.258,3.906,0.275,3.143,66.667,261.000,1.000,4.345,0.000
34198.150,33262.140,37927.830,35432.750,33791.530,35897.000,36112.680,34499.030,-0.143,0.927,-0.260,4.150,-0.031,3.479,66.667,262.000,1.000,0.021,0.000
33951.770,33021.010,37652.030,35175.790,33546.550,35636.540,35849.700,34249.920,-0.142,0.932,-0.260,4.456,-0.519,3.662,66.667,263.000,1.000,1.826,0.000
33703.860,32779.260,37374.250,34914.750,33298.520,35374.300,35584.350,33995.310,-0.143,0.940,-0.264,4.700,-0.885,3.845,66.667,264.000,1.000,8.793,0.000
33452.590,32536.210,37094.720,34651.970,33049.400,35111.020,35318.890,33739.950,-0.140,0.952,-0.270,4.669,-1.373,3.998,66.667,265.000,1.000,2.363,0.000
33198.250,32290.220,36814.340,34390.380,32799.510,34845.640,35051.970,33486.420,-0.138,0.962,-0.271,4.578,-1.862,4.028,66.667,266.000,1.000,8.871,0.000
32945.370,32044.230,36535.830,34131.160,32550.490,34580.020,34784.940,33232.850,-0.134,0.977,-0.269,4.028,-2.533,4.272,66.667,267.000,1.000,9.247,0.000
32696.230,31801.670,36260.680,33874.460,32304.100,34317.440,34520.700,32980.440,-0.127,0.980,-0.271,3.693,-2.991,4.456,66.667,268.000,1.000,0.010,0.000
32449.000,31561.690,35988.550,33620.170,32060.520,34057.290,34259.190,32731.730,-0.123,0.981,-0.273,3.082,-3.296,4.578,66.667,269.000,1.000,1.912,0.000
32203.530,31323.780,35720.000,33369.150,31820.740,33798.630,34000.790,32487.030,-0.122,0.980,-0.274,2.563,-3.571,4.639,66.667,270.000,1.000,2.522,0.000
31961.740,31089.260,35455.210,33122.530,31585.150,33543.590,33745.840,32244.470,-0.123,0.976,-0.279,2.197,-3.998,4.730,66.667,271.000,1.000,3.731,0.000
31719.880,30854.770,35188.700,32874.880,31348.470,33289.740,33489.050,31998.460,-0.125,0.970,-0.286,1.862,-4.272,4.700,66.667,272.000,1.000,6.820,0.000
31474.630,30617.350,34916.740,32621.670,31107.600,33033.090,33227.950,31748.740,-0.124,0.969,-0.285,1.709,-4.425,4.578,66.667,273.000,1.000,0.011,0.000
31228.130,30378.660,34642.050,32365.100,30864.760,32773.780,32965.840,31499.290,-0.125,0.969,-0.284,1.678,-4.700,4.303,66.667,274.000,1.000,9.480,0.000
30983.010,30141.000,34367.840,32107.960,30621.830,32514.390,32705.250,31250.370,-0.125,0.973,-0.290,1.678,-4.913,3.998,66.667,275.000,1.000,20.643,0.000
30743.110,29908.170,34099.030,31856.040,30383.280,32260.780,32450.490,31006.140,-0.124,0.979,-0.286,1.617,-5.280,3.693,66.667,276.000,1.000,0.053,0.000
30509.530,29681.990,33838.500,31613.260,30152.310,32016.390,32205.250,30770.580,-0.124,0.988,-0.282,1.404,-5.402,3.326,66.667,277.000,1.000,0.006,0.000
30274.800,29455.580,33579.000,31371.430,29921.650,31773.130,31962.730,30536.430,-0.125,0.995,-0.280,1.038,-5.646,3.082,66.667,278.000,1.000,0.006,0.000
30031.320,29220.250,33310.980,31120.600,29682.130,31520.000,31711.610,30294.560,-0.121,1.000,-0.277,0.641,-5.768,2.777,66.667,279.000,1.000,1.860,0.000
29783.640,28979.240,33037.010,30863.820,29437.060,31260.630,31452.980,30046.650,-0.119,1.005,-0.268,0.122,-5.768,2.441,66.667,280.000,1.000,3.577,0.000
29540.890,28742.450,32766.670,30610.170,29195.910,31006.230,31197.150,29801.940,-0.114,1.003,-0.267,-0.427,-5.890,2.106,66.667,281.000,1.000,0.012,0.000
29301.740,28509.550,32500.590,30360.700,28959.310,30757.860,30947.350,29563.500,-0.111,0.999,-0.262,-0.977,-5.890,1.984,66.667,282.000,1.000,0.004,0.000
29062.190,28276.950,32235.160,30112.880,28724.050,30513.040,30700.610,29326.950,-0.111,0.994,-0.256,-1.465,-5.890,1.801,66.667,283.000,1.000,2.485,0.000
28823.560,28046.740,31971.000,29866.940,28490.460,30271.310,30454.460,29089.630,-0.110,0.987,-0.257,-2.045,-5.676,1.740,66.667,284.000,1.000,3.771,0.000
28586.430,27818.340,31708.150,29621.660,28257.510,30027.990,30206.060,28850.460,-0.112,0.978,-0.255,-2.258,-5.280,1.648,66.667,285.000,1.000,8.738,0.000
28353.120,27592.090,31448.350,29378.580,28026.000,29781.870,29957.010,28612.040,-0.112,0.965,-0.255,-2.533,-5.219,1.587,66.667,286.000,1.000,11.853,0.000
28123.640,27367.320,31191.020,29138.330,27796.110,29534.630,29708.420,28376.080,-0.107,0.952,-0.253,-2.594,-4.852,1.556,66.667,287.000,1.000,0.023,0.000
27892.400,27138.910,30930.600,28895.370,27563.850,29285.630,29457.200,28138.580,-0.102,0.941,-0.251,-2.472,-4.486,1.587,66.667,288.000,1.000,2.480,0.000
27658.040,26908.100,30667.280,28649.070,27329.820,29037.330,29205.680,27899.520,-0.097,0.931,-0.253,-2.228,-3.937,1.740,66.667,289.000,1.000,0.006,0.000
27425.090,26681.220,30407.130,28405.840,27099.040,28793.950,28958.420,27662.860,-0.093,0.924,-0.254,-1.801,-3.448,1.862,66.667,290.000,1.000,13.738,0.000
27196.490,26459.570,30152.590,28168.380,26873.270,28555.180,28715.870,27430.640,-0.090,0.922,-0.259,-1.251,-2.747,2.167,66.667,291.000,1.000,0.017,0.000
26970.690,26240.770,29901.270,27934.270,26651.060,28318.060,28476.550,27202.290,-0.089,0.918,-0.265,-0.793,-2.106,2.411,66.667,292.000,1.000,6.267,0.000
26744.800,26022.530,29650.540,27701.050,26429.610,28080.300,28237.000,26973.900,-0.089,0.915,-0.268,-0.153,-1.434,2.533,66.667,293.000,1.000,0.012,0.000
26518.010,25802.580,29399.000,27467.290,26205.850,27840.320,27995.060,26743.420,-0.091,0.914,-0.272,0.458,-0.763,2.899,66.667,294.000,1.000,4.404,0.000
26291.870,25581.000,29146.870,27232.620,25979.880,27600.600,27753.270,26513.540,-0.094,0.915,-0.274,0.946,-0.061,3.143,66.667,295.000,1.000,4.214,0.000
26066.640,25359.120,28894.150,26996.630,25753.050,27363.640,27513.050,26285.170,-0.096,0.915,-0.273,1.556,0.641,3.296,66.667,296.000,1.000,0.007,0.000
25839.730,25135.280,28638.460,26757.110,25524.130,27125.370,27272.400,26055.050,-0.098,0.921,-0.274,2.075,1.160,3.479,66.667,297.000,1.000,7.523,0.000
25611.430,24908.920,28380.200,26515.000,25292.660,26881.440,27027.930,25820.530,-0.101,0.926,-0.274,2.533,1.678,3.510,66.667,298.000,1.000,0.022,0.000
25386.950,24684.380,28125.160,26276.920,25062.860,26635.050,26780.650,25585.120,-0.107,0.935,-0.277,3.021,2.167,3.479,66.667,299.000,1.000,6.447,0.000
25165.360,24463.480,27874.720,26043.880,24837.540,26392.300,26537.260,25354.000,-0.108,0.938,-0.279,3.265,2.655,3.326,66.667,300.000,1.000,0.014,0.000
24941.570,24244.370,27625.920,25811.500,24615.000,26154.840,26299.750,25126.940,-0.108,0.940,-0.277,3.479,2.991,3.143,66.667,301.000,1.000,1.784,0.000
24717.260,24027.020,27378.990,25580.450,24394.370,25921.110,26065.420,24902.590,-0.111,0.945,-0.274,3.662,3.296,3.082,66.667,302.000,1.000,3.599,0.000
24494.100,23811.200,27133.300,25350.910,24175.210,25689.300,25833.360,24680.130,-0.111,0.953,-0.276,3.723,3.784,2.777,66.667,303.000,1.000,8.810,0.000
24268.470,23594.120,26885.000,25118.560,23955.520,25457.680,25602.870,24457.360,-0.111,0.958,-0.276,3.632,3.906,2.502,66.667,304.000,1.000,2.544,0.000
24040.450,23376.770,26634.790,24884.550,23736.070,25227.120,25373.510,24234.090,-0.110,0.958,-0.277,3.571,4.272,2.411,66.667,305.000,1.000,3.677,0.000
23817.030,23164.570,26389.080,24654.830,23520.080,24998.990,25142.950,24009.790,-0.107,0.956,-0.274,3.235,4.486,2.319,66.667,306.000,1.000,14.377,0.000
23599.020,22955.720,26147.350,24426.900,23304.960,24769.480,24906.880,23782.540,-0.101,0.950,-0.273,2.930,4.761,2.258,66.667,307.000,1.000,0.009,0.000
23379.480,22743.810,25903.300,24196.080,23086.850,24536.960,24669.710,23556.610,-0.099,0.944,-0.275,2.899,5.035,2.136,66.667,308.000,1.000,1.915,0.000
23157.920,22529.650,25658.340,23967.150,22869.200,24305.970,24438.960,23337.060,-0.095,0.944,-0.277,2.777,5.371,2.136,66.667,309.000,1.000,3.068,0.000
22939.090,22317.550,25417.070,23744.660,22656.360,24079.710,24215.280,23123.140,-0.094,0.948,-0.281,2.655,5.829,2.289,66.667,310.000,1.000,0.005,0.000
22720.250,22105.110,25175.880,23522.980,22444.610,23854.960,23994.280,22909.580,-0.093,0.951,-0.285,2.686,6.195,2.350,66.667,311.000,1.000,1.864,0.000
22495.550,21886.460,24928.880,23294.800,22226.390,23621.370,23763.710,22687.550,-0.090,0.952,-0.288,2.594,6.561,2.350,66.667,312.000,1.000,3.739,0.000
22269.020,21665.480,24679.940,23063.900,22003.750,23378.510,23520.640,22458.230,-0.088,0.950,-0.290,2.655,7.080,2.441,66.667,313.000,1.000,8.930,0.000
22046.350,21449.850,24434.920,22835.320,21784.040,23140.850,23280.640,22231.430,-0.085,0.944,-0.291,2.838,7.355,2.319,66.667,314.000,1.000,2.366,0.000
21825.520,21237.790,24192.150,22605.840,21566.850,22911.490,23048.890,22008.430,-0.085,0.939,-0.288,2.991,7.751,2.563,66.667,315.000,1.000,3.747,0.000
21606.100,21026.920,23951.290,22377.450,21351.930,22685.060,22820.840,21789.150,-0.086,0.937,-0.284,3.235,7.996,2.930,66.667,316.000,1.000,14.330,0.000
21392.180,20821.860,23716.300,22157.360,21144.030,22465.400,22599.720,21577.540,-0.092,0.935,-0.280,3.387,8.362,3.143,66.667,317.000,1.000,0.017,0.000
21181.620,20619.860,23483.940,21941.610,20939.130,22249.320,22381.890,21368.650,-0.099,0.936,-0.280,3.601,8.636,3.357,66.667,318.000,1.000,5.636,0.000
20968.300,20412.450,23247.120,21721.790,20728.280,22026.070,22156.800,21153.710,-0.107,0.938,-0.276,3.784,8.759,3.326,66.667,319.000,1.000,2.513,0.000
20752.950,20201.010,23006.860,21498.520,20512.560,21797.140,21925.330,20933.960,-0.115,0.941,-0.277,3.876,8.728,3.204,66.667,320.000,1.000,2.477,0.000
20537.480,19989.260,22766.090,21274.170,20296.150,21568.580,21693.890,20714.180,-0.125,0.943,-0.275,4.181,8.545,2.991,66.667,321.000,1.000,2.538,0.000
20321.830,19777.680,22525.590,21050.220,20080.600,21342.410,21466.150,20496.710,-0.133,0.950,-0.271,4.242,8.331,2.747,66.667,322.000,1.000,3.056,0.000
20107.250,19568.330,22287.250,20828.430,19867.750,21120.170,21243.410,20282.860,-0.142,0.959,-0.273,4.120,7.782,2.563,66.667,323.000,1.000,0.007,0.000
19893.630,19361.830,22050.860,20608.020,19656.820,20899.540,21021.310,20070.950,-0.147,0.964,-0.275,3.967,7.172,2.106,66.667,324.000,1.000,8.216,0.000
19679.020,19154.680,21813.160,20386.640,19443.900,20674.680,20793.140,19856.990,-0.150,0.967,-0.273,3.937,6.592,1.740,66.667,325.000,1.000,2.457,0.000
19465.950,18947.900,21575.850,20166.160,19231.350,20448.910,20563.610,19643.590,-0.147,0.971,-0.274,3.876,5.981,1.373,66.667,326.000,1.000,6.766,0.000
19259.400,18747.930,21345.350,19952.130,19027.260,20233.120,20345.610,19437.760,-0.144,0.969,-0.271,3.662,5.554,1.099,66.667,327.000,1.000,0.007,0.000
19056.070,18552.600,21119.730,19742.400,18829.810,20025.580,20137.380,19235.910,-0.138,0.970,-0.272,3.571,5.035,0.916,66.667,328.000,1.000,6.931,0.000
18850.570,18354.060,20892.630,19530.880,18630.330,19814.790,19925.710,19029.570,-0.133,0.969,-0.272,3.235,4.700,0.824,66.667,329.000,1.000,3.082,0.000
18641.660,18148.940,20660.900,19314.460,18423.840,19594.800,19703.530,18815.650,-0.125,0.964,-0.273,3.021,4.425,0.946,66.667,330.000,1.000,0.009,0.000
18430.560,17940.670,20425.590,19093.820,18212.610,19370.210,19475.590,18597.390,-0.118,0.959,-0.271,2.747,4.303,1.190,66.667,331.000,1.000,10.666,0.000
18222.650,17738.150,20194.510,18877.040,18006.100,19151.930,19254.130,18384.880,-0.114,0.957,-0.273,2.686,4.272,1.373,66.667,332.000,1.000,3.069,0.000
18021.190,17544.310,19972.430,18669.500,17809.000,18942.750,19043.270,18183.500,-0.108,0.955,-0.276,2.563,4.303,1.617,66.667,333.000,1.000,0.015,0.000
17819.820,17350.360,19751.350,18462.190,17612.830,18731.860,18832.400,17983.340,-0.105,0.952,-0.277,2.533,4.395,1.923,66.667,334.000,1.000,1.860,0.000
17613.590,17151.440,19525.090,18248.520,17411.210,18513.210,18615.210,17776.480,-0.104,0.949,-0.277,2.533,4.486,2.197,66.667,335.000,1.000,8.818,0.000
17406.080,16952.390,19297.740,18034.780,17208.940,18294.020,18398.010,17568.920,-0.100,0.949,-0.281,2.380,4.730,2.502,66.667,336.000,1.000,3.040,0.000
17198.450,16753.030,19070.110,17822.750,17007.200,18077.550,18182.890,17364.030,-0.099,0.950,-0.285,2.289,4.822,2.716,66.667,337.000,1.000,0.008,0.000
16990.380,16551.760,18841.330,17609.380,16803.980,17861.500,17967.510,17159.320,-0.101,0.949,-0.286,2.258,5.005,2.930,66.667,338.000,1.000,8.141,0.000
16786.450,16353.870,18616.160,17398.490,16603.880,17648.570,17753.960,16956.570,-0.102,0.948,-0.290,2.136,5.188,3.113,66.667,339.000,1.000,4.362,0.000
16587.370,16160.830,18395.550,17193.460,16409.390,17440.700,17544.110,16758.530,-0.103,0.947,-0.294,2.167,5.219,3.143,66.667,340.000,1.000,0.006,0.000
16384.780,15965.050,18171.230,16986.670,16212.200,17230.460,17332.510,16559.410,-0.103,0.945,-0.297,2.167,5.371,3.082,66.667,341.000,1.000,5.659,0.000
16176.900,15763.850,17940.710,16773.340,16008.170,17014.630,17115.970,16354.670,-0.105,0.944,-0.299,2.197,5.280,2.899,66.667,342.000,1.000,2.540,0.000
15975.710,15567.300,17715.490,16564.150,15808.380,16804.600,16903.920,16153.130,-0.106,0.945,-0.295,2.197,5.219,2.777,66.667,343.000,1.000,8.740,0.000
15785.880,15381.110,17501.760,16365.810,15619.340,16605.940,16702.130,15961.270,-0.110,0.946,-0.293,2.228,4.852,2.472,66.667,344.000,1.000,2.509,0.000
15596.830,15196.000,17290.120,16169.080,15431.150,16407.140,16499.950,15769.320,-0.114,0.946,-0.291,2.136,4.730,2.014,66.667,345.000,1.000,3.776,0.000
15399.730,15002.170,17070.860,15964.310,15234.340,16198.400,16287.880,15567.080,-0.118,0.947,-0.291,1.953,4.333,1.648,66.667,346.000,1.000,8.006,0.000
15199.390,14804.500,16848.040,15755.030,15034.220,15986.250,16073.410,15360.840,-0.121,0.949,-0.294,1.740,3.906,1.129,66.667,347.000,1.000,0.009,0.000
15004.370,14613.030,16630.230,15549.730,14839.880,15780.680,15866.410,15160.310,-0.127,0.950,-0.297,1.526,3.479,0.580,66.667,348.000,1.000,1.949,0.000
14812.870,14426.690,16416.010,15348.330,14649.940,15579.680,15665.260,14965.290,-0.130,0.952,-0.297,1.221,2.869,-0.031,66.667,349.000,1.000,13.839,0.000
14620.310,14240.410,16201.790,15148.200,14460.490,15379.040,15466.660,14774.210,-0.135,0.955,-0.300,0.885,2.289,-0.732,66.667,350.000,1.000,25.579,0.000
14429.650,14055.110,15990.000,14951.210,14272.200,15179.180,15266.950,14584.440,-0.134,0.955,-0.299,0.519,1.495,-1.526,66.667,351.000,1.000,0.022,0.000
14242.850,13871.240,15781.330,14756.750,14083.840,14976.460,15058.960,14389.290,-0.132,0.952,-0.301,0.214,0.702,-2.106,66.667,352.000,1.000,1.774,0.000
14055.230,13686.620,15572.130,14560.300,13893.520,14769.470,14846.630,14189.120,-0.127,0.949,-0.297,-0.061,-0.031,-2.533,66.667,353.000,1.000,5.027,0.000
13864.130,13500.630,15360.380,14360.540,13702.250,14563.920,14639.860,13989.800,-0.119,0.947,-0.295,-0.122,-0.549,-2.869,66.667,354.000,1.000,2.528,0.000
13670.860,13311.460,15145.170,14157.790,13508.700,14359.510,14435.500,13790.760,-0.113,0.948,-0.293,-0.122,-0.977,-3.204,66.667,355.000,1.000,7.484,0.000
13477.930,13120.140,14928.340,13953.930,13313.520,14154.000,14230.220,13592.180,-0.113,0.957,-0.294,-0.366,-1.373,-3.387,66.667,356.000,1.000,5.040,0.000
13287.270,12931.350,14713.660,13753.130,13121.750,13951.680,14029.670,13398.930,-0.112,0.964,-0.295,-0.641,-1.740,-3.632,66.667,357.000,1.000,4.955,0.000
13096.740,12744.650,14500.240,13555.500,12933.590,13754.420,13833.200,13209.340,-0.114,0.970,-0.295,-1.129,-2.106,-3.845,66.667,358.000,1.000,9.971,0.000
12905.340,12558.450,14287.710,13359.610,12746.360,13558.620,13634.590,13018.830,-0.120,0.971,-0.292,-1.343,-2.380,-3.937,66.667,359.000,1.000,10.053,0.000
12715.170,12374.080,14077.860,13164.880,12558.990,13359.470,13431.280,12827.300,-0.126,0.971,-0.292,-1.709,-2.625,-4.120,66.667,360.000,1.000,2.475,0.000
12526.600,12191.300,13870.100,12970.710,12371.720,13156.870,13226.570,12637.370,-0.131,0.971,-0.286,-1.984,-3.113,-4.395,66.667,361.000,1.000,14.997,0.000
12338.350,12007.990,13662.610,12776.490,12185.020,12955.650,13025.130,12447.870,-0.134,0.965,-0.284,-2.197,-3.510,-4.486,66.667,362.000,1.000,14.326,0.000
12150.490,11823.420,13454.450,12581.450,11998.150,12757.680,12825.840,12255.460,-0.136,0.962,-0.280,-2.289,-3.937,-4.486,66.667,363.000,1.000,0.019,0.000
11964.700,11640.070,13246.810,12386.760,11812.210,12562.890,12627.440,12063.870,-0.139,0.956,-0.280,-2.319,-4.333,-4.700,66.667,364.000,1.000,4.406,0.000
11779.630,11458.510,13039.250,12192.360,11627.560,12369.600,12430.510,11875.500,-0.141,0.948,-0.279,-2.197,-4.669,-4.639,66.667,365.000,1.000,4.958,0.000
11593.210,11276.950,12830.540,11998.240,11442.810,12174.640,12234.660,11688.190,-0.143,0.942,-0.279,-2.075,-5.035,-4.395,66.667,366.000,1.000,6.230,0.000
11406.760,11096.380,12622.750,11806.300,11259.280,11979.000,12040.950,11503.070,-0.142,0.937,-0.280,-1.923,-5.341,-4.181,66.667,367.000,1.000,5.053,0.000
11222.230,10918.390,12417.980,11616.380,11078.400,11785.120,11849.250,11320.340,-0.140,0.932,-0.275,-1.587,-5.707,-3.906,66.667,368.000,1.000,4.998,0.000
11038.500,10740.450,12213.990,11425.790,10897.150,11590.620,11655.280,11135.830,-0.138,0.923,-0.275,-1.312,-5.981,-3.540,66.667,369.000,1.000,5.024,0.000
10852.960,10559.580,12008.300,11232.960,10712.890,11393.060,11457.350,10947.080,-0.137,0.917,-0.275,-0.671,-6.104,-3.143,66.667,370.000,1.000,4.968,0.000
10668.370,10379.830,11804.940,11041.810,10530.290,11198.050,11262.310,10757.790,-0.131,0.913,-0.275,-0.031,-6.104,-2.716,66.667,371.000,1.000,5.077,0.000
10488.960,10206.180,11607.290,10856.140,10353.750,11011.130,11075.160,10573.370,-0.123,0.912,-0.273,0.610,-5.920,-2.167,66.667,372.000,1.000,6.176,0.000
10311.020,10033.990,11409.680,10671.490,10177.980,10825.830,10888.460,10392.320,-0.119,0.918,-0.271,1.190,-5.829,-1.678,66.667,373.000,1.000,2.514,0.000
10131.290,9859.116,11208.670,10484.630,9999.282,10636.730,10697.110,10211.000,-0.111,0.925,-0.271,1.678,-5.615,-1.068,66.667,374.000,1.000,2.474,0.000
9951.618,9684.740,11008.040,10298.060,9821.203,10448.690,10505.930,10029.920,-0.106,0.929,-0.271,2.167,-5.219,-0.427,66.667,375.000,1.000,4.989,0.000
9771.798,9510.596,10808.350,10111.470,9643.615,10262.690,10315.640,9848.171,-0.102,0.937,-0.273,2.472,-4.669,0.244,66.667,376.000,1.000,2.527,0.000
9593.898,9336.929,10610.130,9926.047,9466.513,10077.340,10125.790,9667.616,-0.101,0.944,-0.276,2.808,-4.150,1.007,66.667,377.000,1.000,2.460,0.000
9417.769,9163.852,10413.070,9742.440,9289.892,9891.188,9936.153,9489.625,-0.109,0.953,-0.281,2.991,-3.601,1.526,66.667,378.000,1.000,2.581,0.000
9237.452,8986.837,10212.480,9556.712,9109.866,9700.554,9743.128,9309.275,-0.116,0.965,-0.284,3.174,-3.113,2.014,66.667,379.000,1.000,2.446,0.000
9055.016,8809.055,10010.970,9370.562,8929.840,9509.930,9550.785,9127.926,-0.128,0.976,-0.289,3.235,-2.869,2.167,66.667,380.000,1.000,2.507,0.000
8876.919,8637.492,9815.125,9187.904,8756.405,9325.451,9365.765,8951.379,-0.137,0.982,-0.291,3.296,-2.808,2.197,66.667,381.000,1.000,2.472,0.000
8701.567,8469.474,9622.610,9006.341,8586.839,9143.880,9185.228,8778.029,-0.140,0.988,-0.292,3.326,-2.655,2.167,66.667,382.000,1.000,2.588,0.000
8526.264,8300.643,9429.700,8824.015,8416.433,8961.912,9004.782,8603.945,-0.138,0.993,-0.297,3.113,-2.960,2.197,66.667,383.000,1.000,3.032,0.000
8352.285,8132.003,9237.567,8642.904,8245.851,8780.194,8823.667,8428.673,-0.135,0.994,-0.299,2.930,-3.082,2.045,66.667,384.000,1.000,0.006,0.000
8182.105,7966.765,9049.050,8466.867,8079.369,8601.504,8645.042,8256.653,-0.128,0.991,-0.298,2.655,-3.174,2.075,66.667,385.000,1.000,1.912,0.000
8014.943,7805.321,8863.937,8296.166,7917.828,8426.982,8472.330,8091.358,-0.125,0.980,-0.298,2.289,-3.204,2.106,66.667,386.000,1.000,3.753,0.000
7842.138,7639.194,8673.895,8120.916,7751.143,8246.905,8295.465,7922.319,-0.122,0.968,-0.304,2.014,-3.174,2.167,66.667,387.000,1.000,7.486,0.000
7660.475,7463.045,8474.501,7935.271,7572.414,8054.456,8102.641,7738.181,-0.114,0.953,-0.309,2.106,-3.052,2.167,66.667,388.000,1.000,2.474,0.000
7478.945,7285.541,8274.022,7747.399,7391.008,7860.630,7904.521,7548.136,-0.107,0.938,-0.311,2.380,-2.991,2.075,66.667,389.000,1.000,2.531,0.000
7303.276,7114.637,8079.032,7564.181,7216.980,7676.532,7717.482,7367.503,-0.101,0.925,-0.313,2.777,-2.777,2.014,66.667,390.000,1.000,2.472,0.000
7132.106,6948.291,7887.647,7384.601,7048.420,7499.224,7538.724,7195.868,-0.094,0.913,-0.312,3.326,-2.625,1.801,66.667,391.000,1.000,2.546,0.000
6962.614,6781.909,7696.442,7207.098,6879.468,7321.404,7359.022,7025.983,-0.088,0.904,-0.308,4.120,-2.289,1.495,66.667,392.000,1.000,3.058,0.000
6791.779,6613.731,7504.034,7029.940,6708.750,7141.290,7177.755,6855.783,-0.084,0.900,-0.302,4.761,-1.862,1.190,66.667,393.000,1.000,0.007,0.000
6620.586,6446.782,7313.416,6853.096,6539.717,6962.792,6998.911,6685.679,-0.084,0.899,-0.303,5.402,-1.404,1.007,66.667,394.000,1.000,1.903,0.000
6451.382,6283.750,7127.422,6678.588,6374.145,6788.119,6822.717,6515.142,-0.084,0.901,-0.305,5.981,-0.885,0.824,66.667,395.000,1.000,5.646,0.000
6283.261,6122.675,6944.033,6505.980,6210.056,6614.864,6646.227,6344.669,-0.083,0.904,-0.309,6.775,-0.549,0.458,66.667,396.000,1.000,0.005,0.000
6116.580,5962.917,6762.162,6334.996,6047.518,6442.336,6470.251,6176.864,-0.083,0.906,-0.310,7.294,-0.122,0.275,66.667,397.000,1.000,0.003,0.000
5951.480,5804.331,6581.475,6165.490,5886.751,6270.429,6296.393,6012.166,-0.080,0.907,-0.305,7.721,0.397,-0.122,66.667,398.000,1.000,0.003,0.000
5785.890,5644.940,6399.428,5994.909,5725.218,6097.043,6122.406,5847.389,-0.081,0.907,-0.303,8.179,0.885,-0.458,66.667,399.000,1.000,0.003,0.000
5621.824,5486.286,6216.527,5823.541,5562.798,5923.823,5947.487,5680.473,-0.084,0.910,-0.302,8.484,1.312,-0.824,66.667,400.000,1.000,4.901,0.000
5460.212,5328.349,6033.445,5652.103,5399.242,5752.169,5771.942,5511.144,-0.089,0.919,-0.304,8.698,1.709,-1.160,66.667,401.000,1.000,0.005,0.000
5297.757,5168.335,5848.875,5478.848,5233.353,5579.729,5595.292,5340.261,-0.096,0.929,-0.308,8.850,2.075,-1.495,66.667,402.000,1.000,2.474,0.000
5135.995,5009.442,5666.192,5307.479,5069.559,5408.356,5421.731,5172.918,-0.103,0.938,-0.312,8.789,2.258,-1.892,66.667,403.000,1.000,0.006,0.000
4974.411,4851.276,5485.002,5138.423,4908.430,5238.279,5251.464,5009.389,-0.114,0.950,-0.315,8.759,2.380,-2.045,66.667,404.000,1.000,1.944,0.000
4809.309,4689.121,5300.802,4966.969,4745.629,5065.982,5078.905,4843.913,-0.126,0.961,-0.320,8.362,2.289,-2.380,66.667,405.000,1.000,3.139,0.000
4642.809,4524.811,5114.791,4794.651,4581.096,4891.281,4903.111,4675.544,-0.137,0.970,-0.318,7.935,2.136,-2.594,66.667,406.000,1.000,0.007,0.000
4479.275,4362.636,4930.512,4624.773,4417.360,4715.970,4727.317,4507.935,-0.142,0.976,-0.317,7.294,1.862,-2.838,66.667,407.000,1.000,1.892,0.000
4320.720,4205.273,4750.402,4458.472,4257.793,4543.728,4556.410,4345.110,-0.144,0.981,-0.313,6.683,1.343,-2.960,66.667,408.000,1.000,3.046,0.000
4167.990,4053.838,4575.625,4296.626,4103.977,4378.080,4392.301,4187.697,-0.142,0.982,-0.312,6.073,0.885,-3.113,66.667,409.000,1.000,0.006,0.000
4022.236,3908.485,4406.757,4139.695,3954.913,4218.320,4231.924,4033.663,-0.137,0.981,-0.308,5.249,0.549,-3.113,66.667,410.000,1.000,1.924,0.000
3879.215,3765.777,4241.174,3984.654,3807.432,4059.875,4071.663,3880.510,-0.131,0.978,-0.303,4.303,0.153,-2.991,66.667,411.000,1.000,11.275,0.000
3729.401,3618.052,4071.717,3824.966,3655.629,3898.086,3908.868,3724.314,-0.126,0.970,-0.299,3.357,-0.031,-2.686,66.667,412.000,1.000,14.939,0.000
3568.832,3460.575,3893.562,3656.990,3494.807,3728.714,3739.773,3562.273,-0.123,0.963,-0.302,2.441,-0.122,-2.350,66.667,413.000,1.000,0.012,0.000
3404.651,3298.369,3711.694,3486.206,3328.880,3552.625,3564.455,3397.185,-0.124,0.957,-0.310,1.770,-0.153,-1.953,66.667,414.000,1.000,0.003,0.000
3244.081,3139.107,3532.339,3318.770,3164.746,3377.419,3388.853,3232.872,-0.125,0.948,-0.319,1.190,-0.122,-1.526,66.667,415.000,1.000,3.093,0.000
3086.341,2983.313,3354.805,3153.590,3003.898,3207.424,3216.858,3070.419,-0.127,0.942,-0.327,1.007,-0.336,-1.068,66.667,416.000,1.000,0.006,0.000
2929.774,2829.332,3179.039,2989.986,2846.616,3042.173,3048.948,2910.498,-0.131,0.939,-0.335,0.946,-0.427,-0.641,66.667,417.000,1.000,2.649,0.000
2775.204,2678.640,3007.266,2829.720,2693.932,2881.271,2885.513,2754.179,-0.135,0.938,-0.339,1.129,-0.641,-0.275,66.667,418.000,1.000,0.008,0.000
2622.144,2530.963,2838.406,2671.947,2544.692,2723.181,2725.232,2601.286,-0.139,0.938,-0.340,1.434,-0.732,-0.031,66.667,419.000,1.000,1.757,0.000
2466.122,2380.927,2667.295,2511.722,2393.859,2562.960,2563.004,2445.055,-0.143,0.939,-0.342,1.495,-0.946,0.336,66.667,420.000,1.000,13.738,0.000
2306.266,2227.728,2493.463,2348.091,2240.070,2399.161,2397.211,2282.851,-0.146,0.938,-0.344,1.678,-1.129,0.549,66.667,421.000,1.000,4.937,0.000
2150.694,2079.292,2324.656,2189.405,2091.091,2239.429,2235.060,2126.511,-0.148,0.942,-0.346,1.923,-1.434,0.824,66.667,422.000,1.000,0.007,0.000
2002.419,1937.233,2162.014,2038.164,1949.303,2086.549,2080.808,1981.688,-0.146,0.948,-0.349,2.106,-1.801,0.854,66.667,423.000,1.000,0.003,0.000
1852.360,1791.838,1995.772,1884.253,1804.607,1930.790,1926.872,1836.881,-0.143,0.956,-0.348,2.258,-2.136,0.824,66.667,424.000,1.000,10.075,0.000
1694.971,1638.117,1821.986,1722.860,1651.736,1767.182,1767.027,1684.963,-0.135,0.960,-0.342,2.167,-2.563,0.763,66.667,425.000,1.000,2.494,0.000
1534.490,1480.806,1645.277,1558.246,1494.918,1600.342,1603.362,1528.781,-0.128,0.965,-0.335,2.014,-2.686,0.702,66.667,426.000,1.000,2.496,0.000
1376.036,1325.503,1469.631,1393.491,1337.774,1433.974,1438.565,1369.755,-0.121,0.963,-0.325,1.526,-2.899,0.549,66.667,427.000,1.000,2.478,0.000
1221.619,1175.222,1297.669,1231.348,1183.091,1270.267,1274.877,1210.614,-0.115,0.961,-0.320,0.916,-2.808,0.427,66.667,428.000,1.000,6.844,0.000
1071.605,1031.353,1131.752,1075.588,1034.390,1112.103,1116.098,1056.888,-0.113,0.958,-0.319,0.458,-2.716,0.458,66.667,429.000,1.000,0.016,0.000
924.312,891.838,970.725,925.158,890.918,959.047,962.152,909.250,-0.110,0.954,-0.313,-0.244,-2.533,0.244,66.667,430.000,1.000,11.250,0.000
775.034,750.126,808.739,773.309,746.893,806.609,807.306,761.968,-0.104,0.954,-0.309,-0.793,-2.350,0.061,66.667,431.000,1.000,0.014,0.000
620.975,602.275,642.188,616.864,599.466,651.659,649.831,611.857,-0.103,0.958,-0.305,-1.404,-2.167,-0.092,66.667,432.000,1.000,13.732,0.000
465.747,452.660,474.055,460.208,451.452,495.791,494.305,461.902,-0.102,0.968,-0.302,-2.106,-1.953,-0.366,66.667,433.000,1.000,0.008,0.000
314.972,306.492,308.163,306.986,304.614,340.344,339.463,312.512,-0.104,0.973,-0.299,-2.930,-1.923,-0.549,66.667,434.000,1.000,3.010,0.000
168.972,162.564,144.515,155.547,158.072,184.226,182.170,163.456,-0.105,0.974,-0.295,-3.784,-1.709,-0.854,66.667,435.000,1.000,0.008,0.000
24.463,19.789,-17.250,4.843,12.878,30.129,26.352,17.708,-0.103,0.968,-0.294,-4.761,-1.617,-1.038,66.667,436.000,1.000,0.003,0.000
-121.505,-121.764,-178.731,-146.475,-132.143,-122.997,-129.651,-128.813,-0.102,0.954,-0.294,-5.585,-1.434,-1.373,66.667,437.000,1.000,4.469,0.000
-269.330,-263.926,-342.010,-300.317,-279.913,-280.648,-291.249,-281.859,-0.103,0.942,-0.301,-6.104,-1.221,-1.526,66.667,438.000,1.000,0.004,0.000
-416.190,-406.275,-505.096,-454.281,-428.614,-440.211,-456.128,-438.504,-0.100,0.929,-0.305,-6.256,-1.099,-1.740,66.667,439.000,1.000,5.604,0.000
-561.793,-547.986,-666.362,-606.453,-575.648,-596.135,-617.161,-592.829,-0.100,0.913,-0.306,-6.134,-0.946,-1.984,66.667,440.000,1.000,13.779,0.000
-707.739,-689.416,-826.233,-756.992,-720.119,-747.206,-769.991,-741.089,-0.099,0.899,-0.307,-5.707,-0.732,-2.045,66.667,441.000,1.000,4.992,0.000
-852.445,-828.853,-983.815,-904.407,-860.080,-893.347,-916.160,-882.715,-0.096,0.883,-0.308,-5.005,-0.671,-2.045,66.667,442.000,1.000,0.009,0.000
-993.723,-964.904,-1138.396,-1048.387,-995.456,-1035.832,-1060.131,-1021.422,-0.099,0.868,-0.309,-4.059,-0.580,-2.014,66.667,443.000,1.000,0.004,0.000
-1133.734,-1100.074,-1292.582,-1192.093,-1130.070,-1178.479,-1203.669,-1159.458,-0.101,0.856,-0.309,-2.991,-0.427,-1.984,66.667,444.000,1.000,2.488,0.000
-1276.062,-1236.895,-1449.281,-1338.270,-1266.789,-1324.010,-1347.828,-1297.024,-0.109,0.850,-0.310,-1.740,-0.366,-2.045,66.667,445.000,1.000,2.565,0.000
-1420.722,-1374.517,-1608.066,-1486.891,-1405.954,-1472.808,-1496.543,-1438.007,-0.118,0.853,-0.312,-0.275,-0.244,-2.136,66.667,446.000,1.000,8.676,0.000
-1565.582,-1511.664,-1766.642,-1636.040,-1546.286,-1622.602,-1649.052,-1582.798,-0.123,0.867,-0.313,1.282,-0.336,-2.319,66.667,447.000,1.000,11.474,0.000
-1708.185,-1647.102,-1922.293,-1782.851,-1684.168,-1768.671,-1798.152,-1725.401,-0.130,0.887,-0.309,2.686,-0.580,-2.411,66.667,448.000,1.000,0.016,0.000
-1847.266,-1779.687,-2074.266,-1925.791,-1817.333,-1909.568,-1939.369,-1862.572,-0.131,0.908,-0.302,3.632,-0.946,-2.533,66.667,449.000,1.000,5.354,0.000
-1984.555,-1911.554,-2225.763,-2067.640,-1949.401,-2050.201,-2078.289,-1998.696,-0.130,0.925,-0.294,4.211,-1.312,-2.563,66.667,450.000,1.000,0.005,0.000
-2121.761,-2045.436,-2379.603,-2211.598,-2084.968,-2195.524,-2222.668,-2139.143,-0.131,0.935,-0.289,4.456,-1.709,-2.472,66.667,451.000,1.000,11.220,0.000
-2259.257,-2181.722,-2535.839,-2357.215,-2224.854,-2345.654,-2372.954,-2283.588,-0.134,0.943,-0.289,4.425,-2.228,-2.289,66.667,452.000,1.000,0.011,0.000
-2398.366,-2319.766,-2694.042,-2504.071,-2368.076,-2497.373,-2526.421,-2429.894,-0.135,0.943,-0.287,4.242,-2.777,-2.075,66.667,453.000,1.000,3.169,0.000
-2538.503,-2456.550,-2851.771,-2650.901,-2510.918,-2645.292,-2677.980,-2574.830,-0.135,0.939,-0.285,4.059,-3.296,-1.892,66.667,454.000,1.000,0.017,0.000
-2675.204,-2587.976,-3003.922,-2792.532,-2647.931,-2786.265,-2821.951,-2712.582,-0.128,0.935,-0.286,3.906,-3.876,-1.526,66.667,455.000,1.000,0.009,0.000
-2809.154,-2717.250,-3151.870,-2929.905,-2781.179,-2926.069,-2962.059,-2845.446,-0.122,0.931,-0.288,3.815,-4.150,-1.129,66.667,456.000,1.000,3.721,0.000
-2947.333,-2851.701,-3303.823,-3072.118,-2918.504,-3072.506,-3107.384,-2983.621,-0.122,0.929,-0.293,3.998,-4.425,-0.580,66.667,457.000,1.000,8.859,0.000
-3088.741,-2988.955,-3459.568,-3218.879,-3058.835,-3221.566,-3256.646,-3126.459,-0.124,0.928,-0.297,4.089,-4.639,0.000,66.667,458.000,1.000,2.967,0.000
-3228.429,-3124.527,-3614.045,-3363.984,-3197.266,-3367.011,-3403.695,-3266.640,-0.126,0.921,-0.297,4.028,-4.883,0.488,66.667,459.000,1.000,0.009,0.000
-3366.588,-3260.338,-3767.366,-3507.273,-3334.872,-3511.924,-3549.439,-3404.457,-0.131,0.910,-0.297,3.906,-5.249,0.824,66.667,460.000,1.000,1.930,0.000
-3502.086,-3395.514,-3918.679,-3647.990,-3470.806,-3657.533,-3693.491,-3540.195,-0.136,0.901,-0.301,3.906,-5.371,0.946,66.667,461.000,1.000,13.726,0.000
-3632.814,-3526.008,-4065.593,-3783.914,-3601.804,-3799.691,-3832.794,-3671.550,-0.140,0.897,-0.310,4.333,-5.524,1.007,66.667,462.000,1.000,2.479,0.000
-3759.460,-3651.029,-4208.363,-3915.691,-3728.169,-3936.354,-3969.028,-3800.393,-0.144,0.900,-0.320,4.822,-5.768,0.885,66.667,463.000,1.000,4.982,0.000
-3888.337,-3777.090,-4352.201,-4048.810,-3855.022,-4071.707,-4105.978,-3930.432,-0.143,0.906,-0.326,5.310,-5.951,0.702,66.667,464.000,1.000,2.512,0.000
-4026.023,-3910.401,-4502.517,-4188.047,-3986.914,-4211.256,-4245.960,-4063.586,-0.139,0.915,-0.329,5.646,-6.042,0.671,66.667,465.000,1.000,2.498,0.000
-4166.108,-4044.493,-4654.430,-4328.288,-4119.518,-4352.011,-4387.664,-4198.787,-0.133,0.927,-0.334,5.951,-6.165,0.732,66.667,466.000,1.000,9.360,0.000
-4298.639,-4171.003,-4800.036,-4462.698,-4246.679,-4488.440,-4527.670,-4332.549,-0.125,0.939,-0.336,6.195,-6.165,0.793,66.667,467.000,1.000,0.006,0.000
-4425.885,-4292.430,-4940.762,-4593.422,-4369.747,-4620.705,-4663.981,-4462.861,-0.111,0.950,-0.334,6.226,-5.981,1.099,66.667,468.000,1.000,1.897,0.000
-4555.223,-4415.411,-5082.905,-4726.907,-4494.227,-4752.583,-4798.288,-4592.260,-0.094,0.963,-0.333,5.951,-5.554,1.587,66.667,469.000,1.000,2.528,0.000
-4688.952,-4543.175,-5229.088,-4865.543,-4623.757,-4889.080,-4935.477,-4724.606,-0.077,0.976,-0.330,5.463,-4.700,2.136,66.667,470.000,1.000,11.262,0.000
-4824.351,-4673.372,-5376.469,-5005.576,-4756.186,-5029.542,-5075.080,-4858.199,-0.063,0.991,-0.332,4.761,-3.693,2.899,66.667,471.000,1.000,3.041,0.000
-4957.476,-4801.759,-5521.752,-5142.218,-4887.266,-5167.788,-5211.894,-4988.686,-0.052,1.001,-0.336,3.876,-2.441,3.815,66.667,472.000,1.000,0.005,0.000
-5085.771,-4926.812,-5664.193,-5274.683,-5015.952,-5302.384,-5346.907,-5117.254,-0.049,1.008,-0.337,2.930,-1.099,4.608,66.667,473.000,1.000,1.922,0.000
-5210.942,-5050.780,-5805.157,-5406.248,-5144.520,-5437.981,-5485.184,-5248.511,-0.045,1.016,-0.335,1.923,0.153,5.249,66.667,474.000,1.000,3.738,0.000
-5336.410,-5175.763,-5946.433,-5538.671,-5274.448,-5576.608,-5626.812,-5381.848,-0.046,1.021,-0.335,1.038,1.526,5.859,66.667,475.000,1.000,8.170,0.000
-5460.511,-5298.140,-6085.888,-5668.533,-5401.741,-5712.658,-5765.319,-5511.596,-0.047,1.023,-0.335,-0.122,2.808,6.287,66.667,476.000,1.000,0.010,0.000
-5582.750,-5417.070,-6222.444,-5795.782,-5524.194,-5842.862,-5896.948,-5637.237,-0.051,1.020,-0.332,-1.190,3.937,6.653,66.667,477.000,1.000,1.840,0.000
-5705.584,-5536.287,-6358.224,-5923.406,-5644.152,-5970.108,-6023.923,-5760.513,-0.052,1.011,-0.331,-2.228,4.974,6.805,66.667,478.000,1.000,11.170,0.000
-5828.347,-5655.570,-6493.597,-6050.218,-5762.839,-6095.934,-6148.094,-5880.436,-0.052,1.001,-0.331,-3.052,6.012,6.653,66.667,479.000,1.000,3.151,0.000
-5952.734,-5775.991,-6630.998,-6177.160,-5883.484,-6223.548,-6273.539,-6001.083,-0.055,0.990,-0.335,-3.845,7.019,6.439,66.667,480.000,1.000,0.008,0.000
-6080.838,-5899.022,-6771.866,-6306.912,-6008.106,-6355.841,-6404.935,-6126.784,-0.059,0.977,-0.333,-4.456,7.935,6.226,66.667,481.000,1.000,5.666,0.000
-6209.395,-6021.344,-6912.547,-6438.207,-6133.440,-6488.981,-6540.776,-6255.613,-0.065,0.964,-0.331,-4.822,8.698,5.676,66.667,482.000,1.000,4.317,0.000
-6336.400,-6142.382,-7051.503,-6569.389,-6257.532,-6620.182,-6676.429,-6384.596,-0.072,0.952,-0.330,-5.127,9.338,5.219,66.667,483.000,1.000,0.007,0.000
-6459.745,-6261.713,-7186.985,-6696.769,-6377.965,-6748.943,-6807.618,-6509.608,-0.078,0.940,-0.332,-5.249,9.735,4.700,66.667,484.000,1.000,1.914,0.000
-6576.670,-6376.089,-7316.594,-6817.069,-6491.792,-6872.665,-6931.594,-6627.344,-0.081,0.927,-0.326,-5.280,10.040,4.120,66.667,485.000,1.000,16.257,0.000
-6690.768,-6488.511,-7445.075,-6934.947,-6604.115,-6993.903,-7052.548,-6742.157,-0.087,0.911,-0.325,-5.127,10.406,3.448,66.667,486.000,1.000,5.590,0.000
-6808.375,-6606.280,-7579.310,-7057.989,-6723.363,-7120.050,-7178.993,-6862.132,-0.091,0.900,-0.330,-4.883,10.559,2.808,66.667,487.000,1.000,0.009,0.000
-6931.402,-6730.976,-7719.169,-7187.099,-6849.568,-7252.609,-7312.004,-6988.127,-0.104,0.896,-0.332,-4.425,10.559,2.197,66.667,488.000,1.000,1.872,0.000
-7054.282,-6854.198,-7856.910,-7314.692,-6973.569,-7384.129,-7443.730,-7112.714,-0.120,0.897,-0.326,-3.998,10.345,1.556,66.667,489.000,1.000,2.596,0.000
-7171.174,-6968.195,-7987.166,-7436.339,-7089.545,-7508.234,-7569.055,-7232.483,-0.134,0.902,-0.326,-3.601,9.918,0.946,66.667,490.000,1.000,2.432,0.000
-7286.285,-7078.305,-8115.008,-7557.121,-7202.778,-7629.134,-7691.737,-7351.548,-0.148,0.906,-0.328,-3.326,9.277,0.153,66.667,491.000,1.000,36.115,0.000
-7406.097,-7192.849,-8246.286,-7681.590,-7319.294,-7753.467,-7816.209,-7472.645,-0.155,0.907,-0.327,-2.991,8.545,-0.549,66.667,492.000,1.000,3.057,0.000
-7529.638,-7311.149,-8379.870,-7808.683,-7438.462,-7880.794,-7942.163,-7595.070,-0.157,0.906,-0.329,-2.655,7.690,-1.129,66.667,493.000,1.000,0.008,0.000
-7651.323,-7427.217,-8511.426,-7934.063,-7555.839,-8005.236,-8066.793,-7716.311,-0.158,0.910,-0.329,-2.441,6.683,-1.587,66.667,494.000,1.000,1.943,0.000
-7767.225,-7538.296,-8638.382,-8054.360,-7668.521,-8123.145,-8187.995,-7833.924,-0.160,0.912,-0.333,-2.197,5.707,-2.014,66.667,495.000,1.000,6.245,0.000
-7881.389,-7649.445,-8765.150,-8173.233,-7780.864,-8240.855,-8308.259,-7949.745,-0.158,0.916,-0.334,-2.014,4.700,-2.289,66.667,496.000,1.000,2.519,0.000
-7997.658,-7763.545,-8895.002,-8293.207,-7896.295,-8363.799,-8430.311,-8064.896,-0.155,0.919,-0.338,-1.831,3.784,-2.197,66.667,497.000,1.000,2.441,0.000
-8114.403,-7878.483,-9025.296,-8412.177,-8012.752,-8489.112,-8553.715,-8178.741,-0.149,0.924,-0.343,-1.526,2.991,-2.136,66.667,498.000,1.000,5.084,0.000
-8232.402,-7994.684,-9156.364,-8532.611,-8130.653,-8615.564,-8678.964,-8295.307,-0.148,0.934,-0.345,-1.373,2.228,-1.953,66.667,499.000,1.000,4.921,0.000
-8352.607,-8111.025,-9289.307,-8657.119,-8250.127,-8742.063,-8805.515,-8417.116,-0.147,0.943,-0.352,-1.251,1.373,-1.831,66.667,500.000,1.000,2.525,0.000
-8472.228,-8224.078,-9420.837,-8781.815,-8366.558,-8864.364,-8928.550,-8537.776,-0.147,0.953,-0.351,-1.190,0.763,-1.617,66.667,501.000,1.000,2.517,0.000
-8588.229,-8332.542,-9547.282,-8901.295,-8475.892,-8979.726,-9043.350,-8650.529,-0.149,0.959,-0.349,-1.373,0.000,-1.343,66.667,502.000,1.000,5.003,0.000
-8703.044,-8440.580,-9672.081,-9018.383,-8582.796,-9092.973,-9154.934,-8760.743,-0.146,0.967,-0.351,-1.709,-0.671,-1.160,66.667,503.000,1.000,36.367,0.000
-8819.286,-8552.304,-9799.908,-9138.097,-8694.089,-9211.627,-9273.668,-8875.877,-0.141,0.968,-0.352,-1.923,-1.282,-0.916,66.667,504.000,1.000,4.870,0.000
-8933.729,-8664.668,-9927.559,-9256.865,-8807.613,-9334.121,-9399.229,-8991.937,-0.137,0.963,-0.358,-2.014,-1.740,-0.488,66.667,505.000,1.000,2.501,0.000
-9045.359,-8775.458,-10052.290,-9371.926,-8919.700,-9455.332,-9523.924,-9104.210,-0.130,0.955,-0.355,-2.045,-2.014,0.000,66.667,506.000,1.000,2.551,0.000
-9155.364,-8885.000,-10175.100,-9485.317,-9030.074,-9573.886,-9643.492,-9213.602,-0.125,0.943,-0.353,-1.923,-2.350,0.519,66.667,507.000,1.000,3.080,0.000
-9264.378,-8993.540,-10297.860,-9599.091,-9140.350,-9691.994,-9760.842,-9323.208,-0.120,0.936,-0.351,-1.648,-2.563,1.160,66.667,508.000,1.000,0.005,0.000
-9375.017,-9102.965,-10422.730,-9714.936,-9253.047,-9811.846,-9881.254,-9437.194,-0.115,0.931,-0.349,-1.465,-2.625,1.709,66.667,509.000,1.000,1.825,0.000
-9488.039,-9213.846,-10548.990,-9832.521,-9367.467,-9931.873,-10003.230,-9554.835,-0.111,0.927,-0.351,-1.160,-2.625,2.350,66.667,510.000,1.000,5.064,0.000
-9600.552,-9324.180,-10673.960,-9949.794,-9480.410,-10049.050,-10122.640,-9671.242,-0.105,0.924,-0.349,-0.885,-2.502,2.838,66.667,511.000,1.000,2.501,0.000
-9708.376,-9429.635,-10794.150,-10062.920,-9587.699,-10160.170,-10236.700,-9781.628,-0.095,0.921,-0.344,-0.671,-2.319,3.357,66.667,512.000,1.000,2.507,0.000
-9811.752,-9529.358,-10909.450,-10171.560,-9689.484,-10266.420,-10346.200,-9885.833,-0.089,0.918,-0.345,-0.366,-1.984,3.815,66.667,513.000,1.000,2.432,0.000
-9916.843,-9629.701,-11025.490,-10281.380,-9791.506,-10373.830,-10455.330,-9989.087,-0.082,0.920,-0.339,-0.122,-1.526,4.242,66.667,514.000,1.000,2.544,0.000
-10027.130,-9736.069,-11146.990,-10395.800,-9898.028,-10487.030,-10567.900,-10097.050,-0.076,0.922,-0.342,0.153,-0.977,4.608,66.667,515.000,1.000,2.535,0.000
-10135.550,-9843.252,-11268.880,-10509.680,-10005.660,-10602.470,-10683.860,-10209.710,-0.074,0.927,-0.340,0.366,-0.275,4.883,66.667,516.000,1.000,8.765,0.000
-10234.680,-9942.570,-11382.340,-10615.980,-10107.270,-10712.730,-10796.530,-10318.610,-0.079,0.938,-0.342,0.488,0.183,4.791,66.667,517.000,1.000,5.029,0.000
-10331.640,-10038.130,-11491.900,-10718.750,-10206.020,-10821.170,-10904.750,-10421.570,-0.087,0.939,-0.343,0.366,0.702,4.669,66.667,518.000,1.000,2.429,0.000
-10434.370,-10137.440,-11606.380,-10825.290,-10309.170,-10933.940,-11015.010,-10526.090,-0.094,0.938,-0.344,0.397,1.129,4.364,66.667,519.000,1.000,3.105,0.000
-10539.510,-10239.420,-11723.920,-10934.590,-10414.840,-11047.610,-11127.310,-10633.260,-0.098,0.939,-0.344,0.397,1.556,3.967,66.667,520.000,1.000,0.011,0.000
-10644.940,-10342.850,-11841.470,-11044.960,-10519.750,-11158.630,-11238.220,-10739.540,-0.100,0.940,-0.347,0.580,1.770,3.448,66.667,521.000,1.000,1.889,0.000
-10752.000,-10447.980,-11959.910,-11156.990,-10625.000,-11268.840,-11349.770,-10846.250,-0.104,0.943,-0.353,0.916,1.923,2.899,66.667,522.000,1.000,3.687,0.000
-10860.210,-10552.940,-12079.180,-11269.800,-10731.290,-11379.400,-11463.870,-10955.520,-0.102,0.944,-0.357,1.038,1.953,2.411,66.667,523.000,1.000,0.013,0.000
-10969.550,-10657.550,-12198.520,-11382.630,-10838.210,-11489.700,-11578.200,-11065.520,-0.093,0.946,-0.360,1.160,1.984,1.801,66.667,524.000,1.000,0.003,0.000
-11076.410,-10760.370,-12314.280,-11492.050,-10942.380,-11597.740,-11688.610,-11171.780,-0.084,0.940,-0.359,1.373,2.258,1.526,66.667,525.000,1.000,2.498,0.000
-11175.640,-10856.790,-12422.370,-11594.000,-11039.260,-11700.520,-11791.970,-11271.480,-0.076,0.930,-0.360,1.556,2.563,1.312,66.667,526.000,1.000,3.069,0.000
-11271.630,-10949.520,-12527.450,-11692.680,-11132.590,-11801.090,-11892.110,-11368.270,-0.072,0.925,-0.364,2.014,3.021,1.190,66.667,527.000,1.000,0.004,0.000
-11372.590,-11047.140,-12638.340,-11795.790,-11231.070,-11906.710,-11997.450,-11468.120,-0.076,0.922,-0.363,2.594,3.815,0.946,66.667,528.000,1.000,1.926,0.000
-11476.480,-11149.130,-12754.150,-11902.570,-11334.580,-12017.010,-12108.750,-11571.650,-0.076,0.921,-0.359,2.869,4.181,0.641,66.667,529.000,1.000,3.140,0.000
-11577.650,-11248.530,-12868.580,-12008.290,-11436.900,-12125.740,-12219.440,-11675.720,-0.071,0.919,-0.356,3.204,4.669,0.519,66.667,530.000,1.000,0.005,0.000
-11678.700,-11346.280,-12982.420,-12113.490,-11537.470,-12232.230,-12327.070,-11778.850,-0.067,0.916,-0.357,3.418,5.188,0.336,66.667,531.000,1.000,11.228,0.000
-11782.600,-11447.020,-13098.730,-12220.180,-11639.710,-12340.840,-12435.680,-11883.390,-0.067,0.916,-0.354,3.662,5.707,0.183,66.667,532.000,1.000,0.012,0.000
-11886.620,-11549.740,-13215.600,-12327.850,-11743.680,-12452.230,-12546.760,-11990.710,-0.070,0.917,-0.355,3.937,6.287,0.092,66.667,533.000,1.000,1.910,0.000
-11990.070,-11652.520,-13331.490,-12436.480,-11847.770,-12563.530,-12657.600,-12098.750,-0.073,0.920,-0.356,4.303,6.775,0.061,66.667,534.000,1.000,2.556,0.000
-12090.110,-11750.660,-13442.790,-12541.980,-11947.250,-12669.360,-12763.030,-12201.390,-0.075,0.927,-0.355,4.395,7.141,-0.061,66.667,535.000,1.000,5.511,0.000
-12184.130,-11841.790,-13547.750,-12640.850,-12040.730,-12769.450,-12862.730,-12296.590,-0.079,0.930,-0.354,4.578,7.568,-0.275,66.667,536.000,1.000,0.009,0.000
-12281.400,-11936.320,-13656.640,-12741.620,-12138.120,-12874.160,-12966.570,-12393.690,-0.082,0.934,-0.354,4.761,7.813,-0.458,66.667,537.000,1.000,1.896,0.000
-12384.410,-12036.910,-13771.990,-12847.050,-12240.830,-12984.130,-13075.260,-12495.600,-0.090,0.934,-0.356,4.730,8.057,-0.763,66.667,538.000,1.000,2.506,0.000
-12484.290,-12134.700,-13884.510,-12949.850,-12339.910,-13090.230,-13180.180,-12595.320,-0.102,0.936,-0.356,4.639,8.270,-1.007,66.667,539.000,1.000,2.550,0.000
-12580.410,-12229.090,-13993.070,-13049.380,-12434.970,-13191.910,-13281.290,-12691.270,-0.113,0.937,-0.356,4.578,8.179,-1.373,66.667,540.000,1.000,2.423,0.000
-12678.470,-12325.340,-14103.180,-13150.370,-12531.700,-13293.260,-13383.500,-12788.320,-0.123,0.940,-0.356,4.578,7.965,-1.862,66.667,541.000,1.000,14.986,0.000
-12781.070,-12425.390,-14217.390,-13256.310,-12632.810,-13396.600,-13489.260,-12890.220,-0.132,0.942,-0.355,4.547,7.599,-2.441,66.667,542.000,1.000,0.011,0.000
-12881.350,-12522.120,-14327.620,-13360.640,-12730.860,-13497.820,-13592.870,-12990.200,-0.140,0.936,-0.351,4.486,7.172,-3.021,66.667,543.000,1.000,0.004,0.000
-12972.780,-12609.460,-14426.530,-13454.550,-12819.100,-13593.070,-13688.820,-13081.020,-0.143,0.927,-0.352,4.303,6.653,-3.540,66.667,544.000,1.000,3.762,0.000
-13063.390,-12697.660,-14524.900,-13546.030,-12908.200,-13691.460,-13786.280,-13171.750,-0.140,0.918,-0.353,4.364,5.981,-3.937,66.667,545.000,1.000,0.012,0.000
-13160.130,-12794.520,-14632.250,-13644.990,-13006.930,-13798.180,-13891.380,-13269.930,-0.136,0.914,-0.351,4.333,5.463,-4.150,66.667,546.000,1.000,0.003,0.000
-13258.870,-12893.660,-14743.060,-13747.870,-13108.650,-13904.940,-13997.290,-13371.010,-0.133,0.917,-0.356,4.517,5.035,-4.211,66.667,547.000,1.000,2.517,0.000
-13354.290,-12989.110,-14850.710,-13848.010,-13206.030,-14006.810,-14100.400,-13471.330,-0.137,0.931,-0.356,4.700,4.608,-4.242,66.667,548.000,1.000,2.526,0.000
-13444.710,-13079.330,-14953.540,-13943.070,-13296.940,-14103.740,-14199.520,-13568.050,-0.139,0.951,-0.357,4.730,4.089,-4.303,66.667,549.000,1.000,3.723,0.000
-13533.790,-13165.920,-15054.230,-14036.540,-13384.570,-14196.660,-14293.870,-13660.140,-0.137,0.965,-0.354,4.395,3.601,-4.181,66.667,550.000,1.000,6.249,0.000
-13624.260,-13251.340,-15154.830,-14130.840,-13472.700,-14288.980,-14386.680,-13749.730,-0.130,0.965,-0.347,3.632,3.204,-3.998,66.667,551.000,1.000,8.781,0.000
-13715.720,-13337.940,-15254.920,-14224.570,-13561.840,-14384.310,-14481.420,-13839.070,-0.121,0.953,-0.343,2.869,2.777,-3.693,66.667,552.000,1.000,12.508,0.000
-13811.130,-13430.010,-15358.090,-14321.020,-13655.330,-14485.910,-14581.490,-13933.390,-0.117,0.944,-0.340,2.167,2.625,-3.357,66.667,553.000,1.000,0.017,0.000
-13910.820,-13527.090,-15466.260,-14422.970,-13754.810,-14593.260,-14688.610,-14034.750,-0.123,0.941,-0.346,1.709,2.533,-3.082,66.667,554.000,1.000,0.004,0.000
-14008.130,-13621.380,-15572.990,-14524.410,-13852.790,-14697.750,-14795.580,-14134.280,-0.137,0.944,-0.349,1.343,2.258,-2.838,66.667,555.000,1.000,2.998,0.000
-14100.330,-13710.040,-15674.660,-14621.310,-13943.910,-14793.380,-14894.030,-14226.910,-0.148,0.950,-0.348,0.916,1.923,-2.838,66.667,556.000,1.000,0.011,0.000
-14190.800,-13798.000,-15775.280,-14716.560,-14032.000,-14884.390,-14986.740,-14318.660,-0.150,0.954,-0.344,0.458,1.465,-2.838,66.667,557.000,1.000,1.940,0.000
-14279.850,-13885.560,-15875.410,-14809.550,-14118.910,-14973.710,-15077.650,-14409.790,-0.149,0.954,-0.341,-0.153,1.007,-2.869,66.667,558.000,1.000,3.738,0.000
-14365.840,-13969.540,-15971.840,-14898.010,-14202.610,-15060.900,-15165.680,-14495.900,-0.147,0.954,-0.342,-0.580,0.641,-2.808,66.667,559.000,1.000,16.796,0.000
-14450.700,-14051.300,-16065.820,-14985.000,-14284.750,-15148.960,-15253.240,-14580.570,-0.143,0.954,-0.341,-0.946,0.305,-2.563,66.667,560.000,1.000,0.009,0.000
-14537.030,-14133.380,-16160.610,-15073.640,-14368.230,-15239.500,-15343.690,-14668.180,-0.143,0.956,-0.337,-1.495,-0.061,-2.228,66.667,561.000,1.000,2.530,0.000
-14623.100,-14215.100,-16255.530,-15162.290,-14451.950,-15329.470,-15434.730,-14755.260,-0.142,0.954,-0.333,-2.045,-0.427,-1.892,66.667,562.000,1.000,0.006,0.000
-14706.910,-14295.350,-16348.840,-15249.400,-14534.010,-15417.020,-15523.520,-14838.850,-0.139,0.947,-0.329,-2.655,-0.641,-1.556,66.667,563.000,1.000,1.900,0.000
-14793.050,-14378.100,-16444.340,-15338.710,-14617.370,-15506.040,-15612.050,-14923.070,-0.138,0.937,-0.328,-3.082,-0.946,-1.129,66.667,564.000,1.000,3.742,0.000
-14886.950,-14469.480,-16547.290,-15434.820,-14706.940,-15602.770,-15705.230,-15013.790,-0.135,0.933,-0.333,-3.448,-0.885,-0.885,66.667,565.000,1.000,9.356,0.000
-14984.890,-14566.300,-16654.120,-15534.570,-14800.580,-15705.170,-15803.770,-15110.230,-0.128,0.931,-0.329,-3.540,-0.824,-0.702,66.667,566.000,1.000,0.008,0.000
-15077.370,-14656.530,-16754.770,-15629.200,-14889.640,-15802.280,-15899.880,-15203.480,-0.122,0.937,-0.330,-3.815,-0.916,-0.458,66.667,567.000,1.000,1.882,0.000
-15161.900,-14737.320,-16846.750,-15716.380,-14971.420,-15890.240,-15987.990,-15287.900,-0.121,0.938,-0.329,-3.998,-0.824,-0.305,66.667,568.000,1.000,11.268,0.000
-15245.120,-14817.950,-16937.750,-15801.960,-15052.630,-15976.430,-16074.090,-15368.460,-0.117,0.938,-0.326,-4.272,-0.763,-0.031,66.667,569.000,1.000,6.822,0.000
-15331.630,-14902.450,-17032.650,-15889.750,-15137.850,-16065.540,-16164.540,-15452.130,-0.118,0.935,-0.327,-4.700,-0.580,0.061,66.667,570.000,1.000,0.006,0.000
-15417.110,-14985.040,-17127.050,-15976.470,-15222.760,-16153.350,-16254.770,-15536.720,-0.113,0.928,-0.326,-4.883,-0.305,0.153,66.667,571.000,1.000,1.895,0.000
-15498.980,-15064.320,-17218.510,-16060.800,-15304.790,-16237.880,-16341.430,-15618.940,-0.108,0.928,-0.327,-4.852,0.122,0.336,66.667,572.000,1.000,2.528,0.000
-15582.880,-15146.230,-17311.630,-16147.290,-15388.080,-16324.140,-16429.170,-15702.340,-0.105,0.929,-0.327,-4.913,0.366,0.549,66.667,573.000,1.000,3.679,0.000
-15669.430,-15230.310,-17406.500,-16235.790,-15472.280,-16412.320,-16517.260,-15786.570,-0.103,0.932,-0.326,-4.913,0.763,0.732,66.667,574.000,1.000,3.727,0.000
-15752.520,-15310.500,-17497.880,-16321.160,-15552.750,-16497.210,-16602.150,-15868.510,-0.105,0.936,-0.324,-5.096,1.312,0.732,66.667,575.000,1.000,11.840,0.000
-15833.310,-15388.080,-17586.830,-16404.960,-15631.610,-16580.510,-16687.810,-15951.630,-0.106,0.935,-0.324,-5.219,1.556,0.702,66.667,576.000,1.000,0.017,0.000
-15917.810,-15468.490,-17678.560,-16492.340,-15713.670,-16667.550,-16777.730,-16039.320,-0.105,0.930,-0.325,-5.310,1.831,0.580,66.667,577.000,1.000,5.010,0.000
-16003.880,-15549.730,-17771.590,-16580.630,-15796.480,-16755.440,-16867.540,-16127.080,-0.102,0.925,-0.326,-5.432,2.289,0.610,66.667,578.000,1.000,0.009,0.000
-16085.790,-15627.000,-17861.610,-16665.120,-15875.690,-16838.500,-16952.600,-16209.720,-0.099,0.921,-0.328,-5.341,2.563,0.519,66.667,579.000,1.000,1.892,0.000
-16164.240,-15702.260,-17949.490,-16747.280,-15952.600,-16918.460,-17034.700,-16288.780,-0.092,0.922,-0.334,-5.249,3.021,0.305,66.667,580.000,1.000,8.826,0.000
-16244.260,-15780.470,-18039.190,-16831.350,-16031.620,-17002.020,-17119.400,-16369.640,-0.088,0.928,-0.337,-5.066,3.418,0.153,66.667,581.000,1.000,2.997,0.000
-16327.110,-15860.700,-18131.050,-16917.180,-16113.110,-17089.760,-17207.060,-16453.040,-0.078,0.933,-0.336,-4.883,3.967,-0.031,66.667,582.000,1.000,0.007,0.000
-16409.330,-15939.630,-18222.470,-17001.590,-16193.850,-17175.580,-17293.770,-16536.150,-0.068,0.934,-0.334,-4.669,4.639,-0.061,66.667,583.000,1.000,8.139,0.000
-16487.810,-16016.780,-18311.510,-17083.440,-16272.500,-17257.460,-17378.400,-16618.210,-0.058,0.934,-0.336,-4.486,5.310,0.031,66.667,584.000,1.000,5.759,0.000
-16560.710,-16089.660,-18394.990,-17161.300,-16347.240,-17336.280,-17458.870,-16696.040,-0.054,0.927,-0.334,-4.608,6.104,0.000,66.667,585.000,1.000,0.080,0.000
-16629.180,-16157.510,-18473.100,-17234.920,-16418.000,-17413.430,-17535.410,-16768.030,-0.054,0.919,-0.332,-4.669,6.866,0.000,66.667,586.000,1.000,1.620,0.000
-16696.880,-16225.000,-18550.940,-17307.970,-16489.230,-17492.400,-17615.160,-16840.540,-0.061,0.914,-0.334,-4.486,7.660,-0.153,66.667,587.000,1.000,3.849,0.000
-16765.210,-16293.980,-18630.730,-17383.550,-16563.410,-17573.020,-17702.430,-16919.750,-0.070,0.915,-0.339,-4.303,8.179,-0.519,66.667,588.000,1.000,14.313,0.000
-16838.020,-16366.950,-18714.830,-17464.110,-16642.320,-17655.100,-17793.730,-17005.260,-0.081,0.918,-0.340,-4.089,8.667,-0.824,66.667,589.000,1.000,0.016,0.000
-16919.840,-16447.870,-18805.660,-17550.280,-16726.240,-17740.590,-17882.030,-17091.260,-0.090,0.920,-0.339,-3.845,8.881,-1.282,66.667,590.000,1.000,2.390,0.000
-17004.650,-16531.210,-18897.630,-17635.600,-16808.430,-17825.650,-17963.100,-17171.040,-0.100,0.923,-0.335,-3.662,8.850,-1.770,66.667,591.000,1.000,0.008,0.000
-17084.900,-16610.140,-18985.220,-17715.340,-16884.460,-17907.040,-18038.970,-17243.920,-0.107,0.923,-0.333,-3.632,8.759,-2.289,66.667,592.000,1.000,3.160,0.000
-17163.010,-16686.410,-19070.640,-17793.290,-16958.150,-17987.800,-18113.880,-17315.100,-0.112,0.919,-0.335,-3.540,8.575,-2.686,66.667,593.000,1.000,16.956,0.000
-17241.420,-16761.690,-19155.660,-17872.030,-17032.050,-18068.080,-18189.870,-17388.280,-0.120,0.917,-0.336,-3.540,8.179,-3.113,66.667,594.000,1.000,0.016,0.000
-17319.160,-16836.360,-19240.940,-17952.130,-17106.550,-18146.790,-18268.820,-17464.700,-0.126,0.918,-0.338,-3.387,7.721,-3.357,66.667,595.000,1.000,2.398,0.000
-17397.850,-16912.990,-19328.780,-18035.450,-17183.630,-18226.960,-18351.940,-17544.050,-0.133,0.926,-0.338,-3.296,7.141,-3.815,66.667,596.000,1.000,0.010,0.000
-17475.620,-16988.460,-19415.600,-18118.040,-17260.640,-18307.460,-18434.570,-17621.960,-0.135,0.934,-0.342,-3.235,6.378,-4.456,66.667,597.000,1.000,11.243,0.000
-17549.580,-17058.930,-19496.970,-18194.950,-17333.900,-18385.060,-18511.940,-17695.540,-0.135,0.939,-0.340,-3.265,5.524,-4.974,66.667,598.000,1.000,0.015,0.000
-17620.540,-17126.530,-19574.100,-18266.320,-17403.210,-18459.340,-18585.100,-17765.710,-0.132,0.944,-0.334,-3.357,4.913,-5.432,66.667,599.000,1.000,2.461,0.000
-17691.090,-17195.050,-19650.940,-18336.130,-17471.170,-18532.880,-18658.170,-17835.390,-0.129,0.947,-0.333,-3.662,4.333,-5.707,66.667,600.000,1.000,0.005,0.000
-17765.720,-17268.630,-19732.310,-18410.800,-17543.750,-18611.450,-18735.800,-17909.320,-0.127,0.946,-0.329,-4.028,3.662,-5.920,66.667,601.000,1.000,5.680,0.000
-17841.990,-17343.490,-19815.220,-18488.480,-17619.290,-18692.560,-18815.910,-17985.780,-0.128,0.946,-0.328,-4.303,3.204,-6.012,66.667,602.000,1.000,9.355,0.000
-17914.070,-17412.640,-19893.310,-18562.210,-17690.550,-18769.180,-18892.260,-18058.420,-0.132,0.945,-0.328,-4.730,2.533,-5.951,66.667,603.000,1.000,0.010,0.000
-17983.150,-17477.750,-19968.920,-18633.350,-17758.070,-18841.910,-18965.220,-18127.940,-0.134,0.942,-0.331,-5.035,2.014,-5.890,66.667,604.000,1.000,12.437,0.000
-18051.450,-17542.260,-20046.070,-18705.840,-17826.060,-18913.340,-19038.810,-18198.350,-0.135,0.937,-0.332,-5.280,1.221,-5.951,66.667,605.000,1.000,0.009,0.000
-18119.030,-17607.380,-20123.690,-18778.870,-17895.230,-18984.180,-19113.600,-18269.650,-0.134,0.932,-0.327,-5.493,0.702,-5.920,66.667,606.000,1.000,9.899,0.000
-18188.070,-17675.510,-20201.080,-18851.160,-17964.990,-19056.280,-19188.000,-18339.580,-0.129,0.927,-0.326,-5.707,0.244,-5.859,66.667,607.000,1.000,0.008,0.000
-18258.670,-17745.430,-20277.760,-18922.380,-18034.310,-19130.800,-19261.660,-18407.060,-0.124,0.921,-0.329,-5.707,-0.183,-5.554,66.667,608.000,1.000,0.005,0.000
-18326.990,-17812.620,-20352.060,-18992.350,-18102.350,-19206.320,-19336.280,-18474.830,-0.123,0.913,-0.333,-5.646,-0.488,-5.249,66.667,609.000,1.000,0.005,0.000
-18393.760,-17878.960,-20426.800,-19062.850,-18171.080,-19281.630,-19413.050,-18546.110,-0.125,0.912,-0.334,-5.615,-0.641,-4.974,66.667,610.000,1.000,1.976,0.000
-18462.390,-17947.770,-20505.010,-19135.480,-18241.630,-19356.130,-19489.740,-18619.540,-0.126,0.910,-0.334,-5.371,-0.824,-4.669,66.667,611.000,1.000,2.585,0.000
-18531.150,-18016.410,-20583.960,-19208.560,-18311.260,-19428.160,-19563.240,-18691.840,-0.131,0.911,-0.326,-5.127,-1.038,-4.486,66.667,612.000,1.000,3.707,0.000
-18597.730,-18083.570,-20661.540,-19280.450,-18378.830,-19497.640,-19633.520,-18761.670,-0.133,0.915,-0.328,-4.852,-1.038,-4.486,66.667,613.000,1.000,8.709,0.000
-18663.500,-18150.900,-20738.740,-19351.780,-18446.200,-19567.760,-19702.940,-18829.750,-0.137,0.918,-0.326,-4.700,-1.221,-4.242,66.667,614.000,1.000,4.338,0.000
-18728.180,-18215.970,-20813.360,-19420.780,-18511.870,-19638.350,-19771.690,-18895.080,-0.135,0.917,-0.327,-4.608,-1.373,-4.089,66.667,615.000,1.000,0.011,0.000
-18793.810,-18279.370,-20885.980,-19488.230,-18576.040,-19708.840,-19841.180,-18958.770,-0.133,0.917,-0.326,-4.517,-1.404,-3.723,66.667,616.000,1.000,8.219,0.000
-18865.100,-18347.280,-20962.170,-19560.030,-18644.050,-19783.000,-19915.230,-19027.330,-0.130,0.918,-0.326,-4.333,-1.282,-3.418,66.667,617.000,1.000,3.044,0.000
-18939.840,-18419.710,-21042.020,-19636.440,-18715.990,-19860.570,-19991.610,-19101.870,-0.127,0.918,-0.324,-4.150,-1.038,-3.052,66.667,618.000,1.000,0.006,0.000
-19012.720,-18491.060,-21121.020,-19711.980,-18787.040,-19936.890,-20065.230,-19174.970,-0.127,0.921,-0.326,-3.937,-0.793,-2.716,66.667,619.000,1.000,1.939,0.000
-19079.160,-18555.720,-21194.410,-19781.600,-18853.030,-20007.930,-20135.340,-19242.360,-0.125,0.924,-0.325,-3.723,-0.519,-2.380,66.667,620.000,1.000,12.442,0.000
-19139.250,-18614.510,-21262.940,-19846.320,-18915.140,-20074.070,-20204.660,-19308.210,-0.128,0.927,-0.323,-3.540,-0.214,-2.289,66.667,621.000,1.000,3.082,0.000
-19201.760,-18676.550,-21335.490,-19913.890,-18980.900,-20141.970,-20276.700,-19377.490,-0.125,0.931,-0.323,-3.510,0.031,-2.045,66.667,622.000,1.000,0.008,0.000
-19269.730,-18743.940,-21414.150,-19985.980,-19051.400,-20213.590,-20349.900,-19447.860,-0.126,0.934,-0.321,-3.479,0.397,-1.862,66.667,623.000,1.000,1.900,0.000
-19336.150,-18809.150,-21490.620,-20055.600,-19119.210,-20283.630,-20419.660,-19514.310,-0.123,0.934,-0.324,-3.571,0.793,-1.526,66.667,624.000,1.000,3.720,0.000
-19400.090,-18871.230,-21562.760,-20121.490,-19183.140,-20351.290,-20487.510,-19578.380,-0.118,0.936,-0.323,-3.540,1.282,-1.434,66.667,625.000,1.000,14.405,0.000
-19465.250,-18933.810,-21634.140,-20187.470,-19246.450,-20418.380,-20555.300,-19642.190,-0.115,0.935,-0.324,-3.510,1.709,-1.465,66.667,626.000,1.000,0.013,0.000
-19530.560,-18996.430,-21704.570,-20253.520,-19309.110,-20484.470,-20621.110,-19704.470,-0.115,0.935,-0.324,-3.479,2.228,-1.343,66.667,627.000,1.000,1.962,0.000
-19594.520,-19059.200,-21774.010,-20319.300,-19371.760,-20550.810,-20686.020,-19766.800,-0.111,0.934,-0.321,-3.448,2.747,-1.404,66.667,628.000,1.000,2.439,0.000
-19658.710,-19124.230,-21844.980,-20386.970,-19436.350,-20619.770,-20752.900,-19832.040,-0.110,0.939,-0.324,-3.479,3.204,-1.312,66.667,629.000,1.000,3.675,0.000
-19724.370,-19190.680,-21918.470,-20457.050,-19502.820,-20691.060,-20822.880,-19899.840,-0.108,0.941,-0.322,-3.632,3.662,-1.312,66.667,630.000,1.000,13.266,0.000
-19787.160,-19253.180,-21990.020,-20523.870,-19566.520,-20759.160,-20892.210,-19965.310,-0.107,0.941,-0.327,-3.693,3.876,-1.251,66.667,631.000,1.000,0.021,0.000
-19845.020,-19310.510,-22057.250,-20584.520,-19624.900,-20821.080,-20956.490,-20025.490,-0.106,0.940,-0.328,-3.693,4.395,-1.404,66.667,632.000,1.000,1.771,0.000
-19904.240,-19367.590,-22124.770,-20645.240,-19682.480,-20881.220,-21018.250,-20084.490,-0.106,0.940,-0.332,-3.632,4.700,-1.495,66.667,633.000,1.000,2.524,0.000
-19967.020,-19425.840,-22193.560,-20708.740,-19741.720,-20941.880,-21080.840,-20146.310,-0.107,0.943,-0.333,-3.662,4.761,-1.495,66.667,634.000,1.000,3.720,0.000
-20029.190,-19484.070,-22260.750,-20771.180,-19800.980,-21002.490,-21143.110,-20209.020,-0.108,0.938,-0.330,-3.815,4.974,-1.648,66.667,635.000,1.000,8.742,0.000
-20087.960,-19541.480,-22325.490,-20830.940,-19858.580,-21063.280,-21202.670,-20268.360,-0.114,0.939,-0.330,-3.906,5.066,-1.770,66.667,636.000,1.000,9.891,0.000
-20144.820,-19598.160,-22389.410,-20890.500,-19915.320,-21125.360,-21261.820,-20325.360,-0.117,0.938,-0.328,-3.937,4.974,-2.045,66.667,637.000,1.000,0.011,0.000
-20204.250,-19657.180,-22455.820,-20952.730,-19975.300,-21191.420,-21326.940,-20385.510,-0.120,0.935,-0.327,-3.876,4.822,-2.258,66.667,638.000,1.000,0.006,0.000
-20267.200,-19719.290,-22524.750,-21016.850,-20038.930,-21260.530,-21397.860,-20450.110,-0.125,0.931,-0.329,-3.876,4.547,-2.441,66.667,639.000,1.000,2.628,0.000
-20330.010,-19780.880,-22592.550,-21079.390,-20101.120,-21327.640,-21466.920,-20514.480,-0.127,0.928,-0.331,-3.784,4.181,-2.747,66.667,640.000,1.000,2.435,0.000
-20390.200,-19839.420,-22657.350,-21139.000,-20159.110,-21391.100,-21530.350,-20574.890,-0.133,0.927,-0.329,-3.754,3.754,-2.838,66.667,641.000,1.000,2.570,0.000
-20446.680,-19893.250,-22719.000,-21196.610,-20213.290,-21450.410,-21589.860,-20631.410,-0.138,0.922,-0.329,-3.693,3.296,-3.052,66.667,642.000,1.000,8.763,0.000
-20499.400,-19942.320,-22777.940,-21252.850,-20264.350,-21504.450,-21646.970,-20685.230,-0.144,0.918,-0.326,-3.571,2.625,-3.052,66.667,643.000,1.000,3.058,0.000
-20553.720,-19992.390,-22837.960,-21310.700,-20316.330,-21557.790,-21703.870,-20739.030,-0.148,0.919,-0.325,-3.510,1.892,-3.235,66.667,644.000,1.000,0.007,0.000
-20614.370,-20047.890,-22902.200,-21372.820,-20373.400,-21616.820,-21764.170,-20796.120,-0.155,0.919,-0.325,-3.387,1.160,-3.357,66.667,645.000,1.000,1.943,0.000
-20676.300,-20104.310,-22966.710,-21434.600,-20431.920,-21678.680,-21826.260,-20855.510,-0.159,0.924,-0.329,-2.991,0.183,-3.540,66.667,646.000,1.000,14.300,0.000
-20732.810,-20156.270,-23026.900,-21491.390,-20486.100,-21734.640,-21883.880,-20913.070,-0.161,0.928,-0.331,-2.869,-0.641,-3.632,66.667,647.000,1.000,0.009,0.000
-20785.100,-20205.930,-23085.500,-21547.190,-20538.550,-21787.210,-21940.350,-20969.550,-0.159,0.929,-0.330,-2.686,-1.404,-3.479,66.667,648.000,1.000,1.925,0.000
-20838.950,-20260.180,-23148.870,-21607.770,-20596.770,-21849.450,-22006.070,-21029.830,-0.157,0.927,-0.335,-2.350,-2.258,-3.326,66.667,649.000,1.000,2.412,0.000
-20896.020,-20320.120,-23216.420,-21670.500,-20659.340,-21920.090,-22076.530,-21090.930,-0.152,0.925,-0.333,-2.045,-2.930,-3.204,66.667,650.000,1.000,3.832,0.000
-20953.320,-20380.690,-23283.000,-21730.590,-20719.480,-21987.010,-22140.100,-21148.530,-0.148,0.920,-0.329,-1.495,-3.387,-3.082,66.667,651.000,1.000,14.242,0.000
-21011.090,-20441.260,-23349.210,-21790.030,-20777.900,-22050.330,-22199.390,-21207.350,-0.148,0.922,-0.329,-0.946,-3.876,-2.686,66.667,652.000,1.000,0.009,0.000
-21069.990,-20501.560,-23415.250,-21849.040,-20835.780,-22112.380,-22258.860,-21266.820,-0.148,0.923,-0.326,-0.793,-4.272,-2.014,66.667,653.000,1.000,10.149,0.000
-21125.380,-20555.140,-23475.270,-21902.760,-20887.990,-22166.160,-22312.920,-21319.570,-0.149,0.928,-0.324,-0.671,-4.608,-1.465,66.667,654.000,1.000,0.014,0.000
-21175.670,-20600.960,-23528.900,-21952.640,-20934.500,-22212.370,-22361.190,-21367.730,-0.148,0.931,-0.323,-0.549,-4.883,-0.793,66.667,655.000,1.000,1.792,0.000
-21226.340,-20647.470,-23583.700,-22005.710,-20983.190,-22263.320,-22412.900,-21419.770,-0.142,0.929,-0.324,-0.458,-5.005,-0.061,66.667,656.000,1.000,6.215,0.000
-21281.350,-20700.480,-23643.660,-22063.970,-21037.820,-22323.760,-22472.280,-21477.150,-0.139,0.930,-0.325,-0.397,-5.219,0.488,66.667,657.000,1.000,5.058,0.000
-21341.000,-20759.180,-23707.970,-22125.360,-21096.020,-22388.050,-22535.040,-21536.600,-0.136,0.928,-0.329,-0.092,-5.249,1.129,66.667,658.000,1.000,2.479,0.000
-21398.630,-20814.840,-23769.680,-22183.240,-21149.970,-22446.380,-22592.050,-21591.490,-0.134,0.930,-0.332,0.153,-5.157,1.740,66.667,659.000,1.000,2.468,0.000
-21449.830,-20862.670,-23824.420,-22234.890,-21197.060,-22496.790,-22642.260,-21640.200,-0.127,0.931,-0.332,0.488,-5.035,2.136,66.667,660.000,1.000,2.540,0.000
-21502.320,-20910.980,-23878.910,-22288.030,-21245.760,-22548.550,-22695.910,-21691.140,-0.120,0.935,-0.328,0.885,-4.700,2.625,66.667,661.000,1.000,2.490,0.000
-21558.550,-20963.250,-23937.020,-22344.870,-21299.080,-22604.990,-22755.100,-21746.200,-0.116,0.940,-0.325,0.916,-4.395,3.082,66.667,662.000,1.000,4.343,0.000
-21611.620,-21015.460,-23996.870,-22401.310,-21353.830,-22662.550,-22813.480,-21801.500,-0.111,0.942,-0.323,0.916,-4.028,3.540,66.667,663.000,1.000,0.007,0.000
-21658.890,-21065.670,-24055.670,-22455.270,-21406.990,-22717.470,-22868.010,-21854.620,-0.105,0.943,-0.327,0.793,-3.632,3.876,66.667,664.000,1.000,11.929,0.000
-21702.630,-21112.170,-24110.090,-22505.470,-21455.700,-22767.220,-22919.090,-21904.460,-0.099,0.941,-0.329,0.824,-3.113,4.089,66.667,665.000,1.000,3.089,0.000
-21744.830,-21154.210,-24160.440,-22552.440,-21500.520,-22812.510,-22968.130,-21952.300,-0.095,0.938,-0.332,0.946,-2.472,4.242,66.667,666.000,1.000,0.012,0.000
-21787.140,-21196.030,-24210.300,-22598.730,-21544.990,-22856.980,-23016.710,-21999.830,-0.087,0.936,-0.331,0.977,-1.740,4.211,66.667,667.000,1.000,1.865,0.000
-21831.290,-21241.270,-24261.810,-22646.120,-21591.380,-22904.070,-23065.840,-22048.260,-0.084,0.938,-0.332,0.916,-0.946,4.120,66.667,668.000,1.000,3.710,0.000
-21880.120,-21290.780,-24317.340,-22697.170,-21641.750,-22956.330,-23117.540,-22099.010,-0.080,0.938,-0.327,0.916,-0.092,3.845,66.667,669.000,1.000,6.879,0.000
-21933.560,-21344.260,-24377.770,-22752.420,-21696.420,-23014.000,-23173.120,-22150.960,-0.079,0.941,-0.331,0.916,0.824,3.723,66.667,670.000,1.000,0.011,0.000
-21987.240,-21398.480,-24438.860,-22808.280,-21751.410,-23073.230,-23230.320,-22202.570,-0.077,0.946,-0.331,0.610,1.587,3.387,66.667,671.000,1.000,28.241,0.000
-22037.810,-21449.170,-24495.490,-22861.480,-21802.160,-23129.910,-23284.920,-22252.740,-0.079,0.945,-0.329,0.244,2.350,3.143,66.667,672.000,1.000,2.944,0.000
-22085.730,-21496.290,-24547.910,-22911.340,-21848.650,-23183.880,-23335.610,-22300.030,-0.086,0.943,-0.333,-0.153,3.235,2.686,66.667,673.000,1.000,0.011,0.000
-22133.650,-21543.420,-24600.920,-22960.670,-21895.440,-23237.060,-23385.540,-22347.710,-0.093,0.943,-0.333,-0.427,3.906,2.136,66.667,674.000,1.000,1.918,0.000
-22179.600,-21588.900,-24653.770,-23009.610,-21941.910,-23286.570,-23433.370,-22396.080,-0.099,0.942,-0.337,-0.702,4.364,1.587,66.667,675.000,1.000,2.550,0.000
-22221.960,-21630.590,-24703.810,-23056.820,-21985.820,-23331.580,-23478.110,-22442.020,-0.102,0.943,-0.339,-0.977,4.639,0.763,66.667,676.000,1.000,2.487,0.000
-22265.940,-21672.880,-24754.460,-23105.500,-22031.480,-23379.420,-23526.750,-22488.710,-0.104,0.942,-0.337,-1.099,4.974,0.244,66.667,677.000,1.000,2.504,0.000
-22312.140,-21715.850,-24805.030,-23155.100,-22077.670,-23429.620,-23577.870,-22536.050,-0.105,0.940,-0.340,-1.373,5.219,-0.397,66.667,678.000,1.000,2.445,0.000
-22357.710,-21757.280,-24853.410,-23203.120,-22120.680,-23475.790,-23624.590,-22581.050,-0.104,0.938,-0.339,-1.648,5.310,-1.099,66.667,679.000,1.000,2.537,0.000
-22405.040,-21800.850,-24904.060,-23252.750,-22165.310,-23520.590,-23670.990,-22628.310,-0.106,0.936,-0.342,-1.801,5.310,-1.373,66.667,680.000,1.000,2.500,0.000
-22452.060,-21845.740,-24955.790,-23302.550,-22212.090,-23565.950,-23719.960,-22678.720,-0.110,0.933,-0.345,-2.014,5.280,-1.648,66.667,681.000,1.000,2.498,0.000
-22493.570,-21886.960,-25002.320,-23346.050,-22255.020,-23609.030,-23766.330,-22724.690,-0.115,0.931,-0.347,-2.258,5.249,-1.770,66.667,682.000,1.000,6.417,0.000
-22533.660,-21926.920,-25046.340,-23385.520,-22295.350,-23652.060,-23809.830,-22765.640,-0.119,0.929,-0.346,-2.319,4.974,-1.923,66.667,683.000,1.000,2.947,0.000
-22579.200,-21971.020,-25095.170,-23429.240,-22338.930,-23699.320,-23855.010,-22808.570,-0.124,0.927,-0.344,-2.441,4.608,-1.923,66.667,684.000,1.000,0.007,0.000
-22629.510,-22019.640,-25149.570,-23479.460,-22386.360,-23750.590,-23903.590,-22856.380,-0.126,0.926,-0.343,-2.594,4.272,-2.014,66.667,685.000,1.000,1.916,0.000
-22680.400,-22068.770,-25205.320,-23531.980,-22433.330,-23801.110,-23952.030,-22904.680,-0.129,0.926,-0.344,-2.686,3.784,-2.045,66.667,686.000,1.000,2.469,0.000
-22729.130,-22113.960,-25258.740,-23582.250,-22476.020,-23845.740,-23995.650,-22948.340,-0.133,0.928,-0.346,-2.625,3.174,-1.923,66.667,687.000,1.000,9.389,0.000
-22775.080,-22155.400,-25308.700,-23629.460,-22515.370,-23886.480,-24036.900,-22988.950,-0.138,0.930,-0.345,-2.655,2.625,-1.709,66.667,688.000,1.000,0.018,0.000
-22818.510,-22196.490,-25356.170,-23674.140,-22555.030,-23929.540,-24080.430,-23029.430,-0.144,0.932,-0.345,-2.716,2.014,-1.740,66.667,689.000,1.000,1.867,0.000
-22859.290,-22238.630,-25402.750,-23716.330,-22596.760,-23975.810,-24125.530,-23069.710,-0.150,0.936,-0.343,-2.869,1.221,-1.648,66.667,690.000,1.000,3.709,0.000
-22898.590,-22281.970,-25450.020,-23757.810,-22640.540,-24022.750,-24170.950,-23109.320,-0.154,0.937,-0.341,-3.021,0.488,-1.617,66.667,691.000,1.000,13.140,0.000
-22938.520,-22326.580,-25499.090,-23800.180,-22685.990,-24069.700,-24218.540,-23149.480,-0.159,0.940,-0.338,-3.143,-0.397,-1.526,66.667,692.000,1.000,0.009,0.000
-22981.090,-22372.250,-25550.530,-23844.170,-22732.550,-24117.300,-24268.980,-23193.230,-0.162,0.941,-0.337,-3.265,-1.373,-1.526,66.667,693.000,1.000,1.847,0.000
-23029.120,-22420.460,-25605.350,-23891.770,-22780.600,-24167.440,-24321.830,-23242.460,-0.164,0.948,-0.334,-3.448,-2.197,-1.465,66.667,694.000,1.000,2.490,0.000
-23081.990,-22470.600,-25661.850,-23942.120,-22828.900,-24218.890,-24374.330,-23292.950,-0.163,0.951,-0.334,-3.693,-2.991,-1.373,66.667,695.000,1.000,9.393,0.000
-23132.910,-22516.770,-25713.820,-23989.880,-22873.340,-24266.300,-24421.720,-23338.420,-0.159,0.955,-0.339,-4.059,-3.784,-1.160,66.667,696.000,1.000,0.017,0.000
-23177.150,-22555.960,-25758.180,-24032.600,-22913.510,-24308.850,-24465.220,-23379.500,-0.155,0.957,-0.335,-4.303,-4.456,-0.946,66.667,697.000,1.000,14.240,0.000
-23216.980,-22591.940,-25798.160,-24073.200,-22952.740,-24350.410,-24508.120,-23419.890,-0.148,0.959,-0.332,-4.547,-4.852,-0.671,66.667,698.000,1.000,0.011,0.000
-23257.690,-22630.370,-25839.170,-24115.550,-22994.290,-24394.920,-24551.390,-23461.640,-0.139,0.958,-0.332,-4.822,-5.219,-0.397,66.667,699.000,1.000,0.005,0.000
-23300.790,-22672.710,-25883.600,-24160.130,-23038.640,-24443.070,-24595.380,-23505.200,-0.132,0.955,-0.332,-5.188,-5.341,0.031,66.667,700.000,1.000,2.554,0.000
-23342.110,-22714.160,-25928.840,-24203.660,-23081.900,-24490.790,-24638.050,-23546.950,-0.126,0.951,-0.329,-5.432,-5.493,0.488,66.667,701.000,1.000,2.545,0.000
-23377.790,-22749.350,-25971.700,-24243.630,-23120.250,-24533.400,-24677.650,-23584.150,-0.123,0.949,-0.327,-5.554,-5.310,0.885,66.667,702.000,1.000,2.487,0.000
-23409.490,-22779.660,-26012.680,-24281.740,-23154.800,-24571.070,-24715.810,-23620.860,-0.116,0.943,-0.325,-5.646,-5.096,1.465,66.667,703.000,1.000,8.720,0.000
-23443.900,-22812.580,-26055.250,-24321.590,-23190.230,-24609.140,-24754.630,-23660.010,-0.112,0.937,-0.327,-5.615,-4.730,1.801,66.667,704.000,1.000,3.076,0.000
-23484.850,-22851.580,-26100.390,-24364.230,-23228.800,-24650.940,-24796.150,-23700.720,-0.107,0.930,-0.330,-5.524,-4.303,2.197,66.667,705.000,1.000,0.008,0.000
-23528.380,-22892.130,-26144.460,-24406.430,-23267.820,-24693.860,-24841.030,-23743.180,-0.102,0.927,-0.330,-5.310,-3.693,2.686,66.667,706.000,1.000,1.949,0.000
-23571.410,-22931.770,-26186.470,-24446.990,-23305.880,-24736.040,-24886.080,-23786.500,-0.098,0.922,-0.328,-5.005,-2.960,2.991,66.667,707.000,1.000,8.558,0.000
-23613.580,-22971.180,-26228.210,-24487.390,-23343.790,-24777.370,-24928.370,-23827.460,-0.097,0.916,-0.329,-4.608,-2.411,3.326,66.667,708.000,1.000,8.888,0.000
-23651.410,-23007.230,-26268.320,-24525.460,-23379.460,-24814.480,-24967.450,-23863.830,-0.100,0.914,-0.326,-4.333,-1.617,3.510,66.667,709.000,1.000,2.561,0.000
-23685.160,-23039.250,-26307.100,-24560.620,-23412.040,-24846.220,-25003.090,-23896.640,-0.100,0.913,-0.325,-3.937,-0.977,3.723,66.667,710.000,1.000,2.474,0.000
-23720.970,-23073.000,-26348.840,-24597.330,-23445.830,-24878.510,-25038.000,-23929.780,-0.099,0.914,-0.325,-3.479,-0.305,3.754,66.667,711.000,1.000,2.564,0.000
-23760.230,-23110.960,-26394.430,-24637.800,-23483.640,-24916.350,-25076.670,-23966.840,-0.098,0.916,-0.327,-2.930,0.427,3.754,66.667,712.000,1.000,2.392,0.000
-23797.920,-23148.530,-26439.530,-24678.460,-23522.520,-24956.500,-25117.730,-24006.130,-0.099,0.918,-0.329,-2.441,1.038,3.632,66.667,713.000,1.000,6.340,0.000
-23831.960,-23182.680,-26481.810,-24717.120,-23560.480,-24995.260,-25158.970,-24045.640,-0.098,0.919,-0.332,-2.075,1.587,3.510,66.667,714.000,1.000,4.308,0.000
-23864.600,-23214.950,-26521.260,-24754.150,-23598.130,-25033.970,-25200.590,-24085.610,-0.101,0.919,-0.328,-1.648,1.984,3.357,66.667,715.000,1.000,0.011,0.000
-23896.050,-23245.530,-26555.960,-24788.360,-23633.330,-25071.430,-25239.520,-24123.380,-0.102,0.919,-0.327,-1.190,2.563,3.082,66.667,716.000,1.000,8.155,0.000
-23926.810,-23276.200,-26587.430,-24820.460,-23665.570,-25106.180,-25274.760,-24158.640,-0.103,0.923,-0.329,-0.946,2.869,2.716,66.667,717.000,1.000,4.323,0.000
-23961.830,-23312.880,-26623.270,-24856.190,-23700.000,-25142.400,-25311.200,-24194.760,-0.105,0.927,-0.330,-0.671,3.113,2.411,66.667,718.000,1.000,0.007,0.000
-23999.920,-23353.000,-26663.990,-24896.490,-23736.590,-25180.930,-25349.670,-24230.620,-0.108,0.929,-0.331,-0.397,3.448,2.014,66.667,719.000,1.000,8.181,0.000
-24033.700,-23388.040,-26702.590,-24934.920,-23769.210,-25217.570,-25385.040,-24262.570,-0.109,0.929,-0.331,-0.214,3.448,1.587,66.667,720.000,1.000,4.295,0.000
-24063.810,-23419.600,-26739.200,-24970.550,-23799.010,-25252.800,-25417.010,-24292.840,-0.108,0.929,-0.332,-0.153,3.540,1.282,66.667,721.000,1.000,0.007,0.000
-24095.410,-23452.390,-26777.090,-25006.130,-23831.260,-25289.240,-25449.710,-24325.460,-0.108,0.927,-0.331,0.000,3.662,0.885,66.667,722.000,1.000,8.261,0.000
-24130.140,-23486.570,-26815.940,-25041.610,-23867.010,-25326.990,-25485.030,-24360.680,-0.110,0.930,-0.330,0.031,3.723,0.519,66.667,723.000,1.000,4.260,0.000
-24166.970,-23521.470,-26855.670,-25077.390,-23904.700,-25365.730,-25522.630,-24397.370,-0.109,0.929,-0.333,0.061,3.693,0.183,66.667,724.000,1.000,0.010,0.000
-24203.500,-23554.820,-26895.820,-25113.880,-23941.380,-25403.190,-25560.860,-24434.050,-0.109,0.933,-0.333,0.214,3.662,-0.214,66.667,725.000,1.000,8.681,0.000
-24238.660,-23586.720,-26934.990,-25149.580,-23975.660,-25438.110,-25598.510,-24469.920,-0.111,0.938,-0.336,0.183,3.601,-0.488,66.667,726.000,1.000,0.007,0.000
-24274.180,-23622.000,-26973.970,-25185.360,-24010.020,-25474.330,-25635.700,-24506.350,-0.111,0.938,-0.337,0.092,3.540,-0.793,66.667,727.000,1.000,1.849,0.000
-24309.130,-23659.420,-27011.620,-25221.510,-24044.130,-25511.750,-25670.900,-24542.250,-0.111,0.940,-0.339,0.031,3.448,-0.916,66.667,728.000,1.000,2.516,0.000
-24338.500,-23691.200,-27042.870,-25252.790,-24072.740,-25544.030,-25701.410,-24572.560,-0.113,0.940,-0.338,-0.183,3.265,-1.129,66.667,729.000,1.000,8.813,0.000
-24364.510,-23718.740,-27070.390,-25280.190,-24098.350,-25573.520,-25731.080,-24599.090,-0.115,0.941,-0.343,-0.214,3.082,-1.282,66.667,730.000,1.000,3.041,0.000
-24394.120,-23749.510,-27102.580,-25311.230,-24129.030,-25607.610,-25766.290,-24629.700,-0.118,0.944,-0.338,-0.549,2.838,-1.465,66.667,731.000,1.000,0.008,0.000
-24425.940,-23781.470,-27138.640,-25345.260,-24162.770,-25642.390,-25802.370,-24663.320,-0.119,0.944,-0.343,-0.763,2.686,-1.556,66.667,732.000,1.000,10.726,0.000
-24458.310,-23810.660,-27175.190,-25379.040,-24194.540,-25673.370,-25834.090,-24694.780,-0.124,0.939,-0.341,-0.824,2.502,-1.770,66.667,733.000,1.000,3.025,0.000
-24493.160,-23838.520,-27212.090,-25412.720,-24224.970,-25703.750,-25865.800,-24724.580,-0.127,0.941,-0.340,-0.977,2.258,-2.045,66.667,734.000,1.000,0.007,0.000
-24527.810,-23865.840,-27247.240,-25445.150,-24254.860,-25735.130,-25899.230,-24754.410,-0.129,0.944,-0.342,-1.160,1.831,-2.136,66.667,735.000,1.000,1.946,0.000
-24560.980,-23894.170,-27281.800,-25477.560,-24284.980,-25766.860,-25931.320,-24784.220,-0.132,0.944,-0.343,-1.587,1.434,-2.319,66.667,736.000,1.000,7.435,0.000
-24592.950,-23923.070,-27317.440,-25510.690,-24314.390,-25796.810,-25960.160,-24811.640,-0.129,0.942,-0.343,-1.709,1.129,-2.258,66.667,737.000,1.000,2.574,0.000
-24620.650,-23949.030,-27350.960,-25540.850,-24341.270,-25824.560,-25988.240,-24837.170,-0.128,0.940,-0.342,-1.892,0.793,-2.350,66.667,738.000,1.000,3.687,0.000
-24646.040,-23974.420,-27382.910,-25569.450,-24368.910,-25853.850,-26020.110,-24867.280,-0.127,0.938,-0.343,-1.984,0.519,-2.197,66.667,739.000,1.000,8.737,0.000
-24673.220,-24002.740,-27415.480,-25599.910,-24398.940,-25885.380,-26053.800,-24901.940,-0.127,0.940,-0.343,-2.167,0.366,-2.167,66.667,740.000,1.000,4.376,0.000
-24701.500,-24032.210,-27446.810,-25630.190,-24427.800,-25917.570,-26084.450,-24933.340,-0.123,0.943,-0.343,-2.472,0.153,-2.014,66.667,741.000,1.000,0.007,0.000
-24731.070,-24061.420,-27476.680,-25659.650,-24455.220,-25950.800,-26114.010,-24961.090,-0.122,0.945,-0.342,-2.594,0.061,-1.862,66.667,742.000,1.000,10.636,0.000
-24760.930,-24089.720,-27505.450,-25689.110,-24482.540,-25983.160,-26145.700,-24990.320,-0.121,0.944,-0.337,-2.747,0.000,-1.617,66.667,743.000,1.000,3.096,0.000
-24790.130,-24118.870,-27534.830,-25719.480,-24510.450,-26013.910,-26177.890,-25021.890,-0.119,0.942,-0.337,-3.143,0.183,-1.495,66.667,744.000,1.000,0.008,0.000
-24821.890,-24152.250,-27568.950,-25752.720,-24540.910,-26045.730,-26209.920,-25054.760,-0.117,0.941,-0.340,-3.418,0.336,-1.221,66.667,745.000,1.000,1.921,0.000
-24854.860,-24185.610,-27605.590,-25786.030,-24572.060,-26077.140,-26241.900,-25086.860,-0.117,0.940,-0.339,-3.632,0.549,-0.885,66.667,746.000,1.000,6.261,0.000
-24883.270,-24211.370,-27637.970,-25813.510,-24598.660,-26103.840,-26270.600,-25113.790,-0.116,0.937,-0.339,-3.632,0.824,-0.641,66.667,747.000,1.000,4.379,0.000
-24907.340,-24231.570,-27665.780,-25835.840,-24621.360,-26127.170,-26295.900,-25136.340,-0.117,0.935,-0.340,-3.693,1.038,-0.275,66.667,748.000,1.000,0.019,0.000
-24932.130,-24254.600,-27694.570,-25859.950,-24646.770,-26153.560,-26324.310,-25161.380,-0.118,0.932,-0.341,-3.876,1.190,-0.031,66.667,749.000,1.000,8.092,0.000
-24958.970,-24282.620,-27725.790,-25887.680,-24675.970,-26184.480,-26356.740,-25189.360,-0.120,0.928,-0.344,-3.906,1.404,0.153,66.667,750.000,1.000,3.065,0.000
-24987.120,-24312.290,-27757.660,-25916.220,-24705.420,-26216.230,-26388.090,-25216.880,-0.119,0.924,-0.336,-3.784,1.740,0.427,66.667,751.000,1.000,0.007,0.000
-25015.130,-24340.930,-27788.590,-25944.520,-24733.240,-26246.680,-26416.490,-25243.500,-0.119,0.923,-0.339,-3.662,2.014,0.519,66.667,752.000,1.000,8.173,0.000
-25040.220,-24367.180,-27816.070,-25971.520,-24757.840,-26275.250,-26441.420,-25267.320,-0.118,0.923,-0.341,-3.510,2.258,0.671,66.667,753.000,1.000,2.486,0.000
-25062.180,-24390.250,-27839.640,-25996.080,-24778.980,-26301.550,-26463.960,-25288.240,-0.117,0.927,-0.340,-3.479,2.350,0.763,66.667,754.000,1.000,3.789,0.000
-25081.720,-24408.730,-27860.140,-26017.040,-24797.040,-26324.080,-26485.100,-25308.090,-0.116,0.931,-0.340,-3.326,2.655,0.793,66.667,755.000,1.000,8.741,0.000
-25101.970,-24425.470,-27881.080,-26036.580,-24814.980,-26344.450,-26505.930,-25328.620,-0.115,0.936,-0.338,-3.235,2.899,0.793,66.667,756.000,1.000,9.940,0.000
-25129.140,-24448.740,-27909.520,-26062.470,-24840.180,-26369.780,-26533.560,-25355.960,-0.114,0.938,-0.338,-3.235,3.082,0.885,66.667,757.000,1.000,0.016,0.000
-25161.340,-24478.720,-27944.340,-26094.930,-24871.850,-26400.070,-26568.290,-25389.380,-0.112,0.937,-0.337,-3.326,3.418,0.885,66.667,758.000,1.000,0.010,0.000
-25188.420,-24505.340,-27974.770,-26124.130,-24898.980,-26425.930,-26597.790,-25417.350,-0.115,0.934,-0.334,-3.387,3.510,0.854,66.667,759.000,1.000,2.700,0.000
-25207.410,-24525.400,-27997.440,-26146.570,-24917.950,-26445.040,-26618.190,-25436.290,-0.113,0.933,-0.335,-3.540,3.540,0.793,66.667,760.000,1.000,2.270,0.000
-25226.470,-24547.140,-28021.310,-26169.750,-24938.000,-26466.430,-26640.120,-25456.570,-0.114,0.932,-0.335,-3.571,3.571,0.641,66.667,761.000,1.000,7.580,0.000
-25251.040,-24575.010,-28051.750,-26199.280,-24966.280,-26495.590,-26670.820,-25486.280,-0.115,0.932,-0.333,-3.601,3.662,0.519,66.667,762.000,1.000,2.463,0.000
-25273.600,-24599.860,-28079.480,-26226.870,-24993.840,-26523.310,-26700.160,-25515.880,-0.116,0.932,-0.331,-3.601,3.754,0.244,66.667,763.000,1.000,4.351,0.000
-25287.630,-24614.370,-28096.210,-26243.370,-25010.280,-26541.060,-26717.510,-25532.950,-0.119,0.932,-0.332,-3.571,3.662,0.000,66.667,764.000,1.000,0.009,0.000
-25301.140,-24626.840,-28109.970,-26256.160,-25023.040,-26556.600,-26732.060,-25545.900,-0.123,0.932,-0.333,-3.662,3.510,-0.214,66.667,765.000,1.000,3.083,0.000
-25322.710,-24645.980,-28130.990,-26276.370,-25043.250,-26579.100,-26755.130,-25568.170,-0.126,0.932,-0.336,-3.693,3.326,-0.458,66.667,766.000,1.000,13.845,0.000
-25350.700,-24670.160,-28158.950,-26303.650,-25069.800,-26607.150,-26783.300,-25596.240,-0.123,0.932,-0.337,-3.754,3.204,-0.763,66.667,767.000,1.000,7.386,0.000
-25379.940,-24695.190,-28188.640,-26331.450,-25095.990,-26635.030,-26808.650,-25621.190,-0.123,0.931,-0.335,-3.845,3.021,-0.977,66.667,768.000,1.000,0.012,0.000
-25407.710,-24720.270,-28217.530,-26356.910,-25119.590,-26659.870,-26830.070,-25642.560,-0.123,0.931,-0.336,-3.723,2.747,-1.160,66.667,769.000,1.000,0.004,0.000
-25432.320,-24744.660,-28245.160,-26380.570,-25141.890,-26682.220,-26850.640,-25663.030,-0.125,0.932,-0.337,-3.784,2.502,-1.251,66.667,770.000,1.000,3.161,0.000
-25451.950,-24765.220,-28269.520,-26400.960,-25162.020,-26702.090,-26870.970,-25681.490,-0.127,0.933,-0.337,-3.815,2.228,-1.312,66.667,771.000,1.000,0.009,0.000
-25470.210,-24783.420,-28292.170,-26420.810,-25181.130,-26721.000,-26892.380,-25699.610,-0.129,0.935,-0.333,-3.998,1.892,-1.465,66.667,772.000,1.000,8.146,0.000
-25491.420,-24802.890,-28316.150,-26444.700,-25201.800,-26741.230,-26915.290,-25720.550,-0.133,0.937,-0.333,-3.998,1.617,-1.526,66.667,773.000,1.000,6.788,0.000
