EEG 1, EEG 2, EEG 3, EEG 4, EEG 5, EEG 6, EEG 7, EEG 8, TRIG
750000.100,750000.100,155042.500,707575.300,-750000.100,87600.880,750000.100,-750000.100,0.000
750000.100,750000.100,236464.700,594974.300,-368957.500,750000.100,750000.100,-108818.300,0.000
587885.100,750000.100,419432.100,648855.100,-27344.140,750000.100,750000.100,269390.700,0.000
506453.200,750000.100,640856.400,730518.800,-5158.962,750000.100,750000.100,46484.210,0.000
520372.000,750000.100,573222.300,750000.100,-55761.880,750000.100,750000.100,5117.834,0.000
474252.000,480194.200,652454.100,750000.100,-241413.500,702632.800,750000.100,-198100.500,0.000
444889.500,179205.600,717184.300,750000.100,-229426.700,750000.100,750000.100,-750000.100,0.000
750000.100,544743.000,750000.100,750000.100,-364267.300,750000.100,750000.100,-524060.000,0.000
750000.100,750000.100,750000.100,750000.100,-750000.100,750000.100,750000.100,-180026.400,0.000
750000.100,750000.100,750000.100,750000.100,-750000.100,750000.100,750000.100,22052.230,0.000
750000.100,750000.100,750000.100,750000.100,-301497.500,750000.100,750000.100,124206.300,0.000
750000.100,750000.100,750000.100,750000.100,-608027.400,750000.100,750000.100,173292.900,0.000
750000.100,750000.100,750000.100,750000.100,-699382.000,750000.100,750000.100,196729.300,0.000
750000.100,750000.100,750000.100,750000.100,-573834.500,711155.600,683186.600,206637.600,0.000
746248.900,735660.700,750000.100,750000.100,-479487.500,616535.400,583390.200,207916.900,0.000
640539.600,631845.800,750000.100,750000.100,-405992.700,539240.400,503666.800,203481.800,0.000
554054.700,546785.500,750000.100,750000.100,-346233.100,474046.600,438086.300,195744.200,0.000
481722.200,475563.300,750000.100,750000.100,-296633.200,418117.500,383051.300,186208.800,0.000
420845.400,415551.000,750000.100,750000.100,-255919.200,370223.700,336639.700,175373.700,0.000
369642.700,365183.900,750000.100,750000.100,-221991.000,329185.900,297233.300,164065.500,0.000
333873.800,329979.100,750000.100,750000.100,-197925.300,300386.500,269614.200,156477.300,0.000
319767.500,316060.900,750000.100,750000.100,-187124.300,290382.500,259279.700,157202.100,0.000
311067.700,307556.100,750000.100,750000.100,-179727.400,284870.100,253267.400,159453.900,0.000
303110.300,299803.900,750000.100,750000.100,-172823.600,279752.100,247855.600,161290.500,0.000
295738.400,292611.500,750000.100,750000.100,-166441.400,274905.900,242854.500,162712.000,0.000
288883.600,285873.300,750000.100,750000.100,-160690.000,270226.100,238037.000,163716.800,0.000
282571.000,279672.800,750000.100,750000.100,-155259.700,265847.600,233644.000,164530.600,0.000
276696.900,273912.900,750000.100,750000.100,-150164.700,261713.700,229604.400,165133.400,0.000
271247.700,268596.500,750000.100,750000.100,-145311.700,257869.900,225961.100,165600.300,0.000
266153.100,263617.500,750000.100,750000.100,-140786.100,254223.400,222561.800,165888.700,0.000
261382.500,258905.600,750000.100,750000.100,-136674.300,250692.500,219252.400,165983.300,0.000
256941.000,254520.000,750000.100,750000.100,-132760.700,247368.300,216212.500,166020.200,0.000
252794.800,250444.000,750000.100,750000.100,-129028.300,244242.400,213416.800,165994.400,0.000
248903.000,246648.700,750000.100,750000.100,-125439.300,241329.700,210891.000,165922.000,0.000
245220.200,243048.700,750000.100,750000.100,-122070.600,238542.300,208508.900,165752.100,0.000
241756.900,239622.400,750000.100,750000.100,-118994.500,235830.700,206151.800,165484.800,0.000
238540.300,236447.000,750000.100,750000.100,-116005.000,233304.800,204013.400,165245.900,0.000
235508.300,233465.900,750000.100,750000.100,-113115.600,230921.300,202053.300,164996.600,0.000
232639.100,230666.700,750000.100,750000.100,-110315.200,228683.300,200284.000,164733.600,0.000
229913.100,227996.700,750000.100,750000.100,-107678.500,226534.300,198600.900,164408.800,0.000
227325.800,225427.500,750000.100,750000.100,-105299.900,224415.500,196869.300,164001.300,0.000
224915.300,223039.400,750000.100,750000.100,-102940.400,222449.700,195326.500,163657.200,0.000
222638.500,220793.500,750000.100,750000.100,-100630.100,220596.300,193926.300,163329.200,0.000
220476.400,218688.300,750000.100,750000.100,-98365.470,218873.100,192675.200,163013.200,0.000
218415.700,216679.000,750000.100,750000.100,-96209.960,217221.200,191490.700,162671.600,0.000
216449.800,214722.200,750000.100,750000.100,-94254.540,215572.200,190250.700,162271.900,0.000
214619.100,212901.800,750000.100,750000.100,-92317.450,214037.600,189139.000,161929.200,0.000
212871.800,211182.200,750000.100,750000.100,-90420.860,212587.500,188127.200,161601.800,0.000
211208.500,209571.000,750000.100,750000.100,-88538.840,211242.000,187244.500,161299.900,0.000
209614.500,208017.000,750000.100,750000.100,-86742.480,209942.900,186402.700,160977.100,0.000
208103.300,206502.300,750000.100,750000.100,-85119.910,208642.700,185492.400,160609.900,0.000
206694.000,205101.400,750000.100,750000.100,-83487.080,207439.000,184696.500,160301.400,0.000
205344.500,203770.200,750000.100,750000.100,-81868.990,206304.200,183986.000,160015.500,0.000
204056.500,202520.000,750000.100,750000.100,-80258.680,205256.800,183380.900,159754.500,0.000
202815.100,201312.400,750000.100,750000.100,-78720.970,204235.600,182794.300,159472.900,0.000
201622.000,200115.700,750000.100,750000.100,-77341.240,203190.600,182117.400,159142.800,0.000
200530.400,199024.200,750000.100,750000.100,-75918.770,202246.800,181565.100,158893.500,0.000
199476.600,197978.300,750000.100,750000.100,-74532.430,201336.100,181057.500,158643.700,0.000
198468.400,197001.000,750000.100,750000.100,-73138.660,200502.400,180644.000,158417.800,0.000
197496.700,196058.300,750000.100,750000.100,-71800.690,199695.300,180249.200,158182.000,0.000
196565.100,195123.900,750000.100,750000.100,-70588.600,198869.600,179780.200,157912.200,0.000
195707.500,194264.500,750000.100,750000.100,-69346.560,198116.800,179399.800,157704.200,0.000
194875.800,193437.000,750000.100,750000.100,-68125.440,197397.900,179055.300,157498.500,0.000
194085.400,192679.900,750000.100,750000.100,-66870.970,196760.900,178815.600,157331.700,0.000
193309.400,191926.700,750000.100,750000.100,-65681.680,196117.000,178569.900,157138.300,0.000
192572.200,191185.800,750000.100,750000.100,-64596.460,195459.000,178255.600,156923.800,0.000
191891.300,190502.700,750000.100,750000.100,-63486.110,194861.700,178009.500,156757.500,0.000
191226.300,189840.600,750000.100,750000.100,-62398.380,194284.200,177786.000,156591.300,0.000
190604.700,189246.800,750000.100,750000.100,-61263.270,193785.500,177667.600,156470.300,0.000
189997.500,188659.800,750000.100,750000.100,-60173.310,193294.200,177554.700,156336.100,0.000
189403.700,188055.300,750000.100,750000.100,-59213.350,192758.100,177333.300,156148.800,0.000
188866.300,187510.100,750000.100,750000.100,-58209.940,192276.200,177188.400,156019.300,0.000
188344.200,186989.100,750000.100,750000.100,-57209.290,191818.900,177078.000,155905.900,0.000
187847.600,186520.500,750000.100,750000.100,-56170.030,191427.700,177054.300,155826.000,0.000
187348.900,186040.600,750000.100,750000.100,-55184.310,191026.700,177012.700,155709.600,0.000
186883.700,185567.000,750000.100,750000.100,-54301.870,190600.700,176884.900,155568.200,0.000
186460.100,185139.600,750000.100,750000.100,-53376.500,190219.300,176829.000,155477.800,0.000
186037.800,184721.100,750000.100,750000.100,-52454.450,189850.200,176793.900,155385.000,0.000
185640.200,184348.300,750000.100,750000.100,-51493.680,189541.000,176840.100,155324.300,0.000
185244.900,183972.600,749528.900,749975.600,-50573.420,189228.500,176874.100,155240.600,0.000
184857.100,183574.800,748014.500,748460.600,-49769.290,188869.200,176804.600,155115.800,0.000
184518.200,183228.500,746571.100,747016.400,-48911.790,188565.700,176808.700,155051.200,0.000
184188.800,182902.000,745191.200,745635.400,-48042.390,188282.400,176843.600,154998.600,0.000
183873.000,182614.600,743869.100,744313.200,-47136.700,188045.100,176949.500,154968.100,0.000
183551.000,182312.700,742603.800,743047.200,-46272.410,187797.400,177041.300,154912.400,0.000
183244.200,181993.000,741389.800,741832.200,-45502.250,187510.500,177038.700,154822.500,0.000
182973.700,181709.400,740229.100,740670.300,-44692.670,187263.300,177091.400,154776.500,0.000
182704.200,181438.100,739119.300,739560.200,-43876.120,187035.000,177168.800,154739.900,0.000
182451.800,181206.700,738056.400,738496.900,-43016.830,186856.500,177316.000,154728.700,0.000
182189.300,180960.000,737033.300,737472.400,-42204.480,186656.600,177440.300,154687.500,0.000
181936.600,180695.200,736057.600,736496.200,-41485.200,186417.200,177474.700,154616.700,0.000
181727.200,180479.400,735123.500,735561.800,-40714.240,186225.500,177568.200,154597.700,0.000
181511.800,180266.900,734227.500,734664.800,-39935.420,186047.700,177681.800,154582.700,0.000
181316.500,180095.700,733371.500,733808.600,-39112.520,185924.000,177870.500,154598.300,0.000
181112.000,179908.100,732553.000,732989.800,-38323.590,185781.900,178042.700,154586.700,0.000
180920.800,179701.400,731766.400,732202.900,-37632.650,185594.000,178120.000,154539.700,0.000
180732.500,179504.500,731007.900,731443.500,-36916.320,185422.800,178225.900,154515.200,0.000
180552.400,179326.200,730282.300,730717.300,-36177.730,185273.700,178366.800,154511.000,0.000
180389.400,179187.500,729588.100,730022.900,-35395.240,185173.600,178578.900,154533.600,0.000
180215.300,179030.600,728923.400,729358.300,-34643.770,185061.300,178766.500,154528.200,0.000
180050.000,178848.000,728285.100,728718.900,-33987.260,184901.900,178860.500,154492.200,0.000
179917.200,178704.900,727671.400,728105.300,-33289.970,184775.500,179003.800,154498.400,0.000
179792.100,178580.100,727091.000,727524.600,-32558.360,184674.900,179187.500,154527.800,0.000
179659.000,178468.100,726526.300,726958.900,-31808.590,184597.600,179413.800,154554.400,0.000
179516.300,178341.600,725985.500,726417.400,-31089.310,184510.800,179617.700,154558.100,0.000
179387.000,178199.700,725472.700,725904.600,-30449.520,184388.600,179737.500,154534.300,0.000
179276.000,178082.500,724974.300,725406.500,-29778.610,184286.500,179893.300,154543.400,0.000
179157.900,177967.400,724495.400,724927.100,-29096.520,184191.800,180063.800,154557.800,0.000
179059.300,177897.000,724040.400,724472.000,-28353.100,184153.200,180316.100,154605.800,0.000
178938.200,177787.700,723601.200,724032.600,-27662.250,184079.200,180530.000,154610.300,0.000
178826.000,177653.600,723179.000,723609.900,-27059.650,183962.100,180650.700,154581.400,0.000
178740.700,177557.300,722777.900,723208.500,-26402.960,183882.100,180829.900,154602.400,0.000
178656.500,177470.900,722390.800,722821.300,-25736.960,183812.900,181026.400,154628.400,0.000
178580.300,177417.600,722022.600,722452.900,-25018.130,183792.900,181292.300,154680.600,0.000
178479.800,177335.700,721667.400,722097.400,-24342.930,183742.800,181521.300,154693.900,0.000
178381.600,177224.600,721324.100,721753.900,-23759.280,183642.500,181650.600,154669.300,0.000
178322.700,177154.900,720997.800,721427.700,-23114.480,183586.000,181845.500,154698.400,0.000
178249.400,177077.300,720677.800,721107.600,-22479.150,183519.900,182036.500,154715.300,0.000
178184.400,177039.700,720374.900,720804.600,-21782.760,183505.500,182307.100,154765.900,0.000
178095.800,176968.900,720083.000,720512.400,-21123.830,183465.300,182547.900,154782.900,0.000
178015.100,176872.300,719802.600,720232.000,-20552.070,183381.200,182691.900,154765.500,0.000
177960.400,176805.700,719535.300,719964.100,-19929.530,183329.500,182889.000,154793.400,0.000
177906.700,176757.000,719279.000,719707.900,-19286.960,183294.000,183113.500,154834.100,0.000
177847.800,176722.600,719030.000,719458.800,-18607.290,183286.100,183390.900,154880.200,0.000
177772.400,176657.800,718788.700,719217.300,-17971.960,183251.100,183629.300,154890.200,0.000
177703.700,176569.300,718557.500,718985.900,-17423.540,183173.200,183772.600,154867.100,0.000
177662.300,176513.700,718335.100,718763.300,-16826.040,183127.700,183968.200,154889.500,0.000
177625.700,176476.000,718123.400,718551.600,-16204.300,183100.100,184189.300,154927.400,0.000
177582.300,176457.700,717921.600,718349.600,-15528.740,183112.300,184478.900,154985.300,0.000
177513.500,176403.200,717722.000,718149.300,-14909.960,183085.000,184717.300,154998.800,0.000
177450.800,176329.200,717532.800,717960.300,-14364.130,183019.500,184875.100,154988.900,0.000
177416.900,176289.700,717352.400,717780.000,-13765.640,182988.000,185086.000,155021.600,0.000
177381.300,176255.800,717179.000,717606.600,-13155.700,182963.400,185307.700,155056.400,0.000
177349.200,176244.500,717011.400,717438.600,-12500.620,182978.900,185591.500,155112.300,0.000
177300.500,176205.000,716848.800,717275.800,-11887.110,182968.300,185838.800,155134.300,0.000
177250.900,176139.300,716692.600,717119.600,-11364.160,182905.900,185991.600,155119.200,0.000
177233.100,176109.700,716545.600,716972.400,-10775.960,182880.500,186208.500,155158.800,0.000
177208.600,176081.000,716401.900,716828.600,-10179.610,182859.100,186436.700,155199.000,0.000
177177.400,176071.700,716263.800,716690.400,-9539.993,182873.800,186721.000,155252.200,0.000
177129.800,176036.500,716129.300,716556.300,-8939.179,182865.300,186973.300,155274.400,0.000
177088.200,175975.300,715995.600,716423.000,-8434.118,182804.500,187122.000,155255.600,0.000
177066.800,175938.900,715867.100,716294.100,-7883.729,182769.600,187313.300,155277.100,0.000
177045.400,175916.400,715748.600,716175.500,-7295.610,182759.800,187540.900,155318.800,0.000
177021.300,175912.900,715634.900,716061.800,-6667.526,182780.900,187826.000,155373.100,0.000
176986.000,175892.300,715524.500,715951.100,-6079.764,182779.100,188078.000,155396.500,0.000
176955.500,175847.100,715419.000,715845.600,-5570.502,182735.700,188239.600,155392.000,0.000
176944.800,175821.100,715315.900,715742.900,-5011.172,182717.700,188450.800,155424.000,0.000
176934.300,175805.700,715216.100,715642.400,-4439.146,182710.000,188676.300,155462.200,0.000
176923.700,175817.000,715120.700,715546.900,-3817.321,182742.300,188966.000,155524.900,0.000
176889.800,175792.800,715025.800,715452.400,-3240.377,182742.200,189213.700,155546.300,0.000
176854.300,175740.500,714932.800,715358.900,-2749.354,182691.100,189358.700,155528.500,0.000
176840.000,175719.200,714846.400,715272.500,-2205.760,182671.500,189556.000,155557.100,0.000
176830.700,175709.800,714764.000,715189.700,-1639.188,182668.900,189782.100,155599.100,0.000
176822.500,175723.500,714683.100,715108.600,-1024.872,182702.500,190072.000,155660.800,0.000
176783.700,175697.100,714602.200,715027.900,-467.330,182698.100,190314.400,155675.900,0.000
176754.100,175651.900,714526.400,714952.600,13.143,182653.600,190468.900,155661.000,0.000
176751.700,175637.800,714457.100,714883.100,551.552,182640.000,190677.600,155694.100,0.000
176733.900,175620.200,714386.200,714811.900,1096.308,182627.200,190889.400,155721.800,0.000
176722.600,175629.900,714317.400,714743.000,1695.156,182657.500,191171.400,155773.400,0.000
176704.400,175616.900,714252.900,714678.600,2255.559,182668.000,191423.300,155799.100,0.000
176681.500,175576.900,714188.400,714614.600,2727.718,182625.500,191574.000,155782.900,0.000
176679.600,175561.900,714126.200,714552.100,3255.666,182614.000,191775.800,155809.800,0.000
176676.800,175555.900,714069.600,714495.200,3804.803,182613.300,191997.800,155849.400,0.000
176665.800,175561.600,714013.800,714439.800,4391.760,182640.100,192272.800,155900.400,0.000
176638.300,175542.800,713955.500,714381.600,4926.235,182635.200,192500.500,155910.800,0.000
176620.900,175510.200,713899.600,714325.500,5394.281,182598.500,192650.900,155902.000,0.000
176616.700,175496.200,713846.200,714271.700,5909.891,182587.500,192849.100,155930.600,0.000
176611.500,175491.600,713795.900,714221.800,6444.634,182589.100,193066.700,155967.800,0.000
176612.300,175515.100,713749.000,714174.800,7033.826,182630.500,193352.500,156027.700,0.000
176584.900,175501.000,713701.000,714126.600,7567.854,182632.900,193582.000,156041.100,0.000
176565.200,175468.600,713656.300,714081.900,8032.413,182600.500,193729.500,156027.200,0.000
176561.600,175452.500,713609.900,714035.400,8535.059,182585.200,193916.600,156046.600,0.000
176557.000,175442.300,713563.900,713989.300,9051.563,182578.300,194115.400,156073.700,0.000
176556.700,175464.600,713524.100,713949.700,9631.725,182624.600,194397.300,156137.000,0.000
176530.600,175450.900,713480.800,713906.400,10155.290,182631.000,194625.900,156152.100,0.000
176509.500,175415.400,713439.400,713864.500,10600.360,182591.800,194762.700,156135.100,0.000
176521.200,175411.200,713403.200,713828.600,11107.210,182591.100,194961.100,156170.000,0.000
176516.800,175404.300,713367.700,713793.200,11623.440,182591.500,195169.500,156202.200,0.000
176509.300,175420.600,713332.600,713757.900,12187.160,182628.500,195443.400,156256.100,0.000
176487.500,175410.400,713295.900,713720.800,12704.550,182638.900,195670.800,156272.300,0.000
176478.500,175386.600,713264.700,713689.600,13159.810,182614.300,195820.300,156265.000,0.000
176474.100,175372.300,713229.800,713654.800,13649.580,182596.200,196002.200,156283.900,0.000
176469.600,175367.200,713195.800,713620.900,14153.660,182593.900,196200.600,156312.700,0.000
176471.700,175392.900,713166.800,713591.800,14715.580,182638.200,196470.000,156365.600,0.000
176452.500,175383.800,713134.900,713560.100,15224.490,182646.400,196691.200,156377.100,0.000
176437.300,175352.100,713106.100,713531.300,15661.690,182610.800,196832.400,156364.000,0.000
176443.100,175345.500,713077.400,713502.400,16148.060,182604.700,197020.400,156391.000,0.000
176446.400,175349.800,713051.900,713476.900,16652.410,182611.200,197224.500,156426.700,0.000
176447.900,175375.000,713026.600,713451.600,17206.910,182650.200,197494.400,156479.100,0.000
176425.400,175360.700,712994.800,713419.500,17699.540,182650.600,197704.000,156482.200,0.000
176413.600,175333.000,712966.100,713391.100,18118.950,182615.500,197831.900,156462.400,0.000
176419.300,175329.000,712942.400,713367.300,18598.350,182614.700,198017.500,156491.800,0.000
176419.600,175328.800,712920.000,713344.300,19096.080,182619.000,198223.700,156526.500,0.000
176421.700,175351.800,712898.600,713322.600,19644.680,182659.800,198493.200,156577.500,0.000
176402.700,175339.400,712873.000,713297.500,20137.130,182660.900,198707.300,156582.700,0.000
176386.500,175306.300,712848.800,713273.500,20556.100,182621.100,198837.200,156561.800,0.000
176397.200,175307.300,712828.100,713252.700,21033.440,182620.500,199025.600,156590.200,0.000
176392.000,175301.300,712804.300,713228.900,21512.480,182617.500,199214.900,156615.400,0.000
176394.300,175328.800,712783.700,713208.100,22058.400,182665.300,199482.400,156668.800,0.000
176374.100,175317.100,712763.600,713188.100,22548.710,182670.400,199697.900,156677.200,0.000
176356.300,175279.900,712744.800,713169.200,22956.760,182628.400,199821.400,156653.800,0.000
176367.000,175275.500,712726.200,713150.300,23420.250,182621.500,199998.100,156676.200,0.000
176375.900,175281.900,712706.500,713130.900,23897.950,182623.400,200189.800,156703.200,0.000
176377.000,175303.500,712684.800,713109.300,24425.450,182662.800,200444.900,156748.000,0.000
176364.500,175300.100,712667.000,713091.800,24911.650,182675.700,200659.000,156758.300,0.000
176346.500,175263.500,712647.100,713071.400,25311.030,182635.300,200777.800,156732.500,0.000
176354.400,175262.500,712635.000,713059.400,25778.360,182635.400,200960.200,156763.900,0.000
176353.400,175262.400,712618.600,713042.900,26250.610,182637.700,201149.500,156788.500,0.000
176358.900,175291.500,712603.900,713028.200,26776.320,182681.900,201409.900,156836.700,0.000
176343.000,175282.200,712584.800,713009.100,27244.990,182682.600,201613.300,156841.300,0.000
176335.300,175255.900,712570.300,712994.700,27650.270,182649.800,201740.100,156826.300,0.000
176345.400,175250.200,712555.900,712980.400,28105.620,182644.900,201916.400,156849.300,0.000
176346.700,175254.400,712543.300,712967.800,28580.370,182652.100,202111.700,156878.500,0.000
176340.000,175268.400,712525.300,712949.900,29089.540,182685.900,202356.300,156917.200,0.000
176324.800,175255.500,712505.800,712930.300,29544.270,182686.300,202544.600,156915.700,0.000
176313.000,175231.300,712493.000,712917.100,29943.020,182653.400,202666.800,156896.600,0.000
176323.000,175234.400,712481.000,712905.400,30400.610,182655.900,202850.000,156923.900,0.000
176321.600,175233.700,712467.900,712892.500,30860.520,182658.800,203036.600,156944.800,0.000
176324.000,175257.800,712455.800,712880.300,31371.480,182697.600,203288.100,156990.500,0.000
176312.300,175249.000,712441.600,712866.100,31829.600,182701.600,203488.600,156997.700,0.000
176307.800,175223.400,712428.600,712853.300,32225.230,182673.800,203613.500,156982.700,0.000
176307.300,175214.600,712417.100,712841.700,32664.300,182662.100,203776.800,156997.400,0.000
176305.100,175214.700,712405.600,712830.000,33115.270,182661.100,203955.700,157017.800,0.000
176311.500,175244.100,712395.600,712820.100,33624.630,182707.000,204207.200,157063.600,0.000
176300.500,175238.400,712381.100,712805.800,34075.950,182712.600,204399.900,157065.800,0.000
176294.400,175216.500,712369.000,712792.900,34459.950,182683.600,204515.000,157048.800,0.000
176309.500,175220.300,712360.800,712784.800,34904.750,182688.100,204689.800,157077.000,0.000
176316.000,175223.200,712351.500,712776.300,35360.110,182693.200,204873.700,157100.700,0.000
176323.600,175250.800,712341.400,712766.500,35863.640,182735.200,205119.600,157147.000,0.000
176300.800,175234.000,712327.100,712751.800,36302.450,182727.900,205299.800,157142.300,0.000
176287.000,175198.300,712314.600,712738.900,36672.150,182686.200,205401.700,157114.700,0.000
176300.800,175200.100,712304.800,712729.100,37103.000,182684.300,205565.300,157137.200,0.000
176307.500,175208.300,712298.200,712722.600,37559.250,182694.500,205755.200,157170.000,0.000
176301.500,175223.700,712287.100,712711.300,38049.110,182727.800,205992.600,157206.200,0.000
176284.000,175215.800,712275.900,712700.400,38485.500,182730.400,206176.800,157205.500,0.000
176278.700,175188.500,712264.500,712689.200,38850.730,182696.300,206277.100,157180.600,0.000
176288.600,175186.600,712254.000,712678.200,39273.890,182693.700,206432.700,157198.500,0.000
176285.900,175193.800,712245.300,712669.600,39717.620,182701.500,206609.300,157224.100,0.000
176289.200,175224.800,712238.400,712662.900,40215.260,182751.500,206855.600,157278.300,0.000
176278.300,175219.200,712230.700,712655.100,40658.090,182759.700,207046.900,157289.000,0.000
176267.300,175187.000,712222.100,712646.400,41020.550,182719.000,207147.800,157262.800,0.000
176273.800,175185.700,712212.100,712636.900,41435.220,182714.500,207302.300,157279.800,0.000
176279.500,175195.400,712205.800,712630.300,41871.170,182720.900,207476.800,157305.700,0.000
176282.000,175221.600,712198.300,712622.300,42356.290,182759.500,207715.000,157350.900,0.000
176264.900,175212.300,712189.000,712613.200,42781.780,182762.200,207893.000,157349.100,0.000
176257.900,175187.100,712183.200,712607.400,43146.110,182734.700,207998.500,157328.200,0.000
176274.000,175191.800,712178.100,712602.400,43570.170,182738.100,208161.200,157354.800,0.000
176278.200,175195.800,712170.400,712594.500,43999.770,182741.100,208329.500,157376.200,0.000
176284.400,175225.000,712162.300,712586.300,44478.990,182788.000,208560.200,157415.400,0.000
176261.800,175208.000,712151.300,712575.400,44890.980,182783.500,208729.800,157407.000,0.000
176253.600,175183.700,712143.000,712566.900,45247.710,182753.100,208834.100,157391.000,0.000
176264.400,175187.000,712137.300,712561.300,45664.080,182755.000,208992.000,157416.800,0.000
176268.100,175190.800,712131.700,712555.900,46087.780,182759.700,209157.400,157438.200,0.000
176272.100,175219.700,712126.600,712550.400,46563.070,182803.200,209392.200,157478.900,0.000
176259.000,175211.200,712119.800,712543.600,46977.200,182805.000,209565.900,157476.700,0.000
176252.600,175185.500,712112.600,712536.400,47328.300,182775.400,209666.400,157454.500,0.000
176265.400,175187.000,712107.100,712531.100,47736.450,182774.500,209820.800,157477.100,0.000
176267.600,175189.600,712098.700,712522.900,48148.880,182773.500,209977.600,157496.100,0.000
176272.800,175219.700,712093.400,712517.600,48620.770,182818.800,210212.000,157542.700,0.000
176257.500,175213.800,712087.400,712511.600,49034.630,182825.300,210387.300,157543.900,0.000
176250.600,175191.000,712081.600,712505.700,49385.110,182797.500,210485.800,157522.500,0.000
176267.500,175193.800,712076.000,712500.100,49785.830,182798.000,210634.300,157539.700,0.000
176271.400,175198.000,712069.100,712492.800,50191.470,182800.600,210789.600,157555.900,0.000
176272.300,175222.800,712062.500,712486.000,50657.460,182842.500,211019.500,157598.800,0.000
176253.500,175211.500,712056.300,712479.900,51063.370,182840.300,211187.900,157595.300,0.000
176242.300,175183.400,712049.200,712473.000,51400.970,182806.100,211277.600,157568.800,0.000
176255.400,175182.200,712044.800,712468.100,51796.060,182805.000,211423.000,157586.300,0.000
176266.800,175191.300,712040.300,712463.900,52204.020,182813.500,211581.900,157607.600,0.000
176274.700,175224.500,712035.000,712459.000,52667.240,182858.200,211808.400,157651.700,0.000
176258.300,175214.500,712027.000,712450.600,53060.720,182856.000,211966.100,157645.300,0.000
176255.000,175195.800,712024.300,712448.400,53399.300,182830.400,212060.700,157627.900,0.000
176262.600,175194.600,712019.600,712443.400,53788.400,182825.800,212204.200,157644.500,0.000
176270.600,175201.600,712014.500,712438.400,54196.190,182834.200,212363.600,157666.400,0.000
176273.000,175231.600,712009.600,712433.400,54655.560,182882.500,212587.700,157709.000,0.000
176250.800,175217.700,712002.300,712426.300,55045.290,182881.500,212744.000,157702.500,0.000
176241.200,175187.500,711996.800,712420.700,55372.070,182843.800,212829.800,157676.100,0.000
176251.200,175185.900,711992.600,712416.600,55760.270,182838.300,212972.400,157692.400,0.000
176260.300,175190.600,711987.300,712411.400,56156.610,182839.600,213124.000,157708.900,0.000
176267.700,175221.000,711984.400,712408.500,56608.390,182885.100,213347.500,157751.100,0.000
176248.500,175211.100,711979.400,712403.500,57001.690,182885.700,213508.900,157748.500,0.000
176240.200,175179.800,711973.600,712397.800,57323.290,182850.300,213589.600,157721.100,0.000
176255.300,175181.600,711970.300,712394.500,57709.610,182848.500,213732.600,157741.300,0.000
176265.300,175187.300,711965.900,712389.900,58105.780,182850.800,213885.500,157759.800,0.000
176274.700,175216.900,711960.900,712384.900,58554.600,182896.600,214105.000,157800.300,0.000
176255.800,175201.100,711954.600,712378.600,58932.070,182892.400,214254.900,157788.400,0.000
176249.000,175175.600,711950.300,712374.300,59254.840,182855.700,214335.400,157758.400,0.000
176257.400,175176.100,711944.500,712368.300,59633.210,182849.000,214471.200,157772.800,0.000
176260.100,175179.700,711940.600,712364.700,60023.020,182851.900,214620.200,157788.000,0.000
176262.900,175205.900,711937.800,712361.100,60470.770,182897.300,214844.400,157830.400,0.000
176247.600,175196.500,711933.400,712357.100,60853.250,182900.100,215002.900,157830.100,0.000
176241.600,175176.000,711931.000,712354.500,61174.760,182872.900,215088.200,157807.400,0.000
176248.500,175174.700,711928.100,712351.300,61550.090,182866.900,215224.400,157820.000,0.000
176250.900,175177.700,711924.200,712347.400,61938.920,182870.600,215375.000,157841.400,0.000
176251.700,175203.400,711919.000,712342.900,62375.050,182912.200,215591.200,157879.600,0.000
176235.700,175195.500,711914.100,712338.300,62748.770,182911.000,215745.400,157872.300,0.000
176228.100,175170.900,711909.100,712333.300,63062.050,182877.600,215824.100,157846.800,0.000
176239.400,175173.800,711907.600,712331.600,63433.090,182875.000,215958.200,157863.500,0.000
176239.400,175176.300,711903.400,712327.300,63814.320,182879.700,216103.700,157880.400,0.000
176242.200,175201.200,711901.200,712325.300,64252.330,182923.500,216323.000,157920.000,0.000
176230.400,175193.500,711897.600,712321.200,64622.290,182925.300,216474.000,157913.400,0.000
176227.800,175175.600,711894.300,712318.100,64938.620,182896.300,216558.500,157894.300,0.000
176241.800,175180.300,711894.300,712318.700,65312.160,182899.100,216700.300,157921.600,0.000
176240.700,175181.700,711892.300,712316.300,65688.020,182901.600,216846.600,157939.100,0.000
176237.300,175200.800,711889.100,712313.200,66118.700,182944.500,217059.800,157974.700,0.000
176210.300,175179.700,711881.400,712305.300,66476.410,182935.900,217196.600,157953.300,0.000
176197.500,175150.800,711877.300,712301.100,66780.400,182900.300,217270.400,157923.500,0.000
176213.600,175156.100,711874.800,712298.600,67147.330,182901.700,217406.000,157946.500,0.000
176214.800,175157.900,711870.400,712294.200,67518.090,182899.200,217546.100,157960.700,0.000
176210.100,175177.400,711863.700,712287.400,67933.210,182930.000,217746.500,157986.500,0.000
176197.300,175171.800,711860.200,712283.700,68295.580,182933.200,217892.600,157981.200,0.000
176186.000,175141.400,711856.400,712280.100,68594.830,182893.800,217961.500,157950.900,0.000
176201.000,175145.800,711854.900,712278.400,68957.100,182891.200,218090.700,157968.100,0.000
176212.500,175154.200,711855.100,712278.700,69334.760,182900.000,218234.900,157987.700,0.000
176223.500,175185.700,711853.600,712277.600,69766.860,182948.400,218450.400,158029.800,0.000
176209.600,175176.700,711851.900,712276.200,70126.550,182947.100,218598.500,158024.300,0.000
176203.200,175150.400,711848.900,712273.000,70424.720,182910.100,218671.200,157996.500,0.000
176216.800,175148.400,711841.900,712265.800,70771.080,182900.900,218786.600,158004.300,0.000
176216.300,175147.900,711837.500,712261.100,71133.890,182902.700,218920.300,158019.300,0.000
176222.400,175176.100,711833.800,712257.500,71553.210,182946.200,219123.000,158054.600,0.000
176212.800,175169.100,711831.100,712255.300,71905.920,182947.600,219260.200,158048.100,0.000
176208.900,175150.100,711828.000,712252.100,72206.690,182920.400,219336.500,158031.000,0.000
176217.000,175152.500,711825.100,712249.400,72559.940,182921.000,219466.700,158051.400,0.000
176213.800,175152.300,711820.500,712244.900,72917.300,182920.900,219602.700,158065.400,0.000
176217.600,175177.000,711818.900,712242.700,73330.630,182963.300,219809.700,158104.500,0.000
176200.700,175163.400,711816.800,712240.000,73678.690,182963.200,219946.400,158095.100,0.000
176200.400,175147.600,711814.300,712238.200,73971.580,182934.200,220019.000,158073.800,0.000
176215.500,175154.900,711813.400,712237.500,74322.590,182933.600,220147.100,158090.600,0.000
176218.800,175160.300,711810.500,712234.300,74685.950,182935.500,220285.000,158106.500,0.000
176223.800,175186.500,711808.100,712231.900,75097.130,182977.000,220488.200,158143.100,0.000
176200.500,175165.400,711801.400,712225.300,75422.300,182964.100,220606.500,158119.200,0.000
176195.300,175145.500,711797.900,712221.400,75703.400,182933.900,220668.800,158089.400,0.000
176214.300,175158.900,711799.400,712223.000,76059.330,182942.600,220801.500,158114.100,0.000
176216.900,175160.600,711796.800,712220.800,76415.520,182948.200,220934.400,158128.700,0.000
176223.800,175193.100,711798.100,712221.800,76830.550,182997.800,221141.700,158172.200,0.000
176204.900,175179.900,711794.900,712218.500,77170.480,182994.500,221271.900,158160.800,0.000
176193.800,175150.400,711790.000,712213.900,77448.170,182956.200,221332.700,158130.100,0.000
176207.700,175154.300,711788.000,712211.900,77789.710,182956.000,221454.000,158149.900,0.000
176208.600,175156.700,711785.400,712208.800,78138.840,182955.500,221580.500,158163.700,0.000
176222.800,175193.300,711784.800,712208.700,78551.630,183006.000,221785.500,158208.000,0.000
176210.700,175187.700,711783.600,712207.400,78891.910,183006.600,221919.500,158205.300,0.000
176203.500,175159.800,711777.800,712201.600,79168.360,182971.900,221978.700,158176.900,0.000
176219.200,175167.900,711778.000,712201.600,79511.590,182975.600,222104.600,158199.800,0.000
176219.000,175171.300,711776.400,712200.300,79862.250,182983.900,222238.000,158219.300,0.000
176221.300,175197.800,711772.900,712197.000,80260.470,183027.000,222433.200,158252.400,0.000
176207.000,175185.700,711768.400,712192.300,80586.180,183021.600,222554.600,158238.700,0.000
176206.000,175163.100,711766.700,712190.600,80868.340,182992.500,222621.500,158219.300,0.000
176220.500,175162.200,711765.800,712189.200,81201.570,182991.500,222736.700,158239.500,0.000
176229.800,175170.500,711764.000,712187.400,81548.380,183001.000,222867.100,158260.900,0.000
176236.900,175202.700,711761.600,712185.400,81951.700,183050.000,223065.500,158302.300,0.000
176215.200,175185.500,711756.800,712180.400,82267.660,183043.100,223173.700,158286.000,0.000
176210.700,175161.200,711752.900,712176.800,82532.130,183008.800,223228.500,158260.500,0.000
176221.300,175165.100,711749.600,712173.300,82857.020,183008.800,223337.500,158277.400,0.000
176226.200,175178.000,711751.600,712175.300,83207.500,183026.200,223470.600,158305.900,0.000
176224.600,175207.200,711750.800,712174.400,83602.680,183075.000,223663.700,158344.900,0.000
176203.500,175194.200,711746.600,712169.800,83921.770,183069.600,223779.300,158329.800,0.000
176198.600,175171.100,711746.100,712169.800,84191.880,183042.300,223839.000,158304.500,0.000
176214.400,175177.000,711744.500,712168.600,84520.800,183046.800,223952.100,158323.100,0.000
176220.400,175183.400,711744.300,712168.100,84859.200,183054.900,224075.400,158343.900,0.000
176228.500,175214.900,711743.500,712167.400,85253.940,183105.600,224273.300,158387.700,0.000
176218.700,175211.700,711740.100,712163.700,85578.400,183108.000,224397.300,158381.100,0.000
176211.100,175192.000,711738.900,712162.600,85848.590,183076.800,224455.400,158356.000,0.000
176221.100,175190.400,711734.400,712158.300,86163.660,183068.200,224555.400,158365.600,0.000
176223.500,175193.600,711732.900,712156.500,86492.590,183070.500,224671.900,158380.600,0.000
176229.000,175222.100,711732.900,712156.400,86887.760,183121.600,224870.500,158423.600,0.000
176216.300,175213.600,711729.400,712152.600,87201.490,183119.500,224989.100,158411.200,0.000
176213.800,175196.000,711730.400,712153.800,87469.450,183090.800,225053.100,158389.700,0.000
176222.300,175194.600,711728.600,712152.100,87788.980,183085.900,225160.600,158399.500,0.000
176225.500,175199.300,711725.600,712149.100,88119.520,183088.600,225279.500,158411.100,0.000
176228.400,175228.400,711722.100,712145.800,88504.770,183133.000,225467.900,158444.700,0.000
176210.500,175212.700,711720.400,712143.900,88816.540,183124.600,225582.600,158431.300,0.000
176208.500,175192.500,711719.000,712142.600,89081.630,183095.600,225643.200,158408.900,0.000
176213.800,175193.700,711715.200,712139.200,89395.270,183084.400,225748.000,158416.900,0.000
176216.500,175199.700,711714.400,712138.600,89723.480,183085.100,225871.200,158428.500,0.000
176224.300,175231.200,711715.600,712139.100,90109.090,183135.200,226067.700,158468.500,0.000
176211.700,175225.200,711716.300,712139.600,90421.390,183136.500,226189.900,158464.600,0.000
176200.100,175199.400,711711.700,712135.000,90667.270,183096.200,226232.600,158430.900,0.000
176207.000,175196.600,711706.100,712129.600,90972.500,183089.700,226332.000,158439.800,0.000
176209.500,175196.800,711705.100,712128.700,91297.310,183093.700,226451.300,158454.700,0.000
176215.400,175226.300,711706.900,712130.400,91679.170,183138.800,226644.400,158494.800,0.000
176200.900,175214.500,711703.800,712127.300,91981.370,183131.200,226754.300,158480.800,0.000
176199.100,175196.400,711701.900,712125.200,92238.770,183101.800,226807.800,158457.400,0.000
176213.700,175198.200,711702.200,712125.400,92550.710,183099.700,226914.200,158469.900,0.000
176221.700,175201.100,711700.500,712123.800,92866.670,183102.000,227024.900,158478.000,0.000
176226.700,175229.900,711696.600,712119.900,93239.770,183144.600,227208.100,158513.000,0.000
176208.600,175215.000,711694.800,712117.600,93541.880,183138.500,227316.000,158496.900,0.000
176201.400,175186.400,711693.400,712116.800,93790.790,183100.500,227361.900,158466.600,0.000
176214.400,175189.300,711689.500,712113.100,94098.160,183096.000,227464.000,158477.500,0.000
176219.300,175196.900,711690.900,712114.600,94420.300,183101.800,227582.300,158492.500,0.000
176225.600,175225.400,711692.200,712115.500,94791.340,183142.100,227766.300,158527.000,0.000
176214.100,175217.800,711688.000,712111.500,95085.580,183137.300,227868.700,158511.300,0.000
176211.400,175198.200,711687.000,712110.500,95336.810,183109.600,227920.300,158487.900,0.000
176225.900,175203.900,711688.200,712111.300,95649.020,183109.300,228032.100,158506.000,0.000
176228.700,175211.200,711687.700,712110.900,95967.040,183110.500,228149.200,158522.400,0.000
176232.400,175240.700,711685.000,712108.400,96336.110,183155.800,228333.300,158558.700,0.000
176210.400,175216.600,711680.500,712103.400,96618.820,183143.700,228429.900,158536.700,0.000
176207.100,175192.600,711676.600,712099.700,96854.130,183107.200,228470.300,158507.000,0.000
176221.100,175198.400,711676.800,712100.300,97155.980,183103.700,228569.800,158518.300,0.000
176222.900,175205.900,711677.600,712100.800,97466.930,183106.000,228679.000,158529.100,0.000
176223.000,175232.900,711676.700,712100.100,97827.060,183150.900,228855.300,158563.600,0.000
176202.900,175214.700,711673.100,712096.700,98107.890,183143.000,228951.300,158545.500,0.000
176200.400,175197.100,711674.100,712097.400,98358.320,183118.100,229004.500,158527.400,0.000
176210.200,175202.400,711672.900,712096.200,98663.110,183117.600,229108.300,158545.200,0.000
176210.100,175201.800,711670.100,712094.100,98968.340,183117.000,229214.800,158556.000,0.000
176216.100,175225.500,711670.300,712094.000,99330.530,183160.700,229392.700,158592.600,0.000
176205.000,175211.000,711666.500,712090.300,99609.570,183148.700,229483.800,158571.800,0.000
176203.500,175188.600,711665.100,712088.600,99842.210,183112.500,229521.000,158540.100,0.000
176218.800,175190.800,711666.900,712090.300,100137.100,183110.300,229619.500,158554.300,0.000
176222.100,175194.600,711665.400,712088.500,100439.200,183111.100,229724.700,158567.500,0.000
176223.900,175219.100,711663.800,712086.900,100795.000,183151.800,229898.500,158601.200,0.000
176209.600,175209.300,711661.900,712085.100,101075.300,183144.800,229991.200,158582.600,0.000
176206.000,175188.000,711656.700,712079.900,101307.400,183109.800,230027.200,158551.800,0.000
176214.500,175185.700,711656.400,712079.700,101597.800,183105.800,230122.200,158563.200,0.000
176211.100,175185.400,711655.100,712078.100,101897.000,183107.600,230225.100,158573.500,0.000
176215.900,175215.400,711654.800,712078.000,102256.900,183150.600,230406.400,158613.900,0.000
176210.900,175210.400,711654.600,712078.000,102542.800,183151.000,230514.900,158611.700,0.000
176209.500,175189.900,711654.400,712077.800,102778.300,183121.700,230561.300,158589.900,0.000
176217.900,175188.500,711652.100,712075.300,103061.200,183113.500,230649.300,158599.500,0.000
176219.200,175193.800,711647.400,712070.800,103352.500,183114.700,230749.100,158612.000,0.000
176223.900,175225.400,711647.100,712070.300,103711.600,183165.800,230932.400,158655.000,0.000
176209.200,175214.300,711645.100,712068.500,103989.100,183161.800,231031.800,158641.200,0.000
176205.600,175194.000,711645.700,712068.800,104224.000,183133.700,231078.800,158619.400,0.000
176209.600,175190.200,711643.900,712067.000,104505.700,183129.300,231169.200,158627.000,0.000
176211.100,175197.300,711642.800,712065.400,104800.900,183134.600,231273.200,158636.900,0.000
176215.900,175224.900,711642.100,712065.000,105153.000,183174.900,231450.000,158671.300,0.000
176199.300,175208.400,711640.600,712063.400,105418.300,183159.800,231539.000,158653.400,0.000
176200.000,175187.200,711638.300,712061.200,105645.300,183127.900,231576.700,158628.000,0.000
176221.200,175193.300,711638.300,712061.200,105928.600,183127.300,231669.000,158640.000,0.000
176230.400,175206.800,711639.200,712061.900,106227.100,183136.000,231778.700,158655.000,0.000
176237.300,175238.800,711641.300,712064.400,106584.800,183186.600,231961.100,158698.800,0.000
176212.000,175210.800,711638.700,712061.800,106845.500,183168.400,232043.800,158672.900,0.000
176203.700,175178.900,711633.400,712056.200,107057.300,183126.400,232068.600,158637.700,0.000
176220.600,175188.300,711630.800,712053.400,107341.300,183126.700,232166.200,158657.200,0.000
176225.000,175196.600,711629.300,712052.100,107633.300,183132.600,232272.500,158670.000,0.000
176230.600,175224.600,711627.800,712050.700,107981.100,183179.500,232445.300,158704.000,0.000
176208.700,175203.600,711624.900,712047.600,108240.400,183166.700,232523.900,158679.000,0.000
176204.500,175183.100,711623.400,712046.100,108464.200,183135.300,232558.600,158653.400,0.000
176221.200,175195.000,711626.200,712049.000,108754.400,183138.000,232662.800,158673.800,0.000
176224.200,175203.700,711627.400,712049.800,109049.800,183148.100,232774.800,158692.800,0.000
176226.000,175228.900,711627.300,712049.600,109399.100,183193.900,232955.200,158732.800,0.000
176212.800,175216.800,711625.800,712048.400,109663.800,183188.200,233044.800,158717.200,0.000
176209.600,175193.500,711623.100,712045.300,109883.700,183157.300,233081.400,158691.100,0.000
176226.200,175197.100,711622.600,712044.700,110163.200,183156.000,233176.400,158704.900,0.000
176226.900,175201.300,711621.600,712044.300,110448.300,183158.500,233276.500,158715.400,0.000
176229.600,175227.700,711622.600,712045.100,110790.100,183205.700,233451.700,158751.100,0.000
176207.000,175203.700,711618.100,712040.700,111039.700,183182.900,233529.500,158723.700,0.000
176214.300,175191.800,711617.400,712039.900,111266.500,183160.000,233576.500,158706.700,0.000
176233.100,175198.300,711618.800,712041.800,111545.900,183165.400,233673.700,158725.600,0.000
176233.700,175200.000,711618.400,712041.300,111826.100,183164.400,233771.000,158733.300,0.000
176238.500,175232.000,711618.100,712041.100,112170.100,183208.900,233946.200,158771.500,0.000
176219.200,175216.600,711615.500,712038.400,112424.200,183193.500,234026.600,158748.800,0.000
176215.800,175199.200,711616.000,712038.800,112648.000,183168.500,234070.100,158726.000,0.000
176226.200,175197.600,711615.600,712038.800,112918.700,183166.100,234158.800,158737.100,0.000
176227.800,175199.900,711614.600,712037.500,113196.900,183167.500,234253.700,158745.600,0.000
176227.700,175225.100,711613.300,712035.900,113533.400,183209.700,234421.100,158778.900,0.000
176205.800,175203.800,711611.700,712034.400,113782.700,183195.900,234500.400,158755.500,0.000
176201.800,175179.400,711611.200,712033.600,113995.200,183162.800,234536.500,158731.900,0.000
176213.400,175184.000,711611.600,712033.700,114267.800,183162.000,234630.200,158747.200,0.000
176216.600,175191.900,711612.100,712034.200,114552.000,183170.600,234737.000,158762.500,0.000
176223.400,175221.900,711612.600,712034.900,114892.400,183219.000,234911.800,158800.000,0.000
176204.400,175202.200,711607.500,712029.900,115136.200,183205.000,234985.500,158772.800,0.000
176204.300,175183.400,711606.600,712029.300,115353.100,183171.800,235018.000,158747.700,0.000
176218.100,175187.400,711603.900,712026.200,115620.800,183164.900,235098.200,158753.700,0.000
176219.900,175192.600,711601.600,712023.600,115891.500,183166.200,235186.100,158758.400,0.000
176221.000,175221.400,711602.300,712024.500,116227.600,183212.700,235355.800,158794.000,0.000
176199.600,175203.300,711600.800,712022.800,116474.900,183198.700,235433.400,158771.100,0.000
176198.000,175185.000,711599.100,712021.200,116684.800,183167.500,235467.500,158747.800,0.000
176212.500,175192.400,711600.200,712022.300,116955.900,183171.800,235560.100,158767.200,0.000
176219.300,175200.800,711601.700,712023.900,117237.100,183181.000,235662.400,158785.300,0.000
176226.800,175227.000,711600.300,712022.800,117569.400,183225.100,235833.000,158822.900,0.000
176194.600,175192.600,711594.100,712016.400,117797.500,183193.800,235898.200,158787.100,0.000
176193.700,175172.600,711593.200,712015.300,118000.800,183161.300,235929.900,158760.200,0.000
176218.100,175186.600,711594.200,712016.600,118270.300,183168.400,236027.100,158785.500,0.000
176223.100,175194.500,711593.700,712016.200,118546.000,183177.300,236129.700,158804.600,0.000
176227.300,175224.900,711594.400,712016.900,118879.300,183223.800,236304.000,158843.100,0.000
176215.200,175213.600,711594.600,712017.200,119124.100,183212.400,236381.200,158822.900,0.000
176216.300,175195.800,711595.600,712018.000,119331.400,183183.200,236411.400,158798.400,0.000
176226.900,175199.100,711594.100,712016.600,119587.500,183181.000,236492.100,158810.000,0.000
176230.500,175204.600,711593.100,712015.600,119856.200,183188.500,236587.200,158823.400,0.000
176234.600,175232.000,711590.700,712013.100,120181.800,183230.800,236753.000,158857.100,0.000
176215.600,175213.800,711588.600,712010.800,120414.500,183213.800,236820.900,158831.300,0.000
176213.800,175195.400,711588.600,712010.900,120617.900,183186.500,236851.200,158808.200,0.000
176226.900,175200.000,711588.400,712011.100,120883.000,183189.800,236938.500,158823.400,0.000
176230.200,175209.100,711588.200,712010.500,121153.300,183197.500,237034.700,158839.200,0.000
176233.800,175239.900,711588.300,712010.800,121477.600,183245.800,237204.400,158878.300,0.000
176215.300,175218.900,711585.900,712008.700,121711.900,183233.600,237277.100,158854.700,0.000
176215.300,175196.800,711585.300,712008.300,121913.800,183207.300,237308.800,158832.100,0.000
176221.900,175194.400,711584.600,712007.300,122165.600,183202.200,237388.800,158841.700,0.000
176222.900,175199.900,711584.200,712006.700,122432.900,183206.800,237484.800,158853.400,0.000
176223.500,175222.900,711582.800,712005.300,122754.800,183246.300,237649.600,158888.500,0.000
176203.100,175199.000,711579.000,712001.400,122979.700,183228.300,237713.300,158860.900,0.000
176201.000,175181.300,711577.600,712000.000,123181.600,183202.100,237748.200,158841.200,0.000
176211.700,175182.200,711578.100,712000.800,123434.700,183196.300,237829.100,158853.500,0.000
176219.600,175194.000,711578.400,712001.300,123696.700,183204.400,237921.800,158868.700,0.000
176237.300,175237.300,711581.800,712004.700,124031.900,183263.800,238106.400,158919.400,0.000
176217.000,175219.300,711579.500,712002.200,124258.900,183249.500,238174.800,158894.100,0.000
176211.100,175197.600,711579.900,712002.300,124456.300,183219.800,238199.000,158868.400,0.000
176224.700,175199.000,711578.600,712001.400,124706.500,183214.800,238273.900,158878.100,0.000
176229.800,175204.200,711576.700,711998.800,124964.000,183217.600,238363.800,158888.800,0.000
176239.000,175236.300,711576.900,711999.300,125286.500,183266.100,238531.000,158924.600,0.000
176220.900,175214.400,711574.400,711997.000,125510.700,183247.000,238596.300,158897.800,0.000
176223.700,175199.500,711574.100,711996.700,125707.200,183220.500,238624.900,158875.400,0.000
176237.700,175203.100,711573.800,711996.400,125956.600,183220.500,238705.600,158889.000,0.000
176239.300,175206.400,711571.800,711994.200,126213.600,183222.300,238793.900,158900.300,0.000
176241.500,175231.800,711571.900,711994.400,126525.500,183262.900,238953.000,158934.200,0.000
176219.900,175210.700,711569.900,711992.100,126744.300,183247.200,239015.700,158909.800,0.000
176215.300,175192.100,711568.200,711990.100,126938.100,183221.200,239044.900,158886.800,0.000
176225.700,175195.600,711568.600,711990.700,127188.200,183222.700,239128.500,158902.200,0.000
176229.400,175200.800,711567.900,711990.100,127452.900,183223.800,239225.300,158918.700,0.000
176234.600,175230.900,711568.300,711990.900,127770.100,183268.800,239389.300,158955.100,0.000
176215.200,175210.100,711564.500,711986.700,127985.900,183248.500,239448.700,158923.600,0.000
176215.200,175189.900,711562.800,711984.600,128173.700,183218.900,239469.500,158895.200,0.000
176229.900,175195.800,711562.400,711984.400,128420.400,183219.200,239548.600,158910.100,0.000
176234.900,175205.900,711562.800,711984.900,128677.400,183226.900,239641.000,158925.500,0.000
176243.000,175234.100,711564.300,711986.300,128990.600,183274.400,239807.500,158965.500,0.000
176230.000,175220.800,711564.700,711986.900,129212.500,183266.700,239879.300,158947.500,0.000
176223.800,175201.600,711564.100,711986.400,129401.500,183236.000,239906.400,158923.100,0.000
176233.100,175202.500,711563.900,711985.800,129638.000,183228.300,239977.700,158932.400,0.000
176237.300,175210.200,711562.000,711984.100,129881.800,183229.600,240061.100,158941.300,0.000
176249.100,175245.400,711562.800,711985.200,130193.900,183279.800,240227.000,158981.200,0.000
176230.900,175224.900,711560.100,711982.500,130408.400,183262.500,240286.400,158953.500,0.000
176222.100,175197.500,711557.400,711979.700,130593.500,183223.800,240307.700,158925.100,0.000
176230.800,175198.600,711555.200,711977.700,130830.000,183216.600,240379.400,158934.200,0.000
176235.500,175208.000,711554.700,711977.300,131078.800,183223.000,240467.100,158945.900,0.000
176241.100,175240.000,711555.400,711977.800,131389.500,183271.900,240631.600,158983.200,0.000
176226.600,175227.200,711555.200,711977.900,131607.300,183262.700,240695.900,158963.800,0.000
176226.900,175209.300,711554.800,711977.200,131792.600,183236.300,240718.900,158940.400,0.000
176242.100,175211.100,711554.300,711976.300,132031.200,183234.400,240795.800,158952.700,0.000
176248.300,175218.900,711553.900,711976.300,132279.200,183241.500,240882.800,158963.200,0.000
176245.000,175242.900,711553.900,711976.400,132578.300,183282.600,241034.800,158994.300,0.000
176226.300,175223.900,711553.900,711976.300,132790.700,183267.800,241096.600,158971.100,0.000
176229.100,175209.700,711553.300,711975.500,132978.000,183240.900,241120.900,158950.700,0.000
176242.600,175214.900,711552.400,711974.700,133218.200,183241.400,241196.200,158966.600,0.000
176247.200,175220.700,711552.100,711975.000,133464.900,183244.800,241284.100,158979.800,0.000
176252.600,175252.900,711553.300,711975.800,133766.800,183291.400,241439.400,159014.700,0.000
176237.600,175237.800,711553.300,711975.800,133977.400,183276.600,241498.900,158991.000,0.000
176237.300,175217.900,711550.900,711973.600,134155.900,183244.200,241517.500,158965.600,0.000
176248.300,175216.200,711548.400,711971.100,134386.700,183236.000,241586.600,158974.000,0.000
176249.600,175220.800,711545.200,711968.000,134625.100,183239.600,241667.600,158983.600,0.000
176249.700,175247.300,711546.100,711968.400,134925.200,183285.100,241825.500,159018.000,0.000
176228.200,175226.900,711544.700,711967.000,135128.500,183269.000,241877.500,158988.300,0.000
176227.200,175210.800,711542.100,711964.900,135306.800,183241.900,241898.500,158964.000,0.000
176239.900,175215.800,711543.100,711965.700,135542.000,183241.000,241972.800,158978.000,0.000
176248.300,175227.700,711544.400,711966.800,135788.300,183249.400,242061.300,158991.300,0.000
176256.700,175258.500,711543.600,711965.800,136084.900,183297.500,242216.600,159026.800,0.000
176248.300,175242.500,711542.600,711964.900,136288.300,183285.800,242273.100,159006.500,0.000
176243.800,175215.900,711540.600,711962.800,136457.200,183252.000,242286.600,158975.500,0.000
176250.600,175214.500,711540.600,711962.400,136685.500,183250.600,242354.400,158983.500,0.000
176254.100,175222.000,711539.800,711962.000,136930.000,183257.700,242439.400,158994.800,0.000
176263.500,175257.600,711542.600,711965.100,137232.800,183308.300,242600.600,159033.900,0.000
176243.000,175240.300,711542.100,711964.200,137433.500,183289.000,242655.100,159007.300,0.000
176237.200,175217.200,711539.000,711960.800,137604.600,183253.000,242671.400,158982.200,0.000
176245.900,175215.500,711536.200,711958.400,137827.700,183245.500,242735.900,158988.800,0.000
176259.000,175231.800,711538.100,711959.800,138071.500,183260.800,242823.500,159005.000,0.000
176280.100,175277.200,711542.700,711964.800,138386.300,183326.700,242998.000,159057.800,0.000
176261.400,175256.100,711540.800,711962.800,138582.500,183307.200,243048.300,159031.200,0.000
176266.000,175241.000,711543.100,711964.900,138762.900,183285.500,243073.300,159014.400,0.000
176279.500,175246.100,711545.000,711966.900,138993.000,183287.700,243147.100,159031.200,0.000
176273.300,175246.900,711540.800,711963.100,139224.000,183286.600,243228.500,159039.100,0.000
176263.300,175264.500,711537.400,711959.400,139499.800,183320.800,243367.300,159061.800,0.000
176240.400,175243.900,711535.100,711957.400,139691.500,183302.100,243413.100,159034.800,0.000
176240.700,175229.000,711533.700,711956.200,139868.500,183277.900,243437.900,159017.400,0.000
176251.200,175232.900,711534.800,711957.600,140096.100,183278.000,243512.600,159031.100,0.000
176250.100,175234.900,711532.600,711955.600,140327.100,183280.500,243586.500,159037.500,0.000
176253.400,175263.100,711531.400,711954.300,140612.600,183327.900,243730.100,159067.400,0.000
176236.100,175245.100,711531.500,711953.900,140811.000,183317.000,243785.700,159044.600,0.000
176235.500,175228.700,711530.600,711952.600,140982.800,183288.300,243809.900,159024.000,0.000
176248.500,175234.400,711533.100,711955.300,141214.900,183288.400,243886.700,159038.600,0.000
176257.500,175242.400,711532.300,711954.700,141452.500,183297.200,243967.900,159051.400,0.000
176263.500,175274.200,711531.900,711954.300,141742.600,183344.200,244119.300,159087.100,0.000
176240.700,175248.200,711529.800,711951.800,141926.400,183317.700,244160.700,159053.700,0.000
176236.900,175226.800,711528.300,711950.300,142095.000,183289.000,244172.600,159028.200,0.000
176248.700,175230.900,711529.300,711951.800,142323.000,183288.600,244240.500,159039.500,0.000
176253.300,175238.100,711528.100,711950.600,142556.600,183295.000,244319.700,159049.800,0.000
176264.600,175273.700,711530.600,711953.300,142853.400,183348.700,244478.000,159090.200,0.000
176246.500,175254.700,711527.300,711949.900,143040.400,183327.100,244524.300,159063.900,0.000
176250.400,175243.700,711527.500,711949.900,143215.800,183301.100,244549.200,159050.900,0.000
176262.600,175241.100,711525.200,711947.200,143434.000,183295.500,244613.900,159061.800,0.000
176266.800,175246.600,711521.800,711943.900,143660.700,183300.300,244693.400,159071.100,0.000
176266.200,175271.500,711522.100,711944.800,143946.000,183345.100,244846.800,159105.000,0.000
176243.400,175247.600,711521.800,711944.500,144127.200,183319.000,244884.500,159071.200,0.000
176242.700,175231.700,711524.100,711946.600,144294.500,183292.100,244899.700,159051.800,0.000
176244.000,175224.600,711522.800,711945.300,144502.000,183281.500,244959.800,159058.400,0.000
176238.600,175226.200,711520.100,711942.700,144722.900,183286.600,245036.400,159066.000,0.000
176245.400,175255.800,711521.000,711943.600,145008.600,183335.500,245185.100,159100.500,0.000
176231.600,175236.900,711521.000,711943.300,145191.800,183316.100,245225.400,159070.800,0.000
176236.500,175222.800,711521.100,711943.100,145356.200,183291.800,245244.100,159051.800,0.000
176247.400,175227.800,711520.500,711943.100,145575.600,183291.600,245313.900,159067.400,0.000
176254.000,175239.700,711521.800,711944.500,145810.400,183302.900,245397.600,159085.200,0.000
176262.400,175273.100,711524.900,711947.600,146098.900,183354.000,245548.000,159122.400,0.000
176240.700,175243.700,711522.100,711944.900,146282.500,183330.000,245587.400,159091.600,0.000
176241.400,175225.300,711521.900,711944.500,146446.500,183299.400,245602.500,159072.500,0.000
176264.000,175244.000,711524.400,711947.600,146674.800,183307.500,245679.500,159099.600,0.000
176266.000,175254.700,711524.600,711948.100,146902.500,183316.600,245762.700,159114.800,0.000
176246.000,175262.500,711517.500,711940.600,147154.100,183339.600,245889.000,159125.000,0.000
176219.600,175235.100,711511.100,711933.800,147326.600,183313.500,245925.200,159095.600,0.000
176220.200,175221.000,711513.000,711935.400,147495.000,183292.200,245945.500,159084.800,0.000
176237.800,175230.900,711515.800,711938.400,147717.700,183298.300,246016.400,159106.000,0.000
176239.600,175237.800,711513.100,711935.800,147943.600,183307.900,246097.000,159121.900,0.000
176241.100,175264.800,711513.900,711936.400,148220.200,183353.900,246241.900,159155.900,0.000
176223.500,175242.300,711512.800,711935.400,148391.400,183332.700,246271.400,159126.800,0.000
176227.200,175230.300,711511.900,711934.500,148551.500,183312.600,246281.300,159114.800,0.000
176237.400,175233.600,711512.800,711935.300,148767.000,183315.000,246347.500,159136.300,0.000
176246.100,175247.900,711514.800,711937.200,148996.800,183330.700,246430.000,159158.400,0.000
176243.300,175271.600,711512.600,711935.200,149266.100,183372.900,246567.300,159188.800,0.000
176226.300,175253.700,711509.400,711931.800,149434.000,183357.700,246599.500,159159.700,0.000
176234.200,175244.900,711512.300,711934.800,149599.200,183341.800,246616.300,159150.800,0.000
176251.900,175256.800,711514.000,711936.200,149815.100,183350.100,246683.300,159174.900,0.000
176252.400,175266.400,711513.400,711935.400,150034.400,183361.300,246760.900,159190.100,0.000
176254.700,175292.800,711512.500,711934.900,150306.300,183406.200,246905.200,159222.900,0.000
176234.200,175266.800,711510.300,711932.900,150475.800,183385.400,246937.500,159189.000,0.000
176228.500,175242.400,711508.900,711931.200,150624.200,183350.300,246939.700,159162.900,0.000
176236.100,175243.000,711505.800,711928.200,150827.300,183346.000,246993.700,159173.800,0.000
176240.200,175253.200,711504.700,711926.600,151049.200,183354.600,247071.600,159188.600,0.000
176248.300,175284.500,711504.700,711926.900,151321.000,183401.300,247213.700,159222.100,0.000
176235.600,175273.600,711506.700,711928.500,151496.600,183390.500,247254.700,159200.800,0.000
176243.800,175266.800,711509.400,711931.400,151661.400,183379.900,247274.500,159189.800,0.000
176260.500,175274.200,711511.100,711933.300,151878.300,183385.900,247342.800,159208.000,0.000
176260.100,175281.200,711511.100,711933.700,152097.200,183389.600,247421.500,159220.300,0.000
176254.600,175302.300,711508.600,711930.800,152360.800,183428.200,247558.600,159245.300,0.000
176237.800,175277.800,711506.500,711929.100,152521.800,183404.900,247585.500,159209.900,0.000
176239.600,175262.600,711505.900,711928.100,152671.700,183377.600,247594.000,159184.000,0.000
176248.800,175265.000,711502.800,711924.800,152874.400,183377.200,247653.500,159192.700,0.000
176256.800,175277.500,711503.200,711925.800,153098.500,183393.800,247740.500,159211.000,0.000
176254.900,175298.400,711503.700,711926.000,153363.200,183434.300,247881.900,159237.400,0.000
176237.300,175274.700,711502.900,711924.900,153526.700,183410.000,247912.000,159204.200,0.000
176240.500,175260.800,711504.300,711926.300,153683.500,183385.900,247927.700,159185.400,0.000
176251.400,175264.000,711503.700,711925.600,153885.800,183384.500,247987.400,159197.600,0.000
176251.500,175271.300,711504.600,711926.700,154104.600,183395.000,248067.300,159215.200,0.000
176245.300,175291.400,711503.400,711925.600,154365.000,183431.800,248204.200,159246.000,0.000
176225.800,175269.300,711500.900,711923.300,154526.600,183407.300,248236.700,159216.900,0.000
176241.700,175263.800,711503.200,711925.600,154691.700,183390.900,248263.600,159211.200,0.000
176258.500,175270.100,711503.600,711925.800,154898.400,183392.300,248329.600,159224.500,0.000
176252.100,175271.000,711502.000,711924.100,155110.200,183394.900,248404.300,159230.300,0.000
176239.800,175279.600,711499.700,711921.700,155361.600,183424.100,248532.200,159246.900,0.000
176224.600,175255.000,711498.400,711920.600,155521.700,183398.300,248561.100,159214.100,0.000
176227.400,175239.500,711496.400,711918.800,155674.900,183370.900,248576.000,159199.300,0.000
176239.800,175246.600,711496.200,711918.400,155878.700,183370.000,248639.600,159216.000,0.000
176239.700,175255.200,711498.200,711919.900,156098.900,183380.700,248721.100,159231.400,0.000
176238.200,175276.500,711496.600,711918.800,156357.700,183420.600,248857.000,159257.300,0.000
176221.300,175253.000,711495.300,711917.100,156521.900,183401.700,248894.600,159233.100,0.000
176226.000,175240.900,711495.700,711917.400,156672.100,183376.000,248913.500,159217.100,0.000
176236.900,175244.800,711495.100,711917.300,156872.400,183373.600,248976.400,159229.900,0.000
176247.900,175260.900,711497.400,711919.800,157094.200,183392.600,249059.800,159247.600,0.000
176247.300,175279.800,711497.400,711919.600,157353.800,183431.200,249195.100,159271.800,0.000
176230.600,175255.400,711495.800,711917.500,157510.200,183408.000,249222.800,159236.600,0.000
176237.200,175245.800,711497.800,711919.200,157665.500,183387.700,249241.700,159222.500,0.000
176247.500,175251.100,711497.000,711918.600,157863.600,183385.000,249299.200,159230.200,0.000
176255.000,175266.300,711497.000,711918.900,158078.900,183396.400,249377.800,159248.000,0.000
176258.400,175295.700,711497.300,711919.600,158340.000,183439.700,249518.600,159279.900,0.000
176238.000,175270.400,711497.000,711919.100,158492.400,183417.200,249547.000,159247.300,0.000
176238.300,175250.900,711495.300,711917.300,158631.500,183389.300,249555.300,159224.600,0.000
176249.100,175254.100,711492.400,711914.600,158822.300,183385.700,249609.000,159233.300,0.000
176246.500,175263.100,711493.400,711915.500,159035.000,183395.600,249686.900,159249.300,0.000
176237.100,175277.200,711492.200,711913.900,159287.300,183429.200,249818.300,159275.600,0.000
176220.300,175258.100,711490.700,711912.700,159445.100,183410.600,249847.300,159249.300,0.000
176220.100,175240.900,711491.000,711912.800,159591.300,183382.600,249856.700,159230.800,0.000
176235.800,175247.500,711491.600,711913.300,159790.800,183383.600,249917.000,159244.800,0.000
176242.700,175260.000,711493.100,711914.600,159999.700,183396.700,249995.000,159257.800,0.000
176241.300,175285.200,711493.200,711914.600,160254.200,183434.400,250132.000,159284.400,0.000
176218.000,175259.400,711492.100,711913.600,160402.700,183407.200,250156.300,159248.400,0.000
176216.700,175241.000,711492.200,711914.200,160544.600,183381.500,250163.700,159229.700,0.000
176232.700,175251.200,711493.400,711915.400,160743.600,183387.700,250227.200,159247.800,0.000
176240.000,175268.200,711495.100,711916.800,160959.000,183402.700,250309.100,159265.400,0.000
176244.900,175291.000,711494.100,711915.900,161214.000,183443.500,250445.600,159294.500,0.000
176229.000,175264.200,711491.900,711913.800,161364.000,183417.900,250467.900,159260.100,0.000
176226.900,175244.300,711488.500,711910.100,161500.200,183388.900,250471.500,159236.500,0.000
176244.800,175252.300,711487.900,711909.700,161692.800,183387.500,250530.900,159253.800,0.000
176246.700,175262.400,711488.300,711910.100,161898.100,183395.600,250607.200,159268.200,0.000
176245.800,175285.600,711487.700,711909.200,162148.400,183437.000,250745.800,159298.800,0.000
176227.300,175259.200,711487.800,711909.400,162296.200,183413.200,250771.800,159270.800,0.000
176228.200,175244.600,711485.900,711907.800,162430.900,183386.100,250775.600,159247.600,0.000
176244.700,175256.100,711487.200,711908.600,162625.000,183390.500,250837.200,159265.000,0.000
176243.900,175258.300,711486.800,711908.800,162822.000,183394.100,250907.800,159270.600,0.000
176245.400,175277.400,711486.900,711908.900,163069.200,183431.800,251040.600,159296.000,0.000
176228.000,175251.800,711482.800,711905.100,163211.600,183403.000,251061.300,159265.400,0.000
176234.000,175242.900,711484.800,711906.600,163352.100,183382.300,251074.000,159252.000,0.000
176250.800,175251.000,711486.800,711908.100,163546.200,183386.100,251135.100,159272.200,0.000
176254.600,175261.500,711485.800,711907.000,163751.400,183399.200,251211.600,159291.600,0.000
176258.300,175291.200,711484.100,711905.600,164001.200,183447.400,251346.200,159323.800,0.000
176240.100,175267.500,711482.400,711904.300,164140.600,183424.600,251363.700,159289.700,0.000
176242.300,175253.700,711480.800,711903.100,164272.600,183393.200,251364.300,159266.200,0.000
176256.400,175260.300,711480.100,711902.500,164461.800,183393.500,251419.200,159278.500,0.000
176256.400,175266.000,711478.300,711900.500,164656.900,183401.400,251486.300,159286.200,0.000
176263.400,175296.600,711480.100,711902.300,164912.900,183452.000,251627.400,159320.400,0.000
176249.100,175275.300,711479.500,711901.700,165061.000,183429.500,251649.600,159289.400,0.000
176256.800,175268.000,711482.400,711904.400,165206.800,183409.300,251665.400,159278.600,0.000
176262.800,175265.700,711481.400,711903.200,165386.700,183402.600,251716.000,159285.200,0.000
176263.300,175272.000,711482.500,711904.300,165584.800,183411.800,251789.600,159297.100,0.000
176274.100,175306.800,711484.500,711906.100,165838.700,183461.900,251931.400,159336.800,0.000
176267.000,175297.000,711484.100,711905.400,165985.200,183443.700,251959.300,159313.700,0.000
176266.200,175280.300,711481.400,711902.800,166113.000,183414.600,251958.500,159287.800,0.000
176272.200,175277.400,711479.400,711901.300,166289.900,183407.800,252007.300,159296.100,0.000
176272.000,175282.100,711479.700,711901.100,166486.600,183413.400,252079.100,159305.200,0.000
176264.600,175292.000,711478.800,711899.900,166719.300,183442.700,252201.300,159322.500,0.000
176251.000,175266.900,711477.900,711899.200,166855.700,183417.300,252219.200,159290.100,0.000
176263.200,175262.100,711476.600,711897.800,166995.300,183401.800,252232.800,159280.400,0.000
176272.300,175262.200,711476.200,711897.800,167177.700,183398.500,252285.500,159292.000,0.000
176279.500,175274.300,711478.500,711900.400,167382.400,183413.600,252364.300,159308.000,0.000
176284.700,175299.800,711476.600,711898.200,167622.500,183453.900,252492.700,159336.900,0.000
176272.500,175280.000,711475.600,711896.900,167762.300,183431.900,252511.900,159309.000,0.000
176273.500,175262.500,711475.600,711897.100,167892.500,183405.500,252516.500,159290.400,0.000
176284.100,175263.200,711475.200,711896.500,168068.600,183402.200,252566.000,159303.300,0.000
176293.800,175279.500,711476.700,711898.000,168268.500,183417.200,252642.700,159324.300,0.000
176287.100,175297.900,711475.800,711897.400,168498.000,183448.000,252763.300,159345.300,0.000
176268.300,175271.300,711474.300,711895.400,168627.900,183422.900,252777.600,159312.600,0.000
176270.900,175256.800,711473.300,711894.600,168758.700,183399.900,252784.400,159296.300,0.000
176288.100,175264.200,711472.600,711893.500,168940.700,183399.500,252840.900,159311.000,0.000
176301.900,175283.600,711472.500,711893.800,169140.200,183417.500,252921.300,159332.200,0.000
176302.300,175306.000,711472.300,711893.600,169375.300,183459.200,253051.600,159360.500,0.000
176284.400,175279.700,711470.400,711891.500,169506.500,183433.000,253068.500,159327.400,0.000
176292.000,175267.700,711468.400,711889.500,169640.300,183408.300,253075.200,159311.300,0.000
176306.800,175274.400,711466.600,711888.300,169827.000,183404.800,253135.000,159328.800,0.000
176309.800,175282.100,711465.100,711886.600,170014.900,183412.000,253204.200,159339.300,0.000
176315.000,175310.000,711468.100,711889.800,170254.900,183459.500,253338.000,159372.500,0.000
176305.700,175294.800,711470.200,711892.000,170391.600,183442.800,253360.400,159344.200,0.000
176309.500,175280.900,711469.500,711891.200,170519.100,183418.300,253365.200,159323.700,0.000
176314.700,175280.000,711467.100,711888.900,170689.000,183411.700,253408.000,159329.500,0.000
176321.700,175296.200,711466.200,711888.200,170887.100,183428.800,253485.300,159348.500,0.000
176316.900,175316.000,711463.500,711885.500,171119.500,183464.700,253614.200,159371.400,0.000
176302.300,175294.700,711464.900,711886.400,171248.800,183445.200,253631.300,159340.000,0.000
176310.900,175288.700,711466.500,711888.000,171380.000,183429.000,253643.000,159328.100,0.000
176318.700,175288.100,711465.800,711887.600,171552.300,183422.800,253689.100,159337.500,0.000
176325.700,175301.100,711466.700,711888.200,171748.800,183439.600,253764.200,159356.700,0.000
176326.600,175323.700,711466.500,711888.200,171984.500,183478.100,253895.500,159384.400,0.000
176301.000,175290.500,711464.200,711886.000,172105.700,183442.700,253899.600,159342.200,0.000
176305.400,175276.700,711462.600,711884.100,172231.500,183412.700,253903.300,159324.800,0.000
176319.200,175278.900,711461.800,711883.100,172407.800,183413.000,253957.800,159338.400,0.000
176339.500,175304.400,711465.100,711886.400,172612.600,183442.900,254042.700,159366.300,0.000
176329.900,175320.700,711461.000,711882.400,172830.800,183470.700,254154.900,159380.300,0.000
176312.600,175298.300,711461.800,711883.800,172957.200,183445.000,254167.800,159350.400,0.000
176317.900,175285.200,711462.100,711883.900,173086.400,183420.800,254179.500,159341.000,0.000
176317.200,175275.700,711457.500,711878.900,173248.900,183403.400,254225.500,159344.400,0.000
176330.100,175294.300,711459.200,711880.800,173448.200,183426.700,254310.800,159369.600,0.000
176324.300,175309.600,711460.000,711881.400,173674.800,183464.300,254434.800,159394.000,0.000
176307.500,175284.600,711459.800,711881.400,173801.900,183440.900,254447.600,159361.800,0.000
176314.500,175274.000,711459.300,711880.800,173931.200,183420.700,254458.000,159352.600,0.000
176322.600,175274.300,711457.500,711879.300,174101.200,183409.800,254506.600,159366.300,0.000
176329.500,175290.800,711457.300,711878.600,174290.000,183424.800,254580.200,159386.600,0.000
176324.300,175306.400,711457.700,711879.100,174515.500,183461.100,254704.400,159409.600,0.000
176300.100,175276.300,711453.900,711875.600,174634.600,183428.600,254715.200,159370.500,0.000
176295.500,175256.300,711452.300,711873.900,174754.300,183402.700,254717.400,159349.300,0.000
176314.100,175268.000,711455.400,711876.900,174936.300,183408.600,254777.300,159368.600,0.000
176320.700,175282.200,711457.100,711878.600,175129.300,183417.200,254850.700,159382.000,0.000
176325.000,175306.800,711456.900,711878.300,175357.600,183457.600,254976.900,159409.300,0.000
176306.600,175276.700,711455.600,711877.100,175476.000,183431.600,254982.500,159373.000,0.000
176316.800,175273.700,711457.100,711878.800,175611.100,183421.800,254997.800,159365.200,0.000
176333.800,175288.800,711461.000,711882.300,175794.200,183431.700,255061.300,159387.600,0.000
176334.600,175299.600,711462.300,711883.200,175984.900,183442.900,255139.200,159403.100,0.000
176325.900,175312.200,711459.100,711880.100,176203.200,183472.300,255256.000,159422.800,0.000
176302.000,175278.000,711455.800,711877.100,176315.300,183438.900,255255.100,159382.700,0.000
176306.500,175265.800,711455.600,711877.000,176443.500,183420.300,255266.000,159372.600,0.000
176319.600,175273.500,711454.600,711876.100,176611.100,183420.500,255317.200,159388.400,0.000
176323.800,175287.400,711453.600,711875.000,176799.100,183436.800,255391.800,159406.200,0.000
176319.500,175306.700,711455.400,711876.300,177026.200,183478.100,255518.700,159437.500,0.000
176304.600,175285.200,711453.600,711874.600,177141.900,183452.800,255527.200,159406.900,0.000
176310.600,175278.000,711452.800,711873.700,177264.900,183437.200,255535.700,159397.700,0.000
176317.500,175278.300,711452.800,711873.700,177432.600,183429.900,255582.900,159411.200,0.000
176311.400,175282.500,711452.600,711873.500,177611.400,183435.800,255647.000,159418.400,0.000
176318.100,175311.500,711455.500,711877.000,177843.500,183482.700,255779.200,159450.700,0.000
176292.500,175277.600,711450.800,711872.300,177949.900,183447.700,255777.900,159407.500,0.000
176296.100,175265.600,711452.600,711873.900,178070.900,183429.800,255787.700,159393.100,0.000
176303.500,175269.400,711452.600,711873.800,178239.300,183427.000,255838.200,159401.400,0.000
176309.800,175286.700,711454.400,711875.600,178431.600,183448.600,255918.500,159422.900,0.000
176314.000,175313.400,711457.300,711878.300,178662.700,183497.200,256051.300,159459.000,0.000
176293.300,175285.600,711453.600,711874.700,178771.200,183465.500,256051.100,159419.600,0.000
176302.400,175281.300,711453.300,711874.800,178898.400,183449.900,256062.700,159412.600,0.000
176306.800,175277.700,711452.800,711874.100,179055.600,183445.500,256104.000,159419.600,0.000
176308.400,175285.800,711451.700,711872.800,179236.300,183459.400,256176.800,159432.400,0.000
176300.400,175300.200,711449.000,711870.000,179447.300,183490.000,256295.000,159450.800,0.000
176290.300,175287.300,711453.600,711874.600,179574.500,183474.900,256317.100,159427.900,0.000
176289.400,175273.500,711455.300,711876.600,179695.900,183454.100,256326.800,159415.900,0.000
176298.600,175276.900,711454.100,711875.400,179854.300,183450.900,256373.300,159428.100,0.000
176303.500,175291.000,711454.300,711875.300,180038.300,183469.200,256450.700,159448.300,0.000
176301.100,175311.100,711454.100,711875.000,180259.900,183507.700,256576.300,159473.200,0.000
176285.400,175283.000,711453.000,711873.900,180369.500,183477.800,256580.400,159433.800,0.000
176287.700,175266.100,711451.800,711872.800,180480.600,183450.400,256577.200,159412.300,0.000
176302.300,175276.000,711453.600,711874.400,180648.600,183452.200,256629.300,159428.700,0.000
176305.700,175291.600,711454.200,711875.600,180832.700,183466.100,256706.500,159445.500,0.000
176303.300,175310.300,711452.800,711874.100,181050.200,183502.100,256829.300,159469.600,0.000
176281.800,175277.300,711449.200,711870.300,181152.300,183470.400,256828.100,159431.700,0.000
176290.500,175271.400,711450.500,711871.300,181272.500,183454.900,256837.600,159422.800,0.000
176304.000,175281.000,711452.800,711873.500,181443.400,183460.500,256895.200,159444.300,0.000
176297.700,175287.800,711453.000,711873.700,181624.300,183471.100,256968.900,159456.500,0.000
176291.400,175303.700,711453.200,711874.100,181835.500,183506.500,257087.600,159477.000,0.000
176280.400,175282.900,711452.800,711874.100,181946.400,183482.000,257094.300,159443.700,0.000
176282.700,175267.000,711451.900,711872.800,182058.200,183457.300,257096.300,159424.300,0.000
176296.000,175272.500,711451.400,711872.100,182219.800,183456.800,257145.100,159439.100,0.000
176297.300,175283.900,711450.300,711871.400,182397.800,183466.900,257214.300,159454.900,0.000
176300.200,175313.100,711452.300,711873.300,182621.300,183509.200,257341.500,159488.200,0.000
176289.000,175294.700,711454.400,711875.600,182732.400,183486.600,257350.200,159458.800,0.000
176291.300,175276.800,711450.900,711872.000,182837.400,183459.400,257347.500,159438.900,0.000
176304.100,175282.700,711451.800,711872.300,183001.900,183457.200,257399.900,159456.600,0.000
176306.400,175291.400,711451.100,711871.700,183178.500,183471.500,257471.200,159470.400,0.000
176297.700,175302.100,711452.300,711873.300,183387.200,183502.900,257587.500,159490.100,0.000
176278.000,175274.700,711450.900,711872.100,183487.300,183469.400,257586.700,159452.200,0.000
176290.000,175275.800,711452.300,711873.600,183611.300,183458.800,257604.800,159447.700,0.000
176311.400,175288.600,711456.100,711877.500,183777.700,183469.200,257658.200,159467.500,0.000
176306.500,175290.600,711452.400,711873.900,183946.700,183476.200,257720.800,159475.800,0.000
176310.800,175317.400,711453.600,711875.000,184164.600,183520.000,257846.100,159508.200,0.000
176298.100,175296.800,711452.800,711874.100,184270.500,183497.000,257850.000,159476.700,0.000
176300.100,175282.900,711450.300,711871.400,184380.100,183472.900,257848.800,159455.800,0.000
176303.700,175276.400,711450.300,711871.300,184531.300,183463.400,257888.500,159463.100,0.000
176301.000,175282.800,711445.500,711866.400,184696.600,183471.000,257950.100,159470.700,0.000
176301.700,175308.300,711446.100,711867.000,184909.200,183507.700,258067.500,159495.600,0.000
176288.600,175283.000,711446.500,711867.100,185012.200,183477.100,258066.500,159458.800,0.000
176299.900,175278.200,711449.200,711869.600,185130.700,183463.700,258074.300,159450.700,0.000
176315.300,175288.500,711449.700,711870.600,185285.000,183465.200,258119.200,159466.300,0.000
176325.100,175308.000,711451.100,711872.100,185466.300,183484.400,258198.100,159489.500,0.000
176320.200,175319.900,711450.300,711871.100,185672.500,183516.000,258312.500,159509.200,0.000
176304.000,175290.800,711448.800,711869.700,185769.700,183486.900,258310.800,159469.500,0.000
176313.300,175282.800,711450.100,711870.800,185889.100,183468.200,258324.000,159462.400,0.000
176315.900,175281.400,711448.800,711869.500,186041.000,183460.300,258366.600,159471.300,0.000
176314.100,175293.200,711446.900,711867.700,186212.800,183475.700,258435.600,159485.600,0.000
176311.100,175315.100,711448.400,711869.100,186422.200,183516.900,258555.000,159513.500,0.000
176291.500,175281.900,711447.300,711868.300,186516.800,183481.500,258549.800,159471.900,0.000
176299.800,175275.600,711446.400,711867.100,186630.500,183464.700,258555.500,159458.200,0.000
176296.300,175267.600,711442.600,711863.100,186772.300,183452.100,258587.400,159457.600,0.000
176302.300,175279.100,711444.000,711864.600,186947.800,183472.500,258661.500,159476.000,0.000
176305.500,175302.600,711445.700,711866.500,187161.500,183516.900,258785.300,159505.400,0.000
176283.200,175270.900,711442.800,711863.300,187249.500,183474.900,258774.500,159460.600,0.000
176289.900,175260.800,711445.700,711866.000,187361.600,183449.500,258779.900,159448.300,0.000
176297.300,175264.200,711446.900,711867.400,187513.900,183448.500,258824.300,159460.900,0.000
176305.100,175285.200,711449.300,711869.800,187694.200,183476.600,258905.000,159487.200,0.000
176310.000,175312.500,711450.900,711871.600,187904.300,183521.300,259022.800,159516.200,0.000
176294.100,175284.700,711448.100,711868.700,187999.100,183489.100,259014.900,159478.600,0.000
176294.900,175269.000,711445.300,711865.800,188100.000,183459.900,259008.500,159458.900,0.000
176309.500,175279.000,711447.200,711868.100,188251.400,183466.000,259053.900,159474.000,0.000
176308.900,175287.900,711446.300,711866.800,188423.300,183479.700,259125.900,159490.300,0.000
176304.500,175300.400,711444.300,711864.900,188620.800,183505.700,259235.500,159507.200,0.000
176291.000,175275.500,711443.600,711864.100,188717.900,183476.600,259229.500,159471.900,0.000
176294.600,175266.700,711444.300,711864.800,188828.300,183457.700,259230.100,159459.600,0.000
176301.500,175270.900,711445.300,711865.300,188983.500,183453.600,259272.000,159467.700,0.000
176307.500,175286.000,711446.100,711866.500,189163.800,183473.500,259349.500,159489.100,0.000
176302.800,175303.600,711445.400,711866.100,189364.300,183506.100,259461.100,159509.300,0.000
176284.000,175277.100,711444.900,711865.400,189460.400,183476.500,259461.800,159473.500,0.000
176293.000,175272.800,711446.700,711867.100,189567.800,183461.800,259467.100,159460.100,0.000
176301.700,175278.700,711447.200,711867.500,189715.300,183467.100,259509.900,159471.500,0.000
176319.300,175305.600,711449.600,711870.300,189904.300,183501.800,259598.900,159508.500,0.000
176312.500,175321.900,711447.800,711868.700,190100.300,183533.100,259705.900,159531.200,0.000
176283.300,175285.000,711443.400,711864.100,190178.400,183496.900,259688.300,159487.000,0.000
176291.100,175278.600,711445.400,711866.500,190290.200,183484.000,259695.800,159485.000,0.000
176297.300,175278.200,711444.000,711865.400,190436.300,183478.100,259733.900,159498.300,0.000
176297.000,175289.300,711443.400,711864.500,190605.200,183495.700,259801.800,159517.400,0.000
176288.000,175304.200,711446.400,711866.900,190800.200,183530.600,259904.800,159541.100,0.000
176275.100,175283.600,711448.000,711868.800,190897.100,183506.200,259900.000,159511.500,0.000
176281.000,175276.200,711446.300,711867.100,191008.300,183489.900,259905.200,159506.500,0.000
176287.900,175279.300,711448.400,711869.000,191153.800,183488.900,259944.400,159522.700,0.000
176302.300,175307.800,711451.500,711872.100,191336.000,183522.000,260027.600,159557.700,0.000
176298.000,175322.600,711449.600,711870.400,191527.200,183554.700,260130.600,159580.800,0.000
176279.600,175289.800,711446.600,711867.700,191607.800,183521.700,260110.300,159541.900,0.000
176288.800,175285.000,711448.100,711868.800,191715.300,183509.900,260110.800,159533.900,0.000
176295.300,175285.700,711450.300,711870.900,191859.300,183508.900,260147.600,159545.200,0.000
176302.000,175302.800,711448.100,711868.600,192027.500,183533.200,260216.300,159565.600,0.000
176304.300,175328.800,711448.800,711869.800,192226.200,183576.600,260328.800,159592.700,0.000
176295.900,175308.400,711450.200,711871.400,192316.500,183553.100,260321.100,159561.800,0.000
176298.300,175293.900,711447.200,711867.900,192412.800,183528.800,260310.700,159544.000,0.000
176304.800,175297.500,711448.400,711869.400,192557.700,183531.900,260345.600,159556.000,0.000
176315.300,175323.100,711451.300,711872.300,192735.500,183563.400,260424.800,159585.400,0.000
176308.400,175337.900,711449.300,711870.400,192922.800,183593.600,260526.800,159602.700,0.000
176289.600,175308.600,711448.200,711869.300,193002.000,183561.600,260511.400,159562.800,0.000
176294.400,175298.900,711447.400,711868.300,193106.300,183546.500,260512.500,159556.200,0.000
176303.600,175300.300,711447.800,711868.600,193247.400,183545.600,260546.400,159566.300,0.000
176310.700,175319.000,711448.400,711869.200,193416.000,183567.500,260616.200,159585.100,0.000
176309.900,175335.700,711447.500,711867.900,193605.600,183600.000,260718.400,159605.000,0.000
176293.400,175308.500,711445.500,711865.600,193688.400,183568.400,260701.300,159569.000,0.000
176301.500,175302.300,711445.900,711866.100,193789.700,183547.600,260699.600,159562.300,0.000
176313.900,175308.400,711446.100,711866.400,193934.200,183545.700,260744.000,159579.900,0.000
176319.800,175326.700,711445.100,711865.400,194101.700,183569.600,260818.800,159600.300,0.000
176304.500,175330.700,711443.400,711863.900,194283.100,183590.400,260917.400,159610.600,0.000
176281.100,175292.600,711440.300,711861.000,194359.700,183545.700,260900.400,159566.500,0.000
176284.700,175282.700,711438.700,711859.400,194460.300,183521.800,260901.200,159554.200,0.000
176302.300,175295.200,711442.100,711862.300,194609.800,183525.000,260948.400,159573.800,0.000
176308.400,175311.300,711443.100,711863.600,194778.300,183547.500,261022.700,159593.400,0.000
176305.800,175326.300,711442.800,711863.600,194966.000,183581.200,261129.600,159613.300,0.000
176295.200,175302.700,711445.000,711865.600,195049.700,183554.100,261120.600,159579.800,0.000
176307.000,175297.900,711445.100,711865.800,195155.600,183540.300,261127.000,159572.600,0.000
176315.600,175299.400,711445.600,711866.100,195297.200,183536.500,261167.700,159583.800,0.000
176321.200,175317.900,711447.400,711867.600,195466.700,183556.800,261243.100,159606.700,0.000
176316.600,175332.800,711447.300,711867.500,195649.800,183587.200,261346.400,159626.200,0.000
176301.100,175303.000,711443.800,711863.900,195721.600,183549.000,261327.000,159584.800,0.000
176310.200,175296.100,711444.100,711864.100,195828.500,183532.000,261333.900,159579.800,0.000
176321.700,175303.300,711444.700,711865.000,195973.200,183534.600,261375.800,159594.900,0.000
176317.100,175309.900,711441.100,711861.200,196126.600,183548.200,261436.700,159600.500,0.000
176311.500,175325.400,711440.400,711860.700,196311.200,183581.800,261540.100,159620.300,0.000
176292.200,175297.000,711438.900,711858.900,196389.500,183545.700,261526.200,159580.000,0.000
176297.500,175281.000,711437.600,711857.700,196483.800,183522.700,261524.000,159566.100,0.000
176307.700,175282.500,711435.900,711856.000,196614.600,183519.900,261557.400,159573.000,0.000
176317.800,175306.800,711436.400,711856.800,196781.800,183548.600,261636.800,159598.700,0.000
176306.400,175317.600,711435.800,711856.400,196963.400,183574.800,261736.300,159614.600,0.000
176286.000,175288.100,711434.900,711855.500,197039.700,183541.900,261718.300,159575.900,0.000
176295.700,175284.100,711435.400,711855.800,197145.000,183526.400,261728.500,159574.200,0.000
176302.400,175288.800,711436.100,711856.500,197284.400,183526.400,261770.700,159587.300,0.000
176301.500,175300.500,711436.800,711857.900,197445.700,183549.700,261840.000,159603.200,0.000
176298.900,175314.900,711437.300,711857.900,197626.000,183581.700,261940.100,159621.400,0.000
176281.300,175283.700,711434.900,711855.600,197690.500,183541.900,261913.600,159577.900,0.000
176292.100,175277.800,711433.800,711854.400,197782.200,183526.300,261913.300,159569.100,0.000
176297.100,175276.800,711433.300,711853.600,197914.300,183523.300,261950.400,159579.000,0.000
176309.000,175300.500,711434.300,711855.200,198080.100,183547.100,262022.700,159601.400,0.000
176307.300,175320.300,711435.700,711856.400,198258.500,183574.600,262118.800,159620.200,0.000
176282.300,175284.700,711434.900,711855.100,198327.600,183532.200,262097.400,159576.200,0.000
176292.400,175277.100,711435.900,711855.600,198425.900,183517.000,262098.600,159566.800,0.000
176301.300,175278.400,711436.100,711856.100,198556.400,183512.800,262128.400,159573.100,0.000
176306.900,175296.300,711437.600,711858.100,198720.100,183538.500,262201.100,159596.700,0.000
176303.500,175312.600,711440.300,711861.100,198900.300,183571.600,262302.300,159617.100,0.000
176293.400,175290.100,711439.800,711860.100,198969.300,183539.800,262282.000,159580.100,0.000
176303.000,175286.000,711438.000,711858.300,199062.000,183520.700,262280.100,159574.200,0.000
176309.300,175288.100,711437.300,711857.900,199190.600,183517.100,262309.300,159583.200,0.000
176321.800,175314.800,711439.200,711859.600,199357.000,183545.500,262383.200,159609.400,0.000
176312.500,175323.000,711438.200,711858.400,199525.900,183569.600,262471.700,159620.200,0.000
176293.400,175289.600,711435.800,711856.100,199589.300,183531.400,262444.600,159575.300,0.000
176304.600,175284.500,711435.800,711856.000,199688.100,183519.900,262448.700,159574.200,0.000
176314.400,175290.700,711435.700,711855.800,199818.100,183519.800,262481.000,159586.800,0.000
176318.700,175310.000,711437.200,711857.600,199978.200,183545.800,262550.800,159610.100,0.000
176310.800,175321.700,711436.500,711856.900,200146.000,183570.100,262637.800,159624.400,0.000
176291.700,175292.100,711434.700,711854.800,200212.400,183530.900,262611.500,159585.100,0.000
176300.900,175286.800,711436.300,711856.000,200311.900,183517.800,262615.000,159580.300,0.000
176316.400,175297.100,711438.000,711858.100,200443.600,183522.700,262650.500,159594.700,0.000
176326.600,175316.500,711439.100,711859.800,200603.200,183550.500,262720.900,159617.000,0.000
176319.800,175330.900,711437.800,711858.300,200772.800,183579.200,262809.900,159630.500,0.000
176304.800,175309.300,711435.900,711856.700,200840.600,183550.600,262790.600,159594.200,0.000
176307.300,175295.700,711433.500,711854.100,200928.500,183533.500,262784.900,159579.500,0.000
176314.200,175297.400,711436.500,711857.100,201058.300,183532.900,262814.400,159588.000,0.000
176313.200,175310.600,711436.300,711857.100,201211.100,183548.700,262875.200,159602.500,0.000
176302.900,175324.100,711433.700,711854.000,201376.200,183572.900,262960.800,159614.200,0.000
176291.300,175303.000,711434.700,711855.400,201447.700,183549.300,262944.900,159585.900,0.000
176303.500,175300.500,711437.400,711857.700,201546.200,183538.400,262951.800,159587.200,0.000
176304.000,175296.600,711437.200,711857.100,201670.600,183527.700,262983.400,159595.200,0.000
176310.700,175314.600,711438.600,711858.700,201828.800,183550.600,263055.300,159618.600,0.000
176303.300,175325.100,711437.400,711857.900,201996.400,183577.600,263145.800,159634.100,0.000
176279.500,175291.400,711435.500,711856.000,202053.500,183536.300,263116.600,159589.800,0.000
176291.200,175288.300,711438.400,711858.800,202151.800,183525.700,263123.200,159588.200,0.000
176297.400,175289.100,711437.600,711857.700,202276.200,183524.700,263155.900,159597.800,0.000
176304.000,175312.700,711438.100,711858.200,202437.400,183552.600,263230.600,159623.100,0.000
176296.000,175322.700,711437.000,711857.100,202600.000,183575.400,263316.600,159634.200,0.000
176286.700,175298.800,711436.500,711856.400,202667.500,183540.500,263296.700,159601.800,0.000
176293.900,175289.900,711436.800,711856.900,202756.400,183523.600,263294.100,159594.600,0.000
176288.300,175277.300,711432.400,711852.500,202866.600,183509.100,263311.400,159591.200,0.000
176293.900,175291.000,711433.400,711853.600,203021.300,183534.500,263381.200,159609.400,0.000
176291.700,175308.600,711432.300,711852.400,203188.800,183567.500,263474.700,159625.300,0.000
176277.200,175280.900,711430.600,711850.700,203248.400,183535.000,263447.500,159585.500,0.000
176285.400,175275.100,711432.400,711852.900,203342.200,183519.100,263442.700,159577.000,0.000
176300.100,175284.400,711434.900,711854.800,203471.200,183519.300,263477.700,159592.700,0.000
176307.500,175303.200,711434.700,711854.800,203623.000,183544.000,263548.600,159613.500,0.000
176303.800,175317.900,711434.600,711854.800,203787.400,183571.100,263639.900,159628.800,0.000
176287.900,175293.600,711435.300,711855.300,203846.700,183538.600,263611.200,159589.600,0.000
176293.400,175285.000,711435.800,711855.800,203936.300,183522.600,263610.500,159587.100,0.000
176299.000,175284.900,711436.900,711857.600,204057.000,183516.100,263642.200,159599.900,0.000
176309.000,175309.000,711438.400,711858.800,204215.200,183543.800,263711.500,159623.000,0.000
176304.100,175325.600,711436.200,711856.300,204375.800,183573.300,263796.200,159636.900,0.000
176279.800,175288.300,711433.400,711853.600,204423.700,183529.600,263758.600,159589.200,0.000
176288.000,175280.100,711434.100,711854.200,204509.400,183513.100,263753.600,159584.000,0.000
176298.900,175284.200,711434.900,711855.400,204632.600,183512.600,263783.400,159597.400,0.000
176306.400,175301.100,711432.900,711852.900,204786.000,183532.600,263854.200,159619.100,0.000
176301.700,175315.100,711432.400,711852.900,204942.800,183555.900,263940.800,159628.800,0.000
176297.700,175297.500,711434.500,711854.900,205001.000,183529.600,263912.900,159592.100,0.000
176312.500,175300.500,711437.000,711857.700,205092.200,183520.700,263911.600,159587.000,0.000
176319.200,175301.100,711436.100,711856.900,205209.000,183512.800,263936.500,159588.200,0.000
176320.300,175314.300,711432.900,711853.300,205353.700,183529.600,264000.100,159602.500,0.000
176314.700,175327.000,711432.400,711853.000,205509.000,183556.400,264081.800,159614.100,0.000
176301.500,175298.300,711432.100,711852.900,205562.200,183522.900,264050.800,159576.400,0.000
176315.100,175295.900,711431.600,711852.300,205651.100,183512.800,264051.400,159577.200,0.000
176327.800,175301.400,711433.400,711853.800,205774.500,183514.100,264081.500,159593.300,0.000
176331.500,175318.200,711432.600,711852.900,205922.900,183534.900,264147.000,159614.200,0.000
176326.000,175332.400,711432.800,711853.000,206079.900,183562.600,264229.400,159630.800,0.000
176313.000,175301.900,711430.600,711850.700,206130.400,183527.800,264194.600,159593.200,0.000
176312.600,175290.100,711427.700,711847.700,206209.400,183506.600,264185.600,159586.800,0.000
176320.000,175293.400,711427.700,711847.600,206325.200,183504.300,264213.200,159598.000,0.000
176327.600,175316.500,711428.700,711848.600,206476.500,183535.700,264283.600,159621.100,0.000
176319.900,175326.700,711430.600,711850.600,206633.400,183559.100,264370.600,159637.900,0.000
176307.300,175297.200,711429.600,711850.200,206684.400,183522.000,264344.600,159600.700,0.000
176318.800,175293.500,711430.100,711850.400,206768.500,183507.700,264344.800,159594.700,0.000
176318.200,175288.200,711426.600,711847.100,206874.300,183496.600,264360.400,159596.500,0.000
176325.200,175312.200,711428.600,711848.600,207033.300,183528.300,264433.400,159623.700,0.000
176314.400,175321.100,711428.500,711848.600,207188.100,183552.900,264513.300,159633.900,0.000
176290.400,175280.700,711426.200,711846.600,207229.200,183511.000,264472.800,159586.600,0.000
176309.900,175283.100,711428.300,711848.600,207316.400,183506.300,264475.200,159589.100,0.000
176329.000,175296.200,711432.000,711852.300,207439.000,183514.500,264511.800,159613.200,0.000
176332.900,175311.300,711432.300,711852.500,207588.200,183538.700,264584.800,159637.900,0.000
176328.300,175322.800,711431.800,711852.100,207741.600,183565.000,264671.800,159651.900,0.000
176316.000,175295.600,711432.800,711852.900,207791.000,183531.300,264640.700,159613.800,0.000
176320.000,175285.600,711432.300,711852.600,207869.500,183512.700,264631.200,159604.900,0.000
176331.100,175293.400,711431.500,711851.800,207987.500,183518.500,264664.300,159619.800,0.000
176334.200,175310.500,711432.400,711852.900,208136.900,183545.600,264737.900,159644.400,0.000
176323.400,175316.400,711433.400,711853.600,208286.300,183565.300,264820.300,159652.300,0.000
176315.800,175292.600,711432.900,711852.900,208341.200,183533.400,264793.800,159617.900,0.000
176323.300,175285.300,711431.500,711851.300,208422.800,183514.600,264792.000,159612.700,0.000
176330.800,175290.300,711429.500,711849.600,208535.300,183513.100,264820.600,159624.500,0.000
176333.400,175312.900,711427.700,711848.000,208679.700,183539.900,264890.600,159646.800,0.000
176322.100,175321.300,711427.100,711847.100,208824.300,183558.600,264971.100,159655.900,0.000
176304.400,175292.100,711425.600,711845.800,208867.000,183522.700,264936.700,159614.600,0.000
176315.800,175290.800,711426.000,711846.400,208950.300,183507.500,264937.800,159612.700,0.000
176324.300,175296.300,711427.400,711847.700,209061.500,183505.400,264963.200,159625.500,0.000
176332.300,175320.000,711430.100,711850.300,209215.300,183541.100,265041.800,159658.300,0.000
176323.900,175330.900,711426.800,711847.100,209362.500,183568.400,265123.900,159670.600,0.000
176308.400,175302.300,711424.300,711844.800,209403.300,183530.200,265087.900,159624.600,0.000
176323.400,175297.900,711424.300,711845.000,209487.100,183520.200,265087.700,159621.000,0.000
176347.200,175313.600,711427.800,711848.400,209608.600,183530.000,265124.700,159644.300,0.000
176356.700,175339.600,711429.300,711850.200,209761.600,183562.200,265202.800,159675.100,0.000
176348.900,175347.800,711430.500,711850.900,209908.100,183585.300,265282.800,159686.700,0.000
176321.500,175308.700,711427.000,711847.500,209941.600,183536.500,265237.900,159634.600,0.000
176332.400,175308.900,711427.300,711848.100,210028.200,183524.900,265238.500,159632.900,0.000
176343.600,175315.700,711428.800,711849.400,210142.800,183527.300,265267.800,159646.500,0.000
176351.800,175340.900,711428.900,711849.100,210294.200,183559.600,265343.700,159673.400,0.000
176339.400,175345.500,711425.700,711845.800,210435.700,183579.600,265419.300,159681.100,0.000
176324.500,175312.300,711424.600,711844.800,210482.200,183546.400,265386.800,159644.400,0.000
176335.300,175307.400,711425.100,711845.300,210567.800,183535.000,265391.800,159646.900,0.000
176332.700,175302.100,711425.200,711845.200,210670.400,183524.500,265413.800,159648.400,0.000
176336.400,175325.500,711425.100,711845.700,210823.400,183558.300,265493.100,159675.000,0.000
176325.700,175333.400,711427.600,711848.600,210971.300,183585.000,265575.900,159688.100,0.000
176312.900,175306.400,711425.900,711846.400,211015.800,183552.000,265547.200,159649.700,0.000
176323.100,175305.900,711425.300,711845.900,211099.900,183542.500,265552.700,159646.400,0.000
176328.400,175304.100,711425.500,711846.300,211208.700,183538.600,265580.700,159654.100,0.000
176332.200,175322.000,711426.200,711847.100,211362.200,183564.400,265660.400,159678.100,0.000
176320.700,175330.300,711425.100,711845.500,211507.800,183584.500,265740.300,159685.500,0.000
176306.400,175303.300,711424.700,711845.100,211555.100,183548.400,265712.600,159649.300,0.000
176321.500,175307.300,711424.900,711845.500,211643.800,183539.400,265725.100,159655.600,0.000
176334.700,175314.500,711425.600,711846.100,211756.500,183539.000,265759.500,159670.700,0.000
176346.200,175339.900,711426.000,711846.900,211908.800,183571.000,265840.100,159697.300,0.000
176337.500,175347.900,711426.600,711847.500,212050.000,183594.400,265918.400,159705.100,0.000
176318.300,175312.900,711423.400,711844.400,212087.100,183556.800,265882.500,159658.600,0.000
176326.300,175307.600,711422.400,711843.100,212174.600,183543.700,265889.500,159656.800,0.000
176330.200,175309.300,711420.500,711841.100,212282.400,183540.800,265917.700,159665.100,0.000
176339.300,175332.900,711422.000,711842.300,212433.300,183571.100,266002.000,159694.100,0.000
176330.800,175337.400,711421.900,711842.100,212574.600,183591.100,266082.800,159701.700,0.000
176319.200,175312.200,711420.800,711841.300,212618.900,183559.700,266053.500,159660.800,0.000
176332.700,175316.300,711421.300,711841.900,212709.000,183552.800,266065.700,159663.300,0.000
176335.300,175317.300,711419.900,711840.300,212817.100,183552.300,266094.900,159668.700,0.000
176339.800,175339.100,711420.800,711841.300,212965.100,183583.700,266175.000,159691.600,0.000
176335.300,175351.800,711421.400,711841.700,213116.400,183612.500,266264.200,159709.300,0.000
176321.800,175325.500,711421.100,711841.700,213165.600,183572.300,266237.700,159674.300,0.000
176327.200,175318.900,711420.500,711840.800,213251.600,183557.000,266241.100,159671.300,0.000
176333.600,175323.400,711421.800,711842.100,213367.200,183559.100,266274.600,159684.300,0.000
176344.200,175350.200,711423.300,711843.600,213520.800,183593.200,266361.500,159715.100,0.000
176332.800,175354.200,711421.400,711841.300,213658.000,183613.900,266440.700,159718.500,0.000
176320.500,175327.600,711418.800,711838.400,213701.800,183579.900,266410.800,159678.200,0.000
176333.400,175326.600,711419.400,711839.600,213789.000,183572.500,266417.700,159678.600,0.000
176344.200,175331.000,711422.000,711842.400,213905.300,183571.500,266457.000,159694.600,0.000
176335.400,175338.100,711419.300,711839.500,214044.400,183585.400,266528.300,159708.800,0.000
176323.400,175343.500,711417.800,711837.900,214184.100,183603.900,266604.000,159713.500,0.000
176311.700,175319.700,711417.300,711837.200,214229.500,183573.800,266574.600,159676.600,0.000
176330.500,175322.300,711421.400,711841.400,214324.500,183572.400,266591.900,159683.500,0.000
176343.000,175327.400,711424.900,711844.900,214448.300,183576.000,266631.900,159698.100,0.000
176342.400,175344.300,711425.300,711845.300,214602.800,183601.800,266711.700,159721.300,0.000
176324.000,175341.600,711421.900,711841.800,214736.000,183615.600,266782.500,159725.400,0.000
176314.300,175315.900,711423.700,711843.900,214782.400,183581.800,266756.300,159691.900,0.000
176323.400,175311.500,711422.600,711842.600,214863.300,183569.000,266758.900,159685.900,0.000
176332.300,175318.600,711420.400,711840.900,214973.800,183567.900,266788.600,159696.800,0.000
176337.500,175342.700,711424.100,711843.800,215138.100,183602.600,266882.300,159733.000,0.000
176318.900,175337.200,711422.400,711842.100,215271.500,183612.900,266951.500,159733.100,0.000
176304.000,175305.500,711421.300,711841.100,215306.000,183571.100,266913.200,159689.300,0.000
176317.800,175305.500,711420.600,711840.800,215388.800,183560.900,266918.700,159687.200,0.000
176328.900,175313.100,711418.500,711838.100,215495.600,183561.700,266945.200,159699.200,0.000
176340.100,175342.600,711422.400,711842.200,215657.300,183601.600,267037.500,159734.400,0.000
176328.100,175345.500,711422.400,711842.600,215797.400,183616.700,267113.500,159738.200,0.000
176315.000,175319.000,711420.600,711841.100,215841.200,183580.400,267082.500,159701.200,0.000
176330.300,175323.100,711422.700,711843.100,215934.500,183578.100,267096.100,159705.800,0.000
176337.400,175321.400,711424.300,711844.400,216044.600,183575.700,267123.100,159712.100,0.000
176336.500,175331.800,711422.600,711842.600,216187.700,183594.200,267193.600,159727.900,0.000
176319.100,175328.000,711418.600,711838.600,216313.600,183600.700,267253.400,159723.600,0.000
176310.400,175306.100,711419.700,711839.400,216360.400,183572.500,267224.300,159692.300,0.000
176328.400,175313.800,711421.600,711841.700,216452.800,183566.700,267234.900,159700.000,0.000
176335.000,175316.100,711421.400,711841.400,216559.000,183562.500,267261.100,159708.900,0.000
176338.300,175337.900,711423.300,711843.400,216708.600,183595.500,267343.900,159740.500,0.000
176329.600,175344.300,711422.400,711842.600,216841.700,183615.000,267415.900,159751.800,0.000
176314.200,175311.400,711420.800,711841.100,216878.600,183576.800,267378.200,159712.600,0.000
176322.000,175304.000,711419.400,711839.500,216959.700,183565.900,267379.800,159711.900,0.000
176325.600,175302.000,711418.700,711838.600,217064.300,183565.900,267401.200,159719.300,0.000
176330.200,175327.600,711419.300,711839.000,217214.200,183603.400,267483.000,159745.800,0.000
176317.800,175333.200,711420.100,711840.100,217350.300,183624.000,267558.000,159754.200,0.000
176309.900,175309.000,711420.400,711840.300,217390.700,183589.300,267524.700,159718.600,0.000
176324.500,175313.600,711420.400,711840.700,217473.900,183581.400,267531.400,159721.200,0.000
176333.200,175317.600,711420.100,711840.300,217584.100,183579.700,267563.300,159732.900,0.000
176333.900,175331.700,711420.000,711840.300,217731.800,183604.700,267641.800,159754.300,0.000
176328.800,175337.700,711420.600,711841.100,217865.100,183626.700,267714.900,159761.300,0.000
176315.300,175307.100,711421.400,711841.300,217904.500,183584.700,267679.600,159721.000,0.000
176322.800,175302.100,711419.300,711839.300,217986.700,183568.500,267679.900,159716.100,0.000
176332.100,175307.700,711419.300,711839.900,218093.900,183565.900,267708.700,159726.000,0.000
176346.800,175341.100,711422.300,711842.200,218248.600,183602.100,267796.800,159757.100,0.000
176334.800,175343.100,711420.600,711840.400,218378.200,183620.700,267864.300,159760.800,0.000
176314.100,175305.100,711417.400,711838.100,218406.400,183578.300,267815.600,159713.000,0.000
176324.600,175300.300,711419.300,711839.600,218491.300,183564.500,267819.400,159714.000,0.000
176330.200,175306.500,711420.400,711840.300,218603.700,183564.000,267850.300,159727.200,0.000
176337.800,175332.800,711421.800,711842.100,218756.200,183600.900,267933.200,159756.000,0.000
176329.300,175337.400,711420.100,711840.700,218882.400,183618.500,267997.500,159759.200,0.000
176316.900,175307.300,711419.300,711839.700,218915.000,183580.500,267959.900,159718.800,0.000
176330.200,175308.900,711420.400,711840.700,219000.400,183575.200,267969.200,159723.300,0.000
176337.700,175314.000,711420.200,711840.900,219107.800,183580.200,267997.100,159738.200,0.000
176342.800,175337.500,711421.800,711842.600,219256.400,183618.700,268076.600,159772.800,0.000
176322.700,175333.700,711418.800,711839.300,219371.600,183628.900,268128.300,159769.700,0.000
176313.500,175307.200,711418.300,711838.400,219403.900,183595.300,268091.800,159737.900,0.000
176328.700,175309.300,711421.300,711841.100,219490.500,183591.500,268105.400,159749.500,0.000
176335.700,175316.500,711421.300,711841.500,219595.600,183595.500,268133.300,159763.300,0.000
176337.000,175335.900,711421.100,711841.300,219738.900,183628.600,268208.300,159789.000,0.000
176332.200,175348.400,711420.900,711840.900,219872.800,183654.100,268281.400,159801.600,0.000
176318.300,175323.900,711422.100,711841.900,219910.900,183618.800,268251.600,159767.100,0.000
176319.200,175316.900,711421.300,711840.900,219988.000,183602.400,268253.900,159763.000,0.000
176324.300,175319.800,711421.400,711841.500,220093.800,183604.500,268280.200,159773.900,0.000
176340.400,175356.900,711424.600,711844.400,220250.800,183652.000,268370.000,159812.800,0.000
176331.000,175364.500,711427.400,711846.900,220384.700,183672.400,268443.200,159822.100,0.000
176317.100,175337.500,711427.200,711846.700,220421.200,183640.900,268407.600,159783.000,0.000
176323.600,175331.800,711426.800,711846.300,220501.200,183631.800,268412.200,159780.900,0.000
176326.500,175333.200,711427.100,711847.200,220604.800,183632.900,268437.800,159787.700,0.000
176332.700,175359.600,711428.000,711848.000,220754.700,183670.800,268519.400,159818.100,0.000
176317.900,175363.300,711427.100,711846.600,220881.600,183689.600,268583.800,159821.200,0.000
176304.300,175340.000,711426.400,711846.300,220919.400,183655.700,268553.400,159784.500,0.000
176314.000,175337.400,711425.600,711845.800,221000.700,183644.400,268561.400,159783.200,0.000
176320.800,175341.600,711427.200,711847.200,221106.600,183644.800,268593.300,159794.800,0.000
176325.100,175365.000,711428.300,711848.600,221255.500,183678.200,268681.000,159823.800,0.000
176309.900,175363.700,711426.200,711846.900,221379.700,183689.900,268747.700,159820.700,0.000
176298.100,175336.300,711426.300,711847.100,221415.300,183649.200,268714.800,159780.200,0.000
176313.500,175340.800,711427.400,711847.600,221497.800,183640.300,268725.600,159780.800,0.000
176324.000,175348.300,711427.400,711847.800,221604.100,183638.500,268753.700,159788.300,0.000
176329.600,175370.800,711425.900,711846.300,221748.500,183673.100,268834.700,159812.200,0.000
176317.200,175375.500,711426.900,711847.300,221874.000,183691.700,268905.400,159817.300,0.000
176306.600,175348.600,711429.300,711849.100,221912.500,183650.100,268877.500,159783.200,0.000
176322.800,175346.700,711429.900,711849.600,221996.700,183636.000,268887.800,159788.700,0.000
176332.700,175354.500,711431.100,711851.000,222101.300,183636.500,268917.600,159798.700,0.000
176328.500,175367.200,711429.000,711848.800,222237.900,183661.500,268991.000,159816.300,0.000
176318.100,175376.400,711430.700,711850.300,222369.100,183682.600,269063.500,159824.800,0.000
176305.500,175353.600,711432.800,711852.400,222408.000,183651.000,269036.200,159790.000,0.000
176311.600,175348.900,711431.400,711851.300,222486.900,183639.200,269043.100,159786.600,0.000
176321.800,175356.600,711431.900,711852.300,222592.800,183642.800,269076.200,159798.800,0.000
176335.900,175384.800,711435.100,711855.400,222750.300,183686.900,269174.400,159835.700,0.000
176308.900,175369.700,711429.300,711849.400,222858.600,183687.000,269225.500,159819.200,0.000
176293.400,175333.600,711429.100,711848.800,222890.800,183641.400,269188.300,159776.900,0.000
176301.900,175329.600,711430.900,711850.300,222975.500,183628.900,269199.800,159776.600,0.000
176302.000,175328.800,711429.800,711849.600,223074.300,183622.900,269227.400,159780.500,0.000
176308.100,175359.700,711431.300,711851.300,223228.000,183657.000,269321.600,159808.600,0.000
176297.700,175366.400,711429.500,711849.900,223353.100,183673.100,269393.200,159812.900,0.000
176293.700,175347.300,711428.200,711848.200,223391.100,183639.500,269365.100,159785.900,0.000
176305.500,175349.200,711429.600,711849.600,223469.200,183634.400,269374.900,159789.600,0.000
176304.800,175348.400,711428.900,711848.600,223569.100,183635.100,269405.500,159801.500,0.000
176309.900,175372.600,711429.100,711848.800,223725.200,183673.300,269502.100,159840.100,0.000
176297.300,175372.800,711427.700,711847.900,223848.700,183686.100,269571.500,159843.500,0.000
176284.500,175343.700,711428.200,711848.400,223882.000,183647.700,269539.500,159804.600,0.000
176296.400,175340.800,711427.400,711847.600,223964.600,183638.800,269552.300,159805.000,0.000
176302.500,175343.400,711427.100,711847.300,224068.500,183637.100,269584.000,159811.200,0.000
176312.600,175371.700,711427.700,711847.400,224220.900,183670.300,269674.200,159839.000,0.000
176303.500,175374.100,711426.900,711846.600,224337.900,183680.900,269734.400,159837.400,0.000
176297.700,175348.500,711428.300,711847.900,224372.500,183643.200,269705.400,159801.700,0.000
176311.500,175347.500,711429.500,711849.100,224454.000,183631.600,269719.800,159804.100,0.000
176315.400,175352.000,711429.600,711849.100,224557.600,183630.400,269752.200,159812.700,0.000
176321.700,175378.500,711430.800,711850.600,224711.800,183667.500,269846.600,159841.600,0.000
176310.700,175378.700,711430.900,711850.600,224835.000,183683.400,269914.000,159843.700,0.000
176294.100,175347.100,711427.100,711846.900,224867.000,183647.200,269876.700,159804.100,0.000
176300.800,175345.100,711426.600,711846.100,224948.900,183643.100,269890.300,159808.000,0.000
176308.500,175352.900,711427.600,711847.200,225053.400,183651.200,269926.300,159822.400,0.000
176318.300,175381.900,711430.800,711850.400,225204.200,183694.300,270021.300,159854.700,0.000
176303.500,175381.500,711431.100,711850.400,225322.700,183707.400,270086.300,159855.200,0.000
176285.600,175347.200,711427.800,711846.900,225350.700,183665.600,270046.600,159815.400,0.000
176291.900,175340.300,711425.400,711844.600,225426.800,183655.200,270051.600,159815.000,0.000
176294.900,175340.100,711425.100,711844.100,225529.900,183650.100,270082.500,159822.200,0.000
176303.700,175368.100,711427.700,711846.900,225685.900,183685.200,270177.500,159852.900,0.000
176291.400,175371.100,711428.600,711848.100,225806.100,183696.300,270241.800,159852.000,0.000
176281.100,175346.700,711427.400,711846.800,225836.700,183655.600,270204.700,159811.800,0.000
176297.100,175350.500,711426.800,711846.100,225920.800,183648.200,270221.100,159817.500,0.000
176306.700,175356.000,711428.400,711847.300,226022.100,183648.800,270253.200,159826.000,0.000
176315.800,175379.800,711429.500,711848.800,226173.600,183684.000,270342.200,159853.500,0.000
176305.700,175379.900,711428.600,711847.800,226290.500,183697.000,270402.800,159848.800,0.000
176298.700,175354.900,711428.600,711847.800,226319.700,183663.600,270368.900,159811.000,0.000
176307.300,175352.700,711428.200,711847.300,226399.100,183653.800,270381.900,159813.600,0.000
176307.100,175354.700,711426.200,711845.300,226498.200,183653.400,270411.300,159824.500,0.000
176312.000,175382.100,711427.400,711846.900,226650.200,183697.300,270507.900,159861.900,0.000
176297.100,175378.300,711426.400,711845.700,226761.700,183705.600,270565.600,159860.000,0.000
176286.800,175350.700,711426.600,711845.300,226786.800,183665.100,270523.100,159819.700,0.000
176303.400,175354.400,711427.800,711847.100,226863.900,183660.800,270531.700,159827.900,0.000
176306.800,175352.800,711428.200,711847.500,226960.900,183654.300,270558.400,159838.300,0.000
176312.900,175375.500,711428.300,711847.500,227108.800,183688.000,270646.800,159868.800,0.000
176311.000,175383.200,711428.700,711847.800,227226.800,183704.900,270710.100,159873.200,0.000
176295.700,175347.900,711426.000,711845.300,227247.200,183663.500,270666.600,159833.000,0.000
176305.700,175347.500,711425.100,711844.900,227324.300,183656.000,270679.000,159838.900,0.000
176306.500,175349.600,711422.800,711842.400,227416.500,183650.300,270702.600,159846.600,0.000
176316.000,175381.700,711423.600,711843.100,227570.200,183692.700,270799.100,159882.000,0.000
176302.400,175382.200,711422.800,711841.900,227680.600,183705.500,270856.700,159880.300,0.000
176295.300,175358.100,711424.300,711843.100,227708.800,183674.800,270822.800,159844.300,0.000
176311.100,175362.600,711426.800,711845.700,227789.400,183671.400,270834.400,159847.200,0.000
176311.100,175361.800,711426.100,711845.000,227881.700,183666.400,270858.200,159851.500,0.000
176311.300,175381.400,711423.300,711842.400,228023.000,183699.300,270945.000,159877.000,0.000
176295.500,175376.200,711422.400,711841.300,228132.300,183706.000,271000.900,159873.800,0.000
176286.300,175353.800,711424.900,711843.800,228163.300,183673.400,270967.100,159840.300,0.000
176295.600,175349.700,711426.300,711845.600,228236.700,183663.000,270973.000,159840.400,0.000
176298.300,175349.800,711425.500,711844.800,228328.300,183657.000,270995.200,159846.200,0.000
176309.000,175382.900,711425.900,711845.300,228475.300,183700.700,271086.700,159877.000,0.000
176294.300,175380.100,711424.100,711843.300,228578.300,183707.700,271139.000,159872.700,0.000
176285.700,175354.900,711425.500,711844.600,228605.900,183672.900,271102.200,159839.400,0.000
176301.500,175356.200,711427.800,711847.100,228685.200,183669.500,271110.800,159845.100,0.000
176303.500,175350.600,711425.500,711844.800,228774.500,183664.700,271132.800,159851.900,0.000
176305.200,175371.000,711424.100,711843.600,228917.600,183698.500,271223.200,159880.900,0.000
176292.100,175369.900,711425.500,711845.000,229025.600,183709.100,271281.300,159877.300,0.000
176278.900,175338.500,711426.600,711845.900,229048.700,183666.200,271243.600,159840.300,0.000
176293.200,175338.900,711425.300,711844.400,229119.900,183654.100,271251.800,159842.600,0.000
176307.700,175350.100,711426.400,711845.700,229215.100,183655.700,271277.700,159851.300,0.000
176319.900,175384.400,711427.800,711846.900,229362.500,183695.400,271367.900,159882.800,0.000
176304.400,175378.900,711426.800,711845.700,229461.000,183701.000,271412.400,159876.300,0.000
176296.800,175354.100,711429.300,711848.400,229485.900,183665.000,271373.500,159841.400,0.000
176315.100,175360.300,711430.700,711849.600,229564.000,183658.500,271387.800,159849.200,0.000
176312.000,175357.500,711427.600,711846.100,229648.900,183651.700,271406.000,159850.900,0.000
176309.000,175377.400,711424.300,711843.300,229788.400,183685.100,271491.100,159876.900,0.000
176293.500,175374.800,711423.100,711842.200,229889.800,183691.400,271542.700,159873.000,0.000
176283.900,175349.500,711422.400,711841.500,229913.300,183655.000,271505.600,159835.400,0.000
176296.600,175348.900,711424.700,711843.600,229992.100,183650.100,271517.500,159840.300,0.000
176298.700,175348.800,711425.100,711844.000,230080.900,183647.800,271538.000,159846.800,0.000
176305.100,175374.600,711425.900,711845.300,230229.500,183685.500,271631.000,159879.900,0.000
176291.000,175366.700,711423.700,711843.200,230328.800,183690.500,271678.600,159871.800,0.000
176282.300,175341.200,711423.300,711842.600,230350.400,183654.200,271638.100,159833.800,0.000
176299.900,175345.200,711426.100,711845.800,230429.600,183652.100,271650.100,159841.400,0.000
176304.200,175346.800,711426.600,711846.400,230517.000,183648.500,271670.400,159841.300,0.000
176310.500,175373.900,711426.800,711846.300,230658.500,183684.900,271759.300,159867.800,0.000
176301.000,175370.300,711426.200,711845.500,230753.500,183689.200,271803.600,159856.900,0.000
176293.500,175342.200,711426.400,711845.600,230773.800,183655.300,271762.300,159820.300,0.000
176303.400,175341.200,711428.200,711847.200,230849.100,183649.400,271773.600,159826.500,0.000
176307.800,175344.000,711425.600,711844.600,230935.500,183643.800,271793.200,159832.300,0.000
176312.800,175372.200,711425.500,711844.400,231077.800,183683.100,271882.000,159864.000,0.000
176298.100,175369.000,711427.200,711846.100,231175.500,183689.900,271931.100,159860.900,0.000
176290.200,175343.900,711427.400,711846.700,231197.000,183655.900,271892.200,159826.100,0.000
176298.800,175341.700,711425.400,711844.900,231266.600,183648.700,271898.100,159828.400,0.000
176300.100,175339.700,711420.300,711839.700,231346.500,183641.500,271911.600,159829.800,0.000
176309.300,175368.000,711422.300,711841.300,231491.500,183682.800,272000.300,159860.000,0.000
176306.700,175374.500,711425.100,711845.100,231596.700,183695.400,272052.800,159858.900,0.000
176295.900,175346.400,711425.300,711844.900,231616.500,183657.800,272009.200,159822.100,0.000
176305.300,175344.500,711425.600,711844.800,231686.500,183645.900,272011.100,159822.000,0.000
176308.700,175350.000,711425.100,711844.000,231773.400,183644.400,272032.500,159828.000,0.000
176312.500,175377.000,711424.300,711843.800,231913.500,183680.400,272125.000,159859.900,0.000
176293.900,175367.600,711424.300,711843.400,232005.100,183680.100,272171.900,159851.000,0.000
176287.600,175341.100,711423.900,711843.100,232020.700,183641.600,272132.300,159816.700,0.000
176300.400,175341.900,711423.200,711842.000,232089.500,183634.000,272140.500,159824.800,0.000
176303.600,175347.300,711422.800,711841.700,232176.400,183633.900,272162.400,159836.700,0.000
176302.300,175370.700,711420.800,711839.800,232314.000,183670.100,272245.000,159863.300,0.000
176287.600,175367.100,711422.100,711841.300,232409.200,183674.600,272289.500,159855.600,0.000
176283.300,175344.600,711423.300,711842.400,232429.500,183640.100,272250.300,159821.900,0.000
176295.000,175342.000,711422.400,711841.800,232491.900,183631.400,272249.300,159822.000,0.000
176297.000,175344.400,711424.300,711843.400,232578.600,183630.200,272270.800,159831.600,0.000
176300.900,175371.400,711426.600,711845.900,232723.100,183668.900,272362.200,159865.000,0.000
176282.800,175360.500,711423.300,711843.100,232808.500,183670.400,272399.300,159854.700,0.000
176278.000,175338.700,711423.500,711843.200,232824.100,183636.700,272358.200,159821.100,0.000
176292.600,175345.600,711424.600,711843.900,232895.800,183634.700,272370.300,159829.900,0.000
176301.400,175350.600,711425.600,711844.200,232982.900,183634.900,272394.300,159842.300,0.000
176311.600,175381.900,711427.800,711846.900,233121.200,183676.800,272484.000,159879.500,0.000
176295.500,175373.800,711424.300,711843.600,233201.200,183676.300,272519.900,159870.500,0.000
176283.400,175345.400,711421.300,711840.100,233210.200,183634.700,272472.200,159829.800,0.000
176295.700,175345.800,711421.400,711840.400,233279.600,183629.100,272477.300,159833.400,0.000
176300.200,175346.200,711422.600,711841.300,233361.200,183628.800,272493.600,159836.300,0.000
176309.300,175372.500,711424.600,711843.400,233497.800,183670.500,272581.900,159869.800,0.000
176301.400,175374.300,711426.100,711844.900,233587.900,183681.000,272626.400,159868.300,0.000
176296.500,175351.600,711425.800,711844.400,233606.300,183650.800,272586.100,159837.000,0.000
176306.800,175348.400,711426.000,711845.100,233676.900,183640.900,272590.300,159842.200,0.000
176312.800,175352.800,711427.400,711846.700,233761.800,183640.700,272610.600,159852.600,0.000
176317.700,175379.000,711426.600,711845.600,233895.900,183672.900,272697.900,159880.800,0.000
176305.100,175374.000,711423.800,711842.400,233976.700,183672.600,272731.300,159866.500,0.000
176295.800,175344.400,711423.700,711842.600,233988.400,183634.800,272684.800,159828.700,0.000
176311.100,175346.700,711423.800,711842.800,234057.800,183631.500,272693.300,159832.800,0.000
176322.500,175355.300,711424.600,711843.300,234146.600,183637.800,272717.900,159844.600,0.000
176327.300,175384.700,711426.000,711844.600,234286.800,183678.500,272806.700,159876.700,0.000
176308.300,175374.300,711425.500,711844.000,234367.900,183679.500,272840.100,159864.400,0.000
176296.700,175342.700,711425.100,711843.800,234377.500,183640.300,272793.600,159827.000,0.000
176314.700,175347.500,711425.200,711844.300,234445.900,183636.500,272801.600,159832.500,0.000
176322.100,175358.500,711426.300,711845.100,234534.900,183640.800,272827.000,159842.300,0.000
176326.500,175382.600,711427.400,711845.800,234675.300,183680.000,272918.300,159873.000,0.000
176309.900,175370.000,711425.800,711844.400,234753.000,183679.400,272949.400,159858.000,0.000
176303.900,175345.200,711424.100,711842.900,234762.700,183642.800,272899.300,159819.900,0.000
176321.800,175352.400,711426.400,711845.300,234838.500,183642.000,272912.500,159830.700,0.000
176325.700,175354.700,711427.300,711846.300,234921.900,183638.500,272933.100,159840.800,0.000
176331.100,175379.200,711426.800,711845.300,235056.100,183679.000,273021.300,159874.100,0.000
176309.100,175368.000,711423.300,711841.800,235130.900,183673.500,273050.400,159859.100,0.000
176296.400,175342.400,711424.100,711842.600,235144.100,183632.800,273005.800,159822.500,0.000
176310.500,175342.600,711424.300,711842.400,235214.700,183627.600,273014.000,159830.600,0.000
176318.900,175345.800,711423.300,711841.800,235293.700,183627.000,273031.300,159843.000,0.000
176327.500,175379.000,711423.900,711842.600,235432.000,183666.400,273119.800,159876.600,0.000
176311.400,175371.700,711422.800,711841.300,235510.000,183666.600,273151.100,159864.100,0.000
176304.500,175347.700,711421.400,711839.900,235517.400,183631.900,273101.200,159828.000,0.000
176322.300,175351.500,711420.200,711838.600,235583.200,183629.400,273104.000,159835.200,0.000
176335.500,175362.500,711423.900,711842.200,235674.800,183635.100,273129.500,159850.100,0.000
176337.000,175385.900,711425.100,711843.400,235810.400,183671.400,273219.300,159880.500,0.000
176318.700,175377.500,711424.600,711843.300,235888.100,183670.900,273252.900,159870.900,0.000
176312.000,175352.900,711422.900,711841.800,235896.400,183637.700,273203.400,159834.500,0.000
176330.200,175358.300,711423.400,711842.100,235964.000,183636.800,273208.800,159843.300,0.000
176336.900,175363.600,711423.900,711842.400,236047.300,183636.400,273228.200,159852.500,0.000
176342.300,175390.400,711425.100,711843.400,236188.600,183680.900,273318.100,159887.300,0.000
