EEG 1, EEG 2, EEG 3, EEG 4, EEG 5, EEG 6, EEG 7, EEG 8, TRIG
750000.100,750000.100,146065.900,703383.900,750000.100,750000.100,750000.100,750000.100,0.000
750000.100,750000.100,235937.000,588366.700,750000.100,640178.800,750000.100,750000.100,0.000
560961.900,750000.100,392347.800,649867.300,750000.100,252217.500,750000.100,750000.100,0.000
488411.700,750000.100,641001.400,741893.900,750000.100,205553.500,750000.100,696106.800,0.000
515403.000,750000.100,568358.400,750000.100,750000.100,340441.400,750000.100,696844.200,0.000
449127.500,449477.100,625509.400,750000.100,750000.100,466746.300,750000.100,750000.100,0.000
441816.000,188601.200,710260.100,750000.100,750000.100,526221.700,750000.100,750000.100,0.000
750000.100,612865.900,750000.100,750000.100,750000.100,490967.200,750000.100,750000.100,0.000
750000.100,750000.100,750000.100,750000.100,750000.100,750000.100,750000.100,750000.100,0.000
750000.100,750000.100,750000.100,750000.100,750000.100,750000.100,750000.100,750000.100,0.000
750000.100,750000.100,750000.100,750000.100,750000.100,750000.100,750000.100,750000.100,0.000
750000.100,750000.100,750000.100,750000.100,688636.100,750000.100,684425.100,750000.100,0.000
750000.100,750000.100,750000.100,750000.100,561671.500,750000.100,561233.400,750000.100,0.000
750000.100,750000.100,750000.100,750000.100,471772.700,750000.100,473732.600,719116.600,0.000
744675.300,734969.600,750000.100,750000.100,403146.100,728577.600,406881.300,613886.900,0.000
638596.700,630582.800,750000.100,750000.100,348309.300,627710.400,353274.800,529975.000,0.000
551937.600,545223.600,750000.100,750000.100,303190.600,544779.000,308989.300,460817.000,0.000
479566.900,473876.900,750000.100,750000.100,265371.900,475095.100,271672.200,402564.300,0.000
418777.900,413884.900,750000.100,750000.100,233788.800,416264.700,240190.800,353392.100,0.000
367801.200,363689.800,750000.100,750000.100,206714.800,366830.900,213119.500,311746.600,0.000
332910.100,329310.100,750000.100,750000.100,188214.100,333003.700,194630.100,283214.200,0.000
319303.300,315874.300,750000.100,750000.100,181620.300,320176.000,188353.500,272630.700,0.000
310624.700,307393.600,750000.100,750000.100,177725.900,312207.000,184836.800,266118.600,0.000
302644.600,299617.700,750000.100,750000.100,174242.900,304908.600,181717.600,260104.200,0.000
295258.400,292365.100,750000.100,750000.100,170882.000,298051.000,178673.100,254458.500,0.000
288442.800,285644.800,750000.100,750000.100,167725.100,291643.400,175789.000,249196.900,0.000
282150.800,279455.400,750000.100,750000.100,164883.500,285717.200,173191.300,244340.900,0.000
276294.800,273725.200,750000.100,750000.100,162296.700,280230.200,170834.900,239828.500,0.000
270843.600,268420.200,750000.100,750000.100,159992.400,275162.100,168767.700,235639.100,0.000
265741.500,263404.400,750000.100,750000.100,157716.700,270332.100,166709.700,231637.100,0.000
260994.800,258709.900,750000.100,750000.100,155559.600,265784.300,164739.200,227879.400,0.000
256574.500,254352.400,750000.100,750000.100,153624.700,261556.800,162978.000,224403.700,0.000
252423.800,250282.100,750000.100,750000.100,151859.300,257606.100,161381.900,221142.600,0.000
248536.300,246498.100,750000.100,750000.100,150310.500,253954.400,160018.700,218112.600,0.000
244861.900,242879.600,750000.100,750000.100,148729.800,250435.800,158613.300,215181.900,0.000
241428.600,239480.500,750000.100,750000.100,147223.300,247101.000,157265.200,212420.700,0.000
238208.700,236299.300,750000.100,750000.100,145874.600,243978.800,156062.200,209850.100,0.000
235173.700,233319.800,750000.100,750000.100,144657.300,241058.600,154987.500,207438.200,0.000
232310.700,230532.100,750000.100,750000.100,143602.100,238347.300,154090.900,205187.400,0.000
229586.000,227836.800,750000.100,750000.100,142484.400,235693.500,153119.800,202975.700,0.000
227031.800,225294.500,750000.100,750000.100,141415.800,233166.500,152180.500,200883.300,0.000
224630.800,222913.800,750000.100,750000.100,140482.300,230807.300,151368.800,198944.100,0.000
222355.300,220677.800,750000.100,750000.100,139640.800,228593.500,150651.300,197113.600,0.000
220197.000,218585.300,750000.100,750000.100,138944.300,226548.000,150091.600,195410.800,0.000
218121.700,216541.100,750000.100,750000.100,138170.400,224526.100,149441.900,193715.800,0.000
216187.600,214609.200,750000.100,750000.100,137423.300,222598.900,148805.500,192114.600,0.000
214369.700,212797.800,750000.100,750000.100,136784.100,220793.500,148272.400,190629.100,0.000
212635.200,211097.000,750000.100,750000.100,136221.600,219100.600,147818.100,189229.100,0.000
210980.900,209498.500,750000.100,750000.100,135770.700,217531.100,147488.500,187921.500,0.000
209379.300,207913.300,750000.100,750000.100,135231.000,215961.800,147059.600,186601.300,0.000
207881.300,206412.000,750000.100,750000.100,134700.500,214456.400,146629.400,185346.000,0.000
206467.500,205003.300,750000.100,750000.100,134265.200,213051.700,146289.700,184189.800,0.000
205124.200,203688.600,750000.100,750000.100,133902.200,211740.700,146022.400,183105.900,0.000
203847.300,202462.800,750000.100,750000.100,133649.800,210538.500,145880.300,182107.600,0.000
202601.700,201229.500,750000.100,750000.100,133290.100,209309.700,145622.600,181072.000,0.000
201438.700,200060.600,750000.100,750000.100,132932.400,208128.200,145361.200,180092.000,0.000
200350.200,198972.900,750000.100,750000.100,132661.100,207029.300,145180.900,179196.200,0.000
199297.400,197933.900,750000.100,750000.100,132435.700,205994.000,145047.100,178342.000,0.000
198293.200,196970.900,750000.100,750000.100,132309.500,205053.100,145026.500,177559.400,0.000
197306.800,195998.800,750000.100,750000.100,132087.300,204084.000,144901.100,176742.200,0.000
196390.800,195080.400,750000.100,750000.100,131868.200,203155.200,144769.000,175970.000,0.000
195525.700,194215.500,750000.100,750000.100,131716.300,202286.800,144698.600,175262.200,0.000
194696.800,193401.600,750000.100,750000.100,131602.000,201471.200,144668.800,174591.400,0.000
193915.300,192662.000,750000.100,750000.100,131582.900,200744.100,144750.600,173983.400,0.000
193147.100,191897.900,750000.100,750000.100,131465.300,199976.000,144728.300,173334.800,0.000
192422.500,191158.800,750000.100,750000.100,131328.800,199220.900,144675.600,172707.700,0.000
191746.300,190476.800,750000.100,750000.100,131262.500,198529.900,144688.100,172146.700,0.000
191090.600,189835.300,750000.100,750000.100,131236.600,197889.700,144744.400,171618.000,0.000
190463.800,189247.800,750000.100,750000.100,131303.800,197319.700,144904.000,171142.000,0.000
189845.300,188634.300,750000.100,750000.100,131262.300,196706.000,144950.700,170615.500,0.000
189270.500,188046.900,750000.100,750000.100,131208.800,196109.500,144974.800,170113.600,0.000
188738.100,187509.000,750000.100,750000.100,131222.700,195564.300,145061.100,169671.800,0.000
188224.700,187005.700,750000.100,750000.100,131275.300,195059.900,145188.000,169261.500,0.000
187723.200,186537.100,750000.100,750000.100,131397.800,194612.900,145403.600,168888.500,0.000
187226.800,186043.200,750000.100,750000.100,131420.000,194119.600,145514.000,168469.400,0.000
186770.700,185570.400,750000.100,750000.100,131424.300,193634.300,145594.700,168068.400,0.000
186342.800,185136.900,750000.100,750000.100,131490.000,193193.600,145729.000,167714.400,0.000
185927.500,184732.100,750000.100,750000.100,131587.700,192787.800,145898.100,167384.200,0.000
185537.000,184379.600,750000.100,750000.100,131775.700,192449.700,146169.300,167106.400,0.000
185136.600,183980.300,749609.500,750000.100,131850.400,192051.000,146321.800,166768.300,0.000
184767.600,183596.100,748110.100,748555.900,131904.800,191655.100,146445.700,166443.300,0.000
184426.300,183249.400,746675.500,747120.900,132019.000,191301.100,146625.900,166168.000,0.000
184090.200,182923.900,745303.400,745747.900,132159.500,190978.000,146834.300,165906.500,0.000
183771.700,182638.700,743990.200,744434.000,132372.300,190709.800,147129.700,165680.200,0.000
183447.400,182313.300,742731.600,743174.500,132485.100,190387.800,147320.700,165404.700,0.000
183159.000,182009.700,741528.800,741970.700,132582.200,190071.700,147485.100,165145.700,0.000
182887.300,181736.000,740377.300,740818.300,132730.700,189791.300,147698.800,164924.700,0.000
182620.800,181477.800,739274.400,739714.800,132904.500,189535.200,147942.000,164718.300,0.000
182368.200,181254.100,738218.100,738657.600,133150.400,189329.500,148268.200,164548.100,0.000
182104.100,180989.100,737205.700,737645.000,133291.100,189066.500,148481.800,164321.600,0.000
181866.200,180735.700,736236.000,736675.000,133410.500,188799.800,148664.000,164103.800,0.000
181658.100,180520.700,735308.600,735746.700,133588.800,188576.700,148902.800,163935.600,0.000
181442.700,180315.700,734417.400,734854.800,133782.500,188371.900,149158.500,163770.000,0.000
181240.600,180144.200,733564.200,734001.000,134055.300,188219.000,149505.500,163642.600,0.000
181017.600,179922.700,732745.500,733182.300,134220.100,188003.900,149739.500,163455.000,0.000
180821.800,179713.000,731962.400,732398.500,134363.200,187787.200,149941.800,163277.100,0.000
180648.700,179534.000,731211.800,731647.400,134558.400,187604.000,150191.800,163137.100,0.000
180473.900,179366.800,730489.800,730924.900,134768.800,187436.100,150460.700,163004.700,0.000
180311.200,179237.000,729802.400,730237.600,135059.000,187325.500,150823.700,162914.500,0.000
180122.000,179050.500,729140.800,729575.600,135242.200,187148.400,151070.400,162758.900,0.000
179968.000,178883.500,728507.300,728941.300,135408.000,186971.700,151291.300,162617.300,0.000
179840.400,178746.800,727903.900,728337.500,135628.900,186831.300,151561.400,162516.100,0.000
179695.700,178606.600,727320.500,727753.500,135853.300,186694.800,151841.000,162407.200,0.000
179567.200,178506.000,726760.600,727193.400,136154.700,186615.600,152212.600,162339.200,0.000
179410.100,178348.500,726222.500,726655.700,136346.000,186464.600,152465.100,162206.500,0.000
179284.600,178202.500,725706.000,726138.900,136518.500,186308.800,152690.000,162086.600,0.000
179179.500,178086.000,725212.300,725644.900,136740.700,186186.800,152960.100,162001.300,0.000
179072.600,177985.100,724738.600,725170.800,136984.800,186088.300,153253.000,161924.800,0.000
178966.900,177912.100,724285.100,724716.900,137302.200,186033.200,153634.200,161879.700,0.000
178838.700,177785.300,723847.900,724279.800,137507.200,185910.500,153895.000,161768.600,0.000
178736.100,177669.900,723432.300,723863.600,137694.900,185786.700,154129.200,161668.500,0.000
178650.000,177573.800,723031.300,723461.900,137925.600,185686.300,154402.800,161596.300,0.000
178564.600,177491.500,722645.300,723075.800,138175.400,185603.400,154696.700,161532.000,0.000
178479.400,177436.200,722275.600,722705.900,138493.600,185565.400,155077.700,161501.500,0.000
178375.200,177328.700,721918.300,722348.400,138700.100,185459.100,155339.200,161405.500,0.000
178300.100,177235.500,721577.800,722007.900,138899.400,185355.500,155584.900,161326.000,0.000
178229.700,177151.400,721249.400,721678.900,139135.500,185271.700,155865.000,161270.800,0.000
178159.600,177090.200,720935.600,721365.100,139403.000,185214.300,156178.100,161230.100,0.000
178082.100,177043.500,720631.600,721061.300,139724.600,185187.400,156557.300,161208.200,0.000
177988.400,176945.400,720337.800,720767.300,139932.600,185094.200,156819.600,161123.500,0.000
177919.600,176861.100,720059.400,720488.100,140121.200,184998.700,157054.900,161045.900,0.000
177869.600,176804.400,719791.400,720220.100,140366.200,184938.400,157338.900,161009.300,0.000
177811.900,176751.200,719532.900,719962.100,140627.200,184887.300,157638.500,160975.400,0.000
177749.100,176718.100,719285.800,719714.600,140952.200,184876.700,158010.600,160962.300,0.000
177668.000,176636.300,719044.600,719473.600,141168.300,184796.100,158268.600,160883.900,0.000
177621.700,176571.100,718815.900,719244.500,141376.200,184717.500,158512.000,160825.800,0.000
177584.300,176522.700,718595.300,719023.400,141626.300,184666.800,158794.800,160796.500,0.000
177531.000,176476.100,718383.400,718811.400,141887.500,184623.000,159088.700,160763.700,0.000
177485.400,176461.000,718179.800,718607.600,142219.200,184627.400,159467.500,160761.900,0.000
177416.900,176396.800,717983.300,718411.200,142443.300,184562.400,159733.000,160698.000,0.000
177381.800,176344.800,717796.600,718224.100,142653.200,184497.900,159974.400,160646.200,0.000
177360.500,176314.200,717616.500,718044.300,142906.700,184460.800,160256.500,160624.500,0.000
177320.100,176280.400,717441.700,717869.300,143171.700,184432.200,160556.700,160604.400,0.000
177276.700,176260.000,717269.100,717696.700,143491.300,184432.400,160925.700,160603.500,0.000
177216.400,176196.900,717102.000,717529.600,143702.400,184370.600,161179.100,160542.000,0.000
177177.000,176143.700,716945.900,717373.300,143903.700,184310.600,161413.300,160500.500,0.000
177157.400,176119.500,716798.500,717225.900,144159.200,184280.800,161695.700,160493.400,0.000
177129.900,176099.900,716651.100,717078.500,144429.200,184260.600,161994.200,160484.100,0.000
177097.300,176091.600,716511.700,716938.900,144755.500,184273.100,162365.300,160494.400,0.000
177049.000,176038.000,716375.900,716803.100,144971.200,184221.400,162618.200,160440.400,0.000
177021.300,175993.600,716245.900,716672.900,145175.800,184165.200,162848.900,160398.500,0.000
176999.100,175961.500,716121.700,716548.600,145420.000,184126.900,163115.700,160381.700,0.000
176974.000,175942.700,715999.400,716426.400,145683.800,184105.300,163404.300,160371.800,0.000
176952.500,175948.600,715884.600,716311.800,146019.000,184127.800,163779.100,160392.100,0.000
176907.900,175897.400,715771.600,716198.400,146239.500,184079.400,164032.000,160339.300,0.000
176883.800,175855.600,715663.400,716090.000,146441.800,184027.900,164258.000,160296.100,0.000
176880.800,175841.900,715561.400,715988.000,146691.000,184007.000,164528.400,160291.200,0.000
176863.900,175833.800,715459.400,715885.600,146956.500,183996.100,164818.300,160285.800,0.000
176845.600,175843.200,715364.800,715791.300,147295.400,184030.200,165193.700,160307.700,0.000
176794.300,175792.500,715268.300,715694.300,147508.500,183985.200,165439.000,160253.300,0.000
176778.000,175757.400,715178.100,715604.200,147708.900,183943.300,165667.400,160220.800,0.000
176769.200,175734.600,715090.300,715516.700,147950.600,183918.800,165929.400,160214.800,0.000
176764.900,175735.400,715008.800,715434.500,148228.800,183926.100,166228.700,160230.200,0.000
176747.300,175748.700,714926.800,715352.800,148559.900,183963.000,166595.500,160260.600,0.000
176687.000,175685.400,714840.800,715266.400,148754.400,183904.600,166823.200,160204.000,0.000
176671.600,175652.900,714763.900,715189.400,148951.900,183860.400,167045.700,160176.300,0.000
176670.500,175640.800,714692.100,715118.000,149198.000,183841.600,167309.400,160176.900,0.000
176657.300,175633.000,714618.800,715044.600,149458.000,183831.300,167589.300,160179.000,0.000
176644.700,175646.500,714549.800,714975.800,149789.600,183862.100,167953.100,160208.400,0.000
176607.200,175602.400,714483.200,714909.100,149997.900,183819.700,168188.300,160163.500,0.000
176594.200,175567.200,714417.500,714843.100,150189.800,183775.300,168397.100,160127.300,0.000
176595.000,175558.800,714354.000,714779.100,150430.600,183755.800,168648.500,160124.400,0.000
176588.300,175558.700,714293.300,714718.800,150690.600,183758.200,168922.600,160129.600,0.000
176582.900,175586.000,714238.100,714663.400,151028.400,183811.200,169288.500,160173.000,0.000
176545.800,175552.000,714180.400,714605.800,151244.700,183783.200,169525.300,160135.100,0.000
176528.500,175516.100,714124.800,714550.200,151436.600,183743.300,169733.400,160103.900,0.000
176526.100,175503.800,714073.300,714498.900,151676.200,183726.000,169988.300,160108.100,0.000
176514.100,175498.500,714020.800,714446.100,151935.900,183724.700,170261.900,160114.200,0.000
176503.900,175513.600,713968.300,714393.800,152253.600,183760.700,170608.300,160141.000,0.000
176470.300,175476.800,713919.800,714345.200,152459.600,183724.900,170837.400,160102.300,0.000
176466.200,175453.500,713875.400,714300.400,152656.300,183687.900,171045.300,160075.100,0.000
176471.800,175448.700,713829.300,714254.400,152895.000,183676.600,171293.800,160076.800,0.000
176470.300,175457.300,713789.700,714215.000,153159.500,183686.900,171568.900,160090.000,0.000
176461.800,175478.300,713745.800,714170.800,153474.600,183723.200,171906.200,160117.700,0.000
176430.900,175444.300,713702.300,714127.000,153682.100,183695.200,172132.600,160085.400,0.000
176421.800,175415.400,713659.300,714084.400,153863.500,183655.400,172326.400,160055.800,0.000
176425.300,175412.100,713620.900,714046.300,154095.500,183643.400,172564.900,160060.200,0.000
176423.900,175418.200,713585.600,714009.900,154349.600,183650.200,172829.800,160073.700,0.000
176419.500,175439.200,713547.000,713971.900,154663.300,183691.500,173170.400,160106.000,0.000
176391.000,175407.400,713508.500,713933.800,154868.600,183662.100,173393.500,160070.300,0.000
176387.500,175391.600,713476.400,713901.600,155065.200,183635.400,173598.100,160049.000,0.000
176385.700,175382.200,713442.900,713868.200,155293.000,183620.200,173832.600,160049.600,0.000
176384.400,175386.400,713410.600,713835.300,155548.100,183627.100,174095.300,160066.200,0.000
176372.400,175401.800,713376.600,713801.000,155855.100,183663.800,174421.000,160094.700,0.000
176345.100,175367.000,713344.800,713769.600,156054.200,183634.600,174635.900,160061.200,0.000
176341.200,175340.000,713313.700,713738.100,156235.000,183601.300,174822.900,160034.100,0.000
176346.400,175333.200,713281.100,713705.900,156459.000,183586.200,175045.700,160034.800,0.000
176349.500,175341.900,713252.600,713677.600,156711.100,183590.400,175302.300,160050.200,0.000
176344.800,175366.300,713223.600,713649.300,157025.600,183634.600,175635.800,160088.500,0.000
176319.900,175337.600,713196.400,713621.500,157224.900,183607.500,175851.500,160059.000,0.000
176320.600,175317.000,713172.300,713597.200,157407.800,183575.400,176040.400,160037.500,0.000
176330.700,175314.400,713149.700,713574.400,157639.600,183568.800,176272.100,160046.500,0.000
176321.900,175312.200,713122.200,713546.800,157875.800,183567.100,176514.700,160047.600,0.000
176320.000,175337.500,713098.000,713522.600,158183.400,183608.600,176842.000,160078.300,0.000
176298.300,175312.000,713074.600,713499.300,158384.100,183584.900,177055.500,160047.800,0.000
176291.000,175287.600,713050.600,713475.600,158559.600,183548.900,177235.700,160017.800,0.000
176297.400,175284.500,713025.500,713450.300,158781.100,183539.800,177458.100,160019.500,0.000
176301.700,175296.000,713004.900,713429.400,159027.600,183551.400,177710.000,160035.500,0.000
176302.900,175326.600,712984.300,713408.200,159337.500,183600.400,178035.300,160073.400,0.000
176284.500,175303.800,712963.400,713387.500,159534.300,183582.500,178242.500,160046.500,0.000
176275.500,175277.600,712941.600,713365.900,159703.900,183549.700,178414.800,160020.200,0.000
176273.700,175266.100,712921.700,713346.200,159919.600,183537.400,178627.900,160021.800,0.000
176264.300,175264.200,712900.700,713325.200,160153.400,183537.900,178862.900,160028.600,0.000
176268.800,175298.000,712886.100,713310.300,160465.200,183592.100,179190.200,160072.700,0.000
176236.500,175263.000,712864.400,713288.300,160648.300,183559.400,179380.800,160033.200,0.000
176221.300,175231.600,712841.800,713266.000,160812.000,183518.700,179545.800,160002.400,0.000
176231.500,175229.500,712826.100,713250.800,161030.400,183515.100,179761.500,160013.400,0.000
176233.800,175241.300,712807.900,713232.700,161268.400,183526.500,179997.300,160029.600,0.000
176232.500,175271.300,712790.600,713214.800,161566.100,183572.600,180307.100,160064.100,0.000
176215.900,175251.600,712774.800,713198.900,161759.100,183554.000,180509.800,160040.100,0.000
176207.900,175223.600,712756.700,713180.800,161918.400,183515.300,180669.600,160008.800,0.000
176215.500,175222.300,712741.200,713165.300,162130.000,183506.600,180876.900,160016.900,0.000
176221.000,175237.100,712726.200,713150.300,162365.300,183517.900,181111.800,160032.000,0.000
176223.000,175268.900,712709.000,713133.000,162665.000,183567.100,181423.000,160068.800,0.000
176200.400,175240.700,712692.800,713116.600,162852.000,183544.900,181615.900,160038.600,0.000
176195.200,175216.600,712679.900,713103.600,163018.300,183513.800,181780.100,160013.300,0.000
176200.900,175211.000,712665.600,713090.100,163230.200,183507.000,181982.500,160015.300,0.000
176207.900,175229.300,712655.100,713079.300,163475.800,183530.000,182222.400,160034.700,0.000
176197.600,175248.200,712641.100,713065.000,163768.600,183571.000,182522.000,160063.600,0.000
176166.500,175214.700,712624.100,713048.300,163943.800,183535.600,182699.500,160026.300,0.000
176168.300,175198.100,712611.300,713035.100,164113.000,183507.300,182861.000,160008.500,0.000
176177.800,175194.400,712599.800,713023.400,164319.800,183497.700,183055.200,160013.600,0.000
176182.600,175206.700,712588.100,713011.600,164551.100,183507.600,183278.300,160025.200,0.000
176183.300,175229.500,712575.200,712998.300,164838.500,183550.700,183575.300,160056.900,0.000
176165.200,175203.200,712560.600,712984.300,165015.400,183526.700,183755.600,160024.700,0.000
176170.300,175190.200,712548.800,712973.200,165183.500,183504.000,183917.700,160007.700,0.000
176185.200,175199.500,712540.600,712964.600,165402.300,183510.400,184127.500,160025.600,0.000
176180.900,175200.300,712528.100,712951.800,165624.600,183516.600,184344.800,160034.100,0.000
176185.600,175233.900,712518.100,712941.600,165914.900,183566.000,184639.800,160070.800,0.000
176168.200,175214.400,712506.600,712930.500,166090.400,183545.400,184813.900,160040.900,0.000
176145.900,175178.800,712491.200,712915.100,166234.000,183500.100,184949.200,160005.200,0.000
176149.400,175170.000,712480.800,712904.600,166438.000,183491.200,185139.400,160016.300,0.000
176152.800,175176.200,712470.600,712894.400,166661.100,183501.300,185353.500,160033.800,0.000
176158.100,175212.000,712462.400,712886.600,166953.500,183554.200,185651.600,160080.900,0.000
176137.800,175186.800,712448.500,712872.600,167123.200,183526.100,185823.500,160052.700,0.000
176141.500,175169.200,712437.800,712862.000,167280.600,183496.900,185970.500,160032.400,0.000
176157.300,175176.800,712432.200,712856.200,167489.800,183493.500,186162.700,160044.700,0.000
176162.700,175188.600,712424.800,712848.600,167709.000,183501.200,186370.400,160056.900,0.000
176159.700,175214.300,712413.900,712837.800,167986.200,183543.000,186650.600,160090.300,0.000
176137.500,175190.000,712402.100,712825.900,168162.500,183521.400,186822.500,160063.600,0.000
176134.200,175169.400,712393.800,712818.000,168321.500,183495.400,186969.000,160041.500,0.000
176147.100,175168.900,712388.100,712812.000,168524.000,183491.600,187156.300,160048.300,0.000
176157.000,175180.600,712379.900,712803.800,168750.800,183503.900,187370.600,160064.300,0.000
176159.700,175208.600,712370.200,712794.600,169035.800,183552.400,187657.100,160100.200,0.000
176141.100,175184.000,712362.100,712786.100,169207.000,183528.600,187826.400,160069.700,0.000
176144.600,175171.300,712354.400,712778.700,169365.300,183502.100,187975.800,160051.700,0.000
176150.400,175166.600,712345.200,712769.600,169559.400,183492.100,188155.000,160054.800,0.000
176152.600,175174.800,712337.000,712761.400,169775.200,183503.000,188359.900,160070.000,0.000
176153.800,175209.200,712330.200,712754.100,170059.800,183555.200,188646.900,160109.800,0.000
176130.200,175184.100,712322.400,712745.700,170226.600,183535.600,188810.500,160080.000,0.000
176118.500,175158.000,712311.600,712735.600,170367.200,183506.500,188937.600,160052.600,0.000
176126.500,175158.700,712304.000,712728.300,170561.500,183500.700,189114.700,160066.700,0.000
176138.000,175176.000,712301.300,712725.800,170788.100,183521.300,189328.900,160094.000,0.000
176133.200,175197.700,712293.000,712717.800,171059.600,183566.000,189601.300,160128.300,0.000
176111.100,175177.700,712283.900,712708.800,171221.200,183544.800,189758.800,160101.300,0.000
176111.500,175166.900,712276.400,712700.700,171369.300,183518.100,189893.400,160083.900,0.000
176121.900,175169.800,712271.300,712695.300,171562.200,183515.100,190065.000,160093.400,0.000
176127.100,175181.000,712267.700,712691.600,171779.000,183531.000,190264.900,160110.000,0.000
176128.000,175211.000,712261.900,712685.600,172054.200,183578.800,190540.700,160148.600,0.000
176109.800,175193.300,712257.600,712680.800,172224.800,183562.300,190705.300,160127.000,0.000
176103.900,175166.800,712250.500,712673.700,172361.600,183528.000,190821.900,160097.400,0.000
176113.700,175158.700,712240.000,712663.600,172542.000,183518.400,190979.000,160096.600,0.000
176120.900,175168.000,712231.800,712655.600,172744.000,183527.400,191167.000,160105.000,0.000
176129.600,175208.900,712229.400,712653.300,173026.100,183587.300,191447.300,160150.700,0.000
176104.300,175185.800,712226.900,712650.400,173194.200,183568.600,191606.200,160125.300,0.000
176096.700,175160.600,712218.700,712642.100,173326.700,183531.900,191721.000,160094.000,0.000
176104.800,175155.300,712206.800,712630.600,173493.400,183514.500,191869.900,160091.900,0.000
176114.100,175174.400,712201.200,712625.300,173710.500,183536.300,192072.300,160114.200,0.000
176110.800,175201.400,712197.300,712621.800,173984.600,183587.700,192345.800,160152.000,0.000
176087.700,175173.700,712189.000,712613.400,174142.200,183564.000,192496.300,160122.000,0.000
176079.000,175140.500,712181.100,712604.800,174271.100,183524.300,192606.900,160088.400,0.000
176092.200,175139.500,712173.200,712596.800,174452.100,183513.000,192764.000,160087.600,0.000
176107.600,175161.100,712169.400,712593.300,174671.600,183536.700,192965.800,160112.300,0.000
176106.800,175187.500,712166.500,712590.800,174939.200,183582.400,193230.800,160150.400,0.000
176083.300,175162.600,712159.600,712583.100,175089.800,183555.800,193373.400,160116.800,0.000
176089.400,175148.200,712153.700,712576.900,175230.700,183533.100,193497.100,160096.300,0.000
176103.500,175152.800,712150.600,712574.100,175417.800,183531.900,193660.800,160103.000,0.000
176111.400,175165.200,712143.900,712567.500,175619.100,183541.500,193841.400,160111.100,0.000
176109.300,175192.200,712138.100,712561.500,175880.300,183585.000,194096.700,160143.000,0.000
176087.000,175167.000,712132.900,712555.900,176030.100,183559.000,194237.200,160114.800,0.000
176091.200,175150.900,712130.300,712553.400,176169.800,183532.300,194360.300,160098.000,0.000
176103.700,175153.300,712126.500,712549.700,176352.700,183526.400,194523.100,160107.200,0.000
176101.600,175155.600,712119.000,712542.200,176549.600,183530.700,194704.000,160117.700,0.000
176105.000,175187.300,712114.300,712537.400,176817.400,183577.400,194968.000,160154.800,0.000
176086.500,175166.400,712107.500,712530.800,176970.800,183555.400,195110.300,160124.300,0.000
176089.400,175148.600,712103.300,712526.600,177104.100,183527.900,195226.100,160101.000,0.000
176097.400,175143.600,712099.800,712522.900,177276.300,183516.000,195374.300,160100.700,0.000
176103.200,175154.100,712096.500,712519.400,177477.200,183523.400,195556.200,160113.500,0.000
176108.400,175186.800,712090.800,712514.400,177738.300,183568.500,195812.600,160151.800,0.000
176088.000,175166.300,712084.700,712508.600,177888.900,183549.700,195949.500,160122.100,0.000
176093.800,175152.400,712081.800,712505.200,178024.100,183527.700,196066.300,160102.300,0.000
176104.400,175150.400,712079.100,712502.900,178198.300,183519.400,196217.800,160108.700,0.000
176108.200,175157.000,712073.700,712497.600,178391.600,183528.000,196391.500,160120.000,0.000
176107.300,175181.700,712068.800,712491.900,178643.500,183570.200,196639.800,160150.400,0.000
176088.700,175158.800,712064.800,712488.600,178788.700,183550.400,196773.200,160116.600,0.000
176089.600,175141.000,712062.600,712486.300,178926.700,183528.000,196890.500,160101.400,0.000
176096.700,175137.300,712057.500,712481.200,179099.800,183517.800,197037.900,160107.400,0.000
176107.400,175151.300,712055.600,712479.300,179297.300,183532.300,197216.000,160123.900,0.000
176112.400,175184.300,712053.400,712476.900,179554.700,183579.600,197466.900,160159.100,0.000
176090.100,175161.600,712046.700,712470.500,179697.800,183555.500,197596.800,160129.600,0.000
176090.900,175146.300,712042.700,712466.600,179821.500,183528.500,197701.700,160108.800,0.000
176102.500,175148.700,712040.400,712464.400,179992.300,183521.800,197846.800,160116.500,0.000
176116.500,175163.800,712037.200,712460.800,180188.500,183536.300,198021.700,160134.600,0.000
176114.600,175186.700,712033.000,712456.400,180438.600,183581.400,198265.700,160166.700,0.000
176086.900,175155.600,712027.800,712451.900,180571.500,183554.600,198387.800,160130.700,0.000
176083.400,175135.800,712023.200,712447.300,180692.900,183526.400,198493.300,160109.700,0.000
176099.800,175142.800,712020.100,712443.600,180867.900,183523.000,198647.800,160124.000,0.000
176108.800,175154.200,712017.400,712441.300,181061.300,183534.300,198823.100,160142.600,0.000
176111.300,175182.500,712013.500,712437.700,181312.700,183582.900,199068.400,160180.400,0.000
176088.700,175158.500,712007.300,712431.400,181450.400,183560.000,199195.400,160150.300,0.000
176092.400,175143.400,712004.800,712428.600,181581.300,183534.800,199302.800,160131.900,0.000
176101.500,175139.000,712001.300,712424.700,181746.600,183523.300,199437.800,160134.700,0.000
176105.700,175151.300,711997.300,712420.900,181936.100,183535.000,199606.000,160148.600,0.000
176110.400,175184.900,711994.600,712418.200,182190.000,183584.600,199855.300,160186.600,0.000
176090.700,175162.200,711991.800,712414.900,182332.000,183562.700,199985.500,160159.600,0.000
176085.400,175139.700,711989.800,712413.000,182453.500,183531.900,200082.900,160136.000,0.000
176100.900,175143.600,711988.800,712411.800,182622.600,183530.600,200220.900,160142.200,0.000
176103.100,175151.200,711984.200,712407.400,182806.700,183537.000,200378.500,160150.500,0.000
176103.000,175178.600,711981.900,712405.200,183054.600,183581.000,200620.800,160186.100,0.000
176090.400,175162.700,711979.400,712403.000,183198.500,183562.900,200748.800,160163.800,0.000
176092.700,175147.700,711976.700,712400.100,183320.700,183538.900,200845.500,160144.700,0.000
176093.200,175137.500,711971.900,712395.200,183476.900,183526.500,200974.000,160143.500,0.000
176098.300,175151.900,711968.000,712391.500,183665.000,183539.500,201138.800,160156.200,0.000
176098.600,175182.500,711965.100,712388.500,183914.100,183587.100,201374.400,160191.500,0.000
176073.500,175154.000,711961.100,712384.000,184045.000,183562.700,201488.200,160157.800,0.000
176072.800,175132.700,711956.300,712379.800,184162.900,183533.700,201585.600,160135.100,0.000
176089.000,175135.000,711954.700,712378.500,184328.600,183531.900,201725.800,160147.800,0.000
176094.700,175146.800,711950.500,712374.400,184509.700,183543.200,201882.600,160161.300,0.000
176097.900,175174.800,711949.700,712373.200,184756.800,183590.200,202120.200,160200.700,0.000
176082.700,175157.800,711949.100,712372.500,184897.000,183572.400,202245.800,160178.100,0.000
176070.600,175132.700,711942.800,712366.500,185007.600,183535.900,202331.500,160150.300,0.000
176077.700,175131.300,711940.000,712363.400,185166.400,183526.400,202459.000,160155.300,0.000
176087.900,175148.500,711936.700,712360.300,185350.100,183538.900,202619.100,160169.300,0.000
176095.500,175183.200,711934.300,712358.300,185593.900,183588.100,202855.000,160204.300,0.000
176075.100,175161.200,711930.800,712354.400,185724.500,183562.800,202966.900,160169.300,0.000
176081.100,175149.700,711930.900,712354.300,185849.500,183540.500,203066.100,160155.000,0.000
176092.100,175148.100,711929.800,712353.100,186008.500,183534.400,203197.600,160161.800,0.000
176098.000,175162.600,711927.800,712351.000,186193.300,183547.200,203356.100,160173.700,0.000
176096.000,175187.600,711924.600,712348.000,186434.800,183594.000,203584.100,160205.900,0.000
176076.000,175162.700,711920.900,712344.700,186561.300,183570.700,203696.200,160174.600,0.000
176082.000,175152.200,711917.500,712341.100,186678.900,183549.000,203789.800,160156.400,0.000
176091.600,175150.300,711917.300,712340.600,186843.200,183543.000,203920.500,160165.300,0.000
176097.600,175162.700,711915.100,712338.300,187023.000,183553.500,204077.200,160179.400,0.000
176100.700,175192.000,711912.300,712335.800,187261.700,183599.700,204306.800,160215.900,0.000
176079.800,175163.600,711908.600,712332.000,187385.900,183572.600,204411.500,160183.600,0.000
176081.200,175144.800,711904.600,712328.100,187500.300,183544.600,204498.700,160165.500,0.000
176095.400,175149.100,711903.300,712326.400,187661.000,183541.800,204630.000,160176.000,0.000
176104.600,175165.400,711902.400,712325.800,187846.700,183559.900,204788.600,160195.400,0.000
176100.100,175187.900,711899.800,712323.100,188080.500,183602.100,205012.100,160227.100,0.000
176082.400,175166.800,711899.000,712322.300,188206.100,183581.700,205116.900,160194.000,0.000
176084.200,175151.900,711896.400,712319.600,188321.600,183555.400,205205.400,160171.600,0.000
176098.300,175152.800,711894.800,712318.200,188481.000,183547.900,205337.300,160177.300,0.000
176109.900,175168.500,711894.500,712318.200,188664.900,183564.100,205498.000,160193.700,0.000
176111.800,175196.300,711892.400,712316.300,188899.700,183608.100,205720.600,160226.500,0.000
176086.500,175163.400,711887.400,712311.100,189018.300,183576.800,205817.600,160188.800,0.000
176088.500,175143.300,711885.100,712308.600,189131.400,183548.000,205901.100,160167.400,0.000
176100.700,175143.900,711883.800,712307.500,189288.300,183545.800,206027.800,160174.200,0.000
176108.200,175160.200,711882.400,712306.100,189467.600,183562.000,206184.200,160189.900,0.000
176109.500,175192.400,711880.400,712303.600,189702.200,183609.200,206408.000,160223.200,0.000
176090.700,175168.500,711878.800,712302.200,189828.800,183586.100,206514.200,160196.500,0.000
176091.300,175142.500,711872.600,712295.900,189931.200,183548.200,206589.400,160169.800,0.000
176100.700,175139.300,711869.600,712293.300,190079.800,183539.400,206709.700,160176.600,0.000
176105.900,175153.300,711870.100,712294.100,190259.200,183557.400,206866.400,160199.300,0.000
176105.000,175183.800,711869.300,712293.200,190494.800,183604.900,207091.100,160240.500,0.000
176083.400,175158.000,711865.900,712289.100,190612.100,183575.900,207187.400,160206.800,0.000
176088.600,175147.900,711865.300,712288.900,190726.400,183557.500,207271.800,160194.200,0.000
176098.900,175150.400,711864.800,712288.300,190879.900,183554.900,207394.100,160203.700,0.000
176100.100,175160.300,711863.100,712286.000,191046.900,183561.300,207533.500,160212.700,0.000
176104.200,175187.700,711861.400,712284.700,191275.600,183610.500,207749.100,160246.500,0.000
176091.700,175167.200,711858.800,712282.400,191397.500,183591.300,207850.800,160217.000,0.000
176103.000,175160.600,711858.300,712281.600,191511.300,183570.500,207936.300,160200.100,0.000
176119.800,175171.300,711858.100,712281.100,191667.000,183568.300,208060.300,160208.400,0.000
176125.900,175185.100,711856.300,712279.700,191841.400,183581.500,208206.700,160219.100,0.000
176133.800,175218.800,711856.400,712279.500,192073.600,183631.000,208423.700,160253.300,0.000
176113.500,175194.200,711853.600,712276.900,192189.200,183607.500,208518.100,160219.600,0.000
176117.300,175182.500,711854.400,712277.800,192300.600,183587.200,208599.100,160202.400,0.000
176129.200,175185.700,711852.900,712276.400,192453.700,183583.700,208715.800,160211.300,0.000
176131.700,175195.800,711851.500,712274.500,192623.400,183595.700,208854.500,160225.600,0.000
176134.800,175224.500,711849.900,712272.900,192851.600,183644.300,209068.100,160262.500,0.000
176120.400,175205.000,711848.200,712271.600,192968.200,183626.500,209163.100,160236.200,0.000
176120.000,175185.400,711846.900,712270.400,193069.300,183599.800,209232.000,160213.800,0.000
176123.500,175180.000,711843.100,712266.300,193211.000,183587.000,209338.000,160215.200,0.000
176129.600,175192.400,711840.900,712263.900,193379.300,183598.900,209477.800,160230.100,0.000
176134.500,175219.500,711840.100,712263.100,193599.000,183641.400,209685.000,160262.000,0.000
176120.400,175198.600,711838.600,712262.100,193712.100,183618.400,209776.300,160231.300,0.000
176124.300,175183.400,711836.400,712259.600,193812.300,183589.000,209847.500,160210.300,0.000
176136.000,175185.400,711834.800,712258.100,193954.000,183582.100,209960.800,160219.200,0.000
176142.200,175203.500,711834.100,712257.300,194124.300,183598.000,210101.300,160237.400,0.000
176141.200,175233.100,711834.100,712257.300,194348.300,183643.800,210304.800,160270.400,0.000
176118.900,175206.200,711830.600,712253.800,194454.700,183617.700,210389.000,160239.300,0.000
176117.100,175188.800,711829.300,712252.600,194550.800,183589.200,210458.200,160220.100,0.000
176126.000,175189.600,711827.800,712251.100,194690.500,183583.000,210566.900,160226.300,0.000
176133.000,175204.400,711827.300,712250.200,194858.900,183601.300,210705.000,160241.500,0.000
176128.500,175226.900,711825.600,712248.500,195081.100,183647.500,210908.900,160272.100,0.000
176110.300,175205.300,711824.000,712246.900,195187.300,183623.500,210990.900,160237.300,0.000
176110.900,175186.700,711820.700,712243.800,195281.300,183591.800,211053.900,160215.900,0.000
176121.700,175186.100,711819.900,712242.900,195419.000,183586.500,211159.400,160226.500,0.000
176124.900,175199.300,711820.300,712243.400,195582.500,183603.200,211294.300,160243.500,0.000
176125.600,175229.500,711819.800,712243.000,195802.700,183647.800,211496.100,160275.500,0.000
176109.000,175208.700,711817.700,712240.700,195906.700,183624.300,211577.500,160245.100,0.000
176113.100,175191.700,711816.800,712239.600,195999.000,183599.900,211638.800,160224.200,0.000
176126.200,175190.400,711814.500,712237.300,196134.100,183591.600,211741.300,160230.300,0.000
176140.300,175214.400,711814.300,712237.100,196298.700,183612.200,211877.400,160251.600,0.000
176140.100,175245.200,711814.100,712237.200,196513.600,183662.600,212077.500,160287.600,0.000
176111.300,175214.100,711810.800,712233.600,196610.900,183636.200,212153.700,160253.400,0.000
176110.600,175198.200,711808.300,712230.900,196708.500,183616.000,212221.900,160240.300,0.000
176124.300,175201.100,711806.900,712230.100,196846.600,183613.000,212321.500,160249.000,0.000
176130.300,175215.300,711806.100,712229.700,197008.600,183623.800,212451.500,160267.100,0.000
176125.800,175234.000,711802.500,712226.200,197213.400,183660.900,212638.700,160293.000,0.000
176114.200,175217.700,711803.800,712227.100,197321.900,183647.600,212722.500,160266.500,0.000
176117.600,175204.000,711801.900,712224.800,197412.600,183621.200,212780.700,160244.400,0.000
176128.100,175207.200,711801.000,712223.600,197547.800,183614.300,212880.300,160251.000,0.000
176134.300,175217.800,711799.300,712222.600,197702.400,183626.100,213004.500,160263.500,0.000
176135.200,175244.300,711799.600,712222.600,197914.300,183670.600,213194.800,160293.800,0.000
176118.400,175226.100,711796.200,712219.000,198015.600,183648.700,213273.400,160266.000,0.000
176115.900,175207.100,711792.300,712215.400,198099.700,183616.600,213328.700,160241.500,0.000
176122.500,175203.400,711791.600,712214.900,198229.900,183606.700,213420.500,160244.000,0.000
176127.900,175216.900,711790.300,712213.000,198385.200,183618.600,213542.400,160257.100,0.000
176123.300,175239.900,711788.500,712211.100,198593.100,183662.600,213734.900,160287.200,0.000
176102.500,175213.900,711785.200,712207.900,198687.800,183637.300,213805.600,160254.700,0.000
176110.400,175204.800,711785.800,712208.300,198780.600,183615.400,213864.600,160238.000,0.000
176122.900,175206.200,711786.500,712209.100,198911.800,183608.200,213957.400,160244.100,0.000
176130.000,175219.600,711784.900,712207.200,199062.500,183617.800,214079.000,160260.100,0.000
176126.000,175243.300,711782.600,712205.200,199267.200,183659.700,214268.200,160291.000,0.000
176105.900,175219.400,711781.100,712203.900,199366.800,183635.900,214345.300,160259.900,0.000
176109.000,175199.300,711779.000,712201.700,199445.700,183603.300,214392.000,160234.200,0.000
176123.800,175199.900,711776.100,712198.900,199567.500,183590.000,214477.200,160236.000,0.000
176134.700,175215.600,711774.800,712198.100,199718.400,183603.900,214597.100,160253.100,0.000
176142.300,175248.100,711775.100,712198.100,199931.300,183656.600,214794.300,160293.400,0.000
176123.200,175222.800,711773.600,712196.400,200027.600,183630.800,214865.400,160261.500,0.000
176122.800,175201.300,711771.300,712194.500,200109.300,183602.700,214915.100,160237.500,0.000
176137.400,175203.200,711771.100,712194.500,200238.400,183600.300,215009.700,160245.800,0.000
176143.300,175217.100,711770.900,712194.400,200388.700,183610.600,215129.300,160259.200,0.000
176145.100,175245.600,711769.900,712193.100,200595.400,183656.900,215318.800,160294.000,0.000
176124.900,175222.000,711768.400,712191.900,200691.700,183633.500,215393.500,160266.300,0.000
176126.200,175207.600,711768.900,712192.400,200780.100,183610.300,215450.600,160249.000,0.000
176137.900,175207.200,711769.300,712192.300,200907.300,183606.600,215539.800,160255.800,0.000
176143.200,175219.300,711769.500,712192.100,201059.600,183621.500,215661.500,160274.400,0.000
176139.700,175241.700,711768.600,712191.300,201256.500,183661.800,215845.600,160304.700,0.000
176117.800,175210.300,711763.900,712186.800,201342.700,183635.800,215910.000,160268.200,0.000
176116.300,175190.900,711761.900,712185.000,201419.500,183608.500,215956.200,160244.000,0.000
176129.700,175196.900,711762.600,712185.900,201548.500,183607.200,216050.300,160256.700,0.000
176143.700,175220.100,711762.600,712185.300,201706.000,183628.500,216178.800,160284.900,0.000
176142.600,175246.300,711761.900,712184.800,201908.200,183671.300,216366.700,160316.300,0.000
176118.700,175218.800,711758.800,712182.300,201994.000,183643.400,216429.800,160279.500,0.000
176116.300,175199.500,711755.700,712178.800,202073.100,183617.000,216476.300,160256.100,0.000
176126.900,175200.000,711756.800,712179.800,202198.500,183615.300,216567.900,160265.300,0.000
176132.700,175212.800,711758.400,712181.500,202344.200,183632.800,216684.000,160282.700,0.000
176129.300,175240.500,711757.300,712180.400,202543.700,183679.700,216866.300,160315.500,0.000
176112.100,175220.700,711754.400,712177.400,202635.400,183657.900,216935.400,160287.200,0.000
176118.200,175206.900,711751.100,712174.100,202715.200,183633.600,216985.600,160269.300,0.000
176120.000,175198.300,711748.500,712171.400,202827.900,183619.400,217064.400,160268.200,0.000
176125.400,175211.800,711751.400,712174.400,202978.700,183634.300,217185.000,160287.600,0.000
176123.300,175237.600,711749.100,712171.900,203177.500,183674.900,217367.500,160317.700,0.000
176103.200,175214.500,711744.200,712166.900,203262.700,183647.400,217430.500,160283.100,0.000
176106.900,175202.300,711746.000,712168.400,203347.500,183626.700,217482.800,160267.000,0.000
176116.500,175203.800,711745.600,712168.100,203469.100,183621.200,217569.800,160272.100,0.000
176124.000,175215.900,711745.300,712168.100,203610.800,183635.100,217682.600,160284.600,0.000
176129.000,175244.800,711744.100,712167.200,203809.200,183680.600,217867.500,160320.500,0.000
176106.800,175216.900,711744.200,712167.100,203898.100,183653.500,217938.100,160290.700,0.000
176108.700,175201.500,711744.900,712167.300,203975.200,183626.800,217987.200,160273.000,0.000
176121.500,175204.300,711744.200,712166.900,204097.900,183627.500,218078.300,160283.300,0.000
176129.300,175216.500,711744.100,712166.700,204241.100,183642.900,218195.700,160296.100,0.000
176124.000,175238.000,711741.800,712164.100,204426.700,183683.400,218375.600,160321.900,0.000
176103.700,175217.400,711737.300,712159.800,204494.900,183655.900,218455.300,160289.400,0.000
176105.900,175204.900,711735.200,712158.100,204570.000,183630.600,218507.600,160274.700,0.000
176112.600,175202.600,711735.400,712158.400,204690.200,183627.300,218590.700,160283.100,0.000
176117.100,175213.500,711734.800,712157.400,204837.200,183640.000,218704.000,160295.400,0.000
176117.900,175237.000,711734.600,712157.000,205036.900,183683.000,218885.100,160326.000,0.000
176097.500,175210.900,711735.400,712158.300,205127.500,183662.300,218949.900,160297.400,0.000
176103.000,175193.600,711734.000,712157.100,205209.400,183636.800,218996.800,160277.300,0.000
176119.300,175194.800,711730.800,712153.600,205325.200,183626.500,219077.100,160276.000,0.000
176124.300,175206.400,711731.100,712153.500,205466.000,183635.500,219189.800,160290.500,0.000
176126.300,175238.800,711732.900,712155.500,205669.900,183682.900,219377.500,160328.400,0.000
176110.100,175219.500,711731.800,712154.600,205759.100,183658.700,219440.900,160295.800,0.000
176114.100,175205.100,711730.300,712153.400,205835.400,183633.800,219482.700,160273.000,0.000
176126.700,175208.600,711729.100,712152.600,205956.000,183633.100,219562.600,160280.900,0.000
176136.300,175227.500,711729.200,712152.100,206099.300,183651.800,219676.600,160301.800,0.000
176131.700,175252.700,711726.200,712148.700,206289.900,183694.300,219852.500,160335.100,0.000
176110.000,175230.700,711724.300,712147.300,206372.400,183669.100,219912.900,160305.900,0.000
176109.500,175214.300,711722.600,712145.400,206442.200,183643.500,219949.900,160285.000,0.000
176126.400,175221.200,711724.000,712146.800,206565.200,183647.800,220037.600,160302.700,0.000
176135.500,175231.100,711723.900,712146.400,206705.500,183664.600,220148.400,160324.200,0.000
176134.100,175254.000,711720.200,712143.000,206893.200,183708.500,220315.700,160352.900,0.000
176116.300,175232.700,711719.800,712142.200,206975.700,183686.500,220369.300,160322.000,0.000
176127.500,175227.000,711721.500,712144.300,207055.000,183665.400,220415.300,160311.900,0.000
176136.600,175221.100,711719.600,712141.900,207163.900,183657.000,220487.300,160316.200,0.000
176142.600,175231.100,711717.700,712139.700,207297.300,183670.900,220585.900,160328.700,0.000
176139.900,175258.300,711716.100,712138.100,207489.700,183719.900,220757.300,160362.400,0.000
176117.200,175235.300,711713.100,712135.600,207569.800,183697.700,220810.100,160333.100,0.000
176119.600,175223.000,711716.600,712139.400,207646.100,183680.100,220850.400,160319.900,0.000
176129.300,175226.000,711713.800,712136.600,207757.500,183678.200,220923.100,160323.800,0.000
176134.300,175242.100,711714.600,712137.400,207893.800,183695.400,221028.200,160339.100,0.000
176135.300,175272.500,711715.500,712138.500,208089.200,183746.800,221205.000,160377.400,0.000
176112.800,175242.100,711712.900,712135.300,208160.200,183721.200,221250.500,160341.900,0.000
176122.700,175232.700,711712.900,712135.100,208232.300,183704.000,221288.800,160325.800,0.000
176134.500,175234.100,711714.400,712137.100,208348.100,183699.700,221361.900,160331.700,0.000
176136.000,175242.000,711711.100,712134.100,208474.400,183701.500,221452.700,160338.700,0.000
176138.300,175269.600,711709.800,712132.900,208667.400,183746.000,221627.100,160373.700,0.000
176119.000,175245.500,711708.100,712131.200,208748.400,183720.900,221681.000,160340.300,0.000
176124.300,175232.800,711707.800,712131.000,208817.100,183695.500,221716.000,160321.900,0.000
176134.000,175234.000,711707.800,712130.800,208926.600,183686.400,221789.800,160329.000,0.000
176138.300,175246.300,711705.700,712128.300,209056.500,183695.200,221891.100,160343.200,0.000
176140.000,175274.500,711705.900,712127.900,209248.700,183739.900,222065.400,160376.000,0.000
176115.300,175241.300,711702.600,712125.100,209320.900,183706.800,222113.600,160339.000,0.000
176116.400,175222.200,711701.600,712123.500,209384.600,183673.900,222149.300,160319.100,0.000
176127.200,175222.300,711700.100,712122.100,209493.500,183664.800,222225.200,160327.100,0.000
176133.000,175235.200,711699.400,712121.700,209626.200,183677.200,222328.300,160343.700,0.000
176141.000,175269.800,711699.900,712122.500,209824.200,183727.200,222511.100,160385.800,0.000
176119.800,175243.000,711697.400,712120.200,209898.000,183698.400,222559.800,160347.600,0.000
176126.000,175232.800,711698.900,712121.300,209962.500,183672.300,222590.400,160324.000,0.000
176139.700,175239.100,711698.100,712120.300,210071.600,183671.800,222662.500,160331.200,0.000
176144.600,175254.100,711698.200,712120.400,210210.100,183690.200,222766.800,160348.000,0.000
176149.900,175282.900,711698.300,712120.400,210404.000,183738.100,222941.300,160384.100,0.000
176131.700,175256.500,711695.700,712117.500,210477.300,183710.500,222989.200,160350.700,0.000
176134.300,175241.300,711695.500,712117.300,210545.700,183684.600,223023.400,160334.000,0.000
176137.200,175233.400,711696.800,712119.000,210652.500,183675.100,223092.500,160339.400,0.000
176135.200,175240.100,711693.400,712116.400,210779.400,183680.800,223187.600,160349.300,0.000
176137.500,175272.100,711693.700,712116.500,210971.500,183731.200,223359.600,160386.800,0.000
176112.800,175243.200,711692.100,712114.600,211045.200,183704.800,223407.800,160354.200,0.000
176115.100,175222.900,711691.100,712113.900,211110.400,183676.900,223437.600,160332.700,0.000
176129.300,175221.200,711688.500,712111.400,211216.600,183669.000,223504.100,160340.100,0.000
176143.000,175239.600,711689.900,712112.600,211354.700,183688.100,223611.200,160362.800,0.000
176141.900,175262.600,711689.800,712112.100,211540.300,183731.500,223777.500,160393.400,0.000
176126.800,175239.100,711689.100,712111.300,211614.300,183710.600,223825.100,160364.000,0.000
176132.700,175227.600,711688.300,712110.800,211681.800,183687.800,223859.400,160347.000,0.000
176135.900,175221.300,711686.200,712108.400,211782.300,183672.400,223923.300,160346.900,0.000
176140.300,175234.600,711686.800,712108.800,211911.100,183687.000,224023.100,160361.300,0.000
176141.300,175260.800,711688.000,712110.200,212093.700,183732.700,224190.400,160394.900,0.000
176121.700,175237.600,711685.900,712108.300,212159.400,183704.500,224233.400,160361.500,0.000
176122.600,175220.000,711683.900,712106.400,212219.300,183676.200,224262.600,160339.700,0.000
176140.300,175223.800,711683.400,712105.700,212322.600,183671.300,224328.900,160347.200,0.000
176149.200,175241.600,711683.900,712106.100,212454.400,183687.200,224424.900,160363.000,0.000
176147.000,175266.100,711684.100,712105.900,212637.000,183731.800,224587.500,160394.300,0.000
176128.100,175243.500,711681.600,712103.600,212709.900,183706.600,224633.000,160364.200,0.000
176130.800,175227.100,711681.600,712104.000,212773.500,183678.400,224660.300,160344.200,0.000
176142.400,175229.700,711682.600,712104.700,212876.200,183669.900,224724.100,160347.600,0.000
176145.500,175238.100,711681.400,712103.100,213002.600,183678.200,224818.400,160360.600,0.000
176150.100,175270.800,711681.900,712104.000,213189.300,183726.900,224985.400,160395.500,0.000
176127.400,175242.600,711679.700,712101.900,213253.800,183698.100,225020.300,160355.200,0.000
176135.200,175228.800,711678.800,712100.900,213315.900,183673.800,225046.900,160336.100,0.000
176141.900,175225.700,711675.400,712097.100,213413.000,183661.100,225107.100,160338.200,0.000
176145.500,175240.500,711676.100,712097.600,213540.600,183676.700,225203.800,160355.400,0.000
176148.300,175270.500,711674.900,712096.900,213720.600,183725.000,225371.800,160391.300,0.000
176131.800,175244.300,711673.100,712095.300,213786.500,183703.600,225417.100,160360.000,0.000
176140.200,175233.800,711675.400,712097.000,213852.700,183683.800,225451.500,160347.500,0.000
176156.200,175242.600,711674.800,712096.100,213960.400,183683.900,225523.700,160360.900,0.000
176161.800,175254.800,711675.600,712097.400,214089.000,183698.400,225617.700,160375.700,0.000
176149.800,175268.300,711671.300,712093.000,214260.200,183731.700,225770.200,160396.200,0.000
176127.800,175242.500,711671.400,712093.200,214325.900,183703.200,225812.300,160363.700,0.000
176133.400,175226.200,711671.600,712093.400,214383.000,183678.200,225840.400,160347.700,0.000
176148.400,175231.000,711669.800,712091.400,214483.900,183673.600,225907.600,160354.400,0.000
176158.300,175250.700,711670.600,712092.400,214610.200,183689.400,226003.500,160367.200,0.000
176158.000,175276.400,711671.200,712093.200,214788.700,183734.700,226166.700,160398.800,0.000
176137.200,175251.800,711669.600,712091.600,214856.300,183712.400,226211.200,160370.600,0.000
176140.000,175242.000,711667.400,712090.100,214914.800,183689.000,226241.300,160358.800,0.000
176148.100,175240.700,711668.300,712090.800,215017.900,183682.100,226309.200,160370.500,0.000
176146.400,175245.600,711667.500,712090.100,215138.000,183687.800,226401.600,160383.600,0.000
176143.000,175270.200,711665.900,712088.300,215313.800,183727.900,226564.400,160414.400,0.000
176122.300,175243.900,711666.400,712088.500,215377.800,183701.300,226602.700,160381.200,0.000
176127.400,175234.500,711666.900,712088.800,215438.100,183680.800,226628.700,160366.300,0.000
176136.700,175236.700,711667.600,712089.600,215539.000,183674.400,226691.300,160374.000,0.000
176143.900,175254.000,711667.300,712089.300,215668.200,183690.700,226787.800,160392.300,0.000
176137.800,175274.300,711664.400,712086.300,215841.200,183730.300,226943.400,160420.800,0.000
176117.700,175246.600,711663.400,712085.400,215902.800,183703.900,226980.500,160387.700,0.000
176118.300,175233.600,711662.100,712084.100,215957.400,183679.000,227004.400,160368.700,0.000
176129.500,175235.000,711660.200,712082.600,216054.000,183672.400,227066.200,160376.700,0.000
176143.000,175252.500,711661.200,712083.400,216182.200,183693.600,227166.500,160397.100,0.000
176150.900,175281.600,711661.300,712083.500,216363.400,183740.600,227331.700,160431.100,0.000
176133.200,175257.900,711660.200,712082.100,216424.400,183714.200,227368.100,160394.000,0.000
176132.600,175242.800,711659.800,712082.200,216480.100,183688.900,227390.500,160369.500,0.000
176136.200,175234.800,711657.900,712080.500,216572.600,183676.900,227447.000,160373.100,0.000
176143.500,175247.600,711657.100,712079.500,216692.600,183688.500,227538.600,160392.500,0.000
176147.800,175279.000,711659.000,712081.600,216872.000,183740.400,227702.000,160428.500,0.000
176126.100,175248.500,711657.600,712080.000,216932.500,183718.000,227737.700,160391.100,0.000
176127.200,175232.400,711657.500,712079.400,216986.600,183695.000,227758.100,160370.000,0.000
176140.400,175235.400,711656.800,712078.900,217083.400,183688.800,227815.700,160376.500,0.000
176150.400,175254.300,711654.400,712076.300,217209.000,183703.500,227905.900,160394.700,0.000
176152.600,175283.100,711654.400,712076.200,217386.700,183750.800,228064.300,160429.900,0.000
176132.400,175259.700,711654.900,712076.900,217448.200,183728.700,228105.600,160400.900,0.000
176136.000,175244.900,711655.800,712077.700,217502.000,183702.900,228128.900,160381.000,0.000
176151.300,175249.000,711656.100,712077.800,217598.600,183698.400,228189.200,160388.300,0.000
176159.100,175262.700,711656.300,712078.000,217721.300,183711.900,228282.600,160408.000,0.000
176157.600,175282.200,711653.400,712075.100,217890.900,183749.900,228437.600,160437.200,0.000
176143.300,175258.000,711652.100,712074.100,217951.600,183726.300,228475.700,160404.300,0.000
176149.300,175242.900,711653.300,712075.400,218006.000,183703.700,228498.900,160384.300,0.000
176159.600,175243.400,711651.500,712073.600,218096.300,183694.800,228555.000,160385.600,0.000
176155.300,175254.000,711646.800,712068.600,218208.100,183701.800,228636.800,160391.200,0.000
176161.600,175289.500,711650.300,712072.000,218392.800,183754.800,228803.900,160432.700,0.000
176144.400,175265.900,711650.300,712072.100,218454.600,183730.000,228842.200,160401.100,0.000
176145.300,175249.000,711650.000,712071.900,218506.900,183705.100,228863.200,160382.200,0.000
176156.400,175248.300,711650.700,712072.400,218602.000,183697.500,228921.800,160389.200,0.000
176164.200,175264.200,711650.900,712072.900,218723.700,183712.600,229014.100,160405.600,0.000
176162.700,175286.700,711649.400,712071.100,218894.000,183752.700,229166.800,160435.300,0.000
176147.800,175265.200,711649.000,712070.600,218952.900,183727.900,229201.000,160403.900,0.000
176152.200,175251.200,711647.900,712070.200,219005.300,183702.400,229221.700,160385.700,0.000
176160.800,175248.200,711645.500,712067.700,219094.100,183691.200,229276.100,160385.300,0.000
176166.100,175259.700,711643.800,712065.900,219210.600,183703.200,229365.100,160398.700,0.000
176163.900,175286.400,711645.500,712067.500,219378.000,183742.900,229519.300,160430.100,0.000
176148.100,175265.300,711645.600,712067.400,219439.500,183722.700,229559.700,160401.000,0.000
176161.500,175256.300,711646.400,712068.500,219498.100,183707.000,229586.700,160390.800,0.000
176171.500,175253.200,711643.400,712065.800,219581.800,183695.000,229635.000,160390.400,0.000
176175.800,175266.600,711643.800,712065.400,219700.200,183708.500,229723.900,160408.900,0.000
176177.400,175291.200,711643.600,712064.800,219868.000,183751.600,229876.000,160441.100,0.000
176159.600,175266.300,711641.600,712063.300,219919.200,183726.300,229901.200,160402.100,0.000
176169.000,175260.100,711643.000,712065.100,219976.100,183706.100,229926.400,160387.900,0.000
176175.800,175255.000,711642.200,712064.300,220059.000,183695.000,229974.300,160387.800,0.000
176179.900,175266.200,711641.700,712063.600,220169.800,183708.100,230055.700,160400.800,0.000
176183.500,175295.400,711642.900,712065.200,220340.500,183754.300,230207.900,160435.900,0.000
176169.600,175271.900,711642.600,712065.000,220393.800,183727.100,230235.100,160403.100,0.000
176167.000,175248.300,711639.600,712061.600,220432.400,183692.900,230240.700,160374.300,0.000
176175.400,175244.000,711637.400,712059.400,220517.000,183679.500,230287.300,160376.500,0.000
176185.000,175261.600,711640.900,712062.800,220635.300,183697.700,230376.300,160398.500,0.000
176180.600,175286.100,711640.500,712061.900,220792.300,183738.900,230520.100,160426.000,0.000
176158.500,175261.700,711636.100,712057.600,220836.900,183711.000,230541.600,160387.900,0.000
176160.000,175245.600,711635.600,712057.800,220881.300,183682.400,230551.500,160368.300,0.000
176170.000,175245.500,711638.100,712060.000,220969.300,183674.700,230604.400,160376.300,0.000
176173.700,175257.600,711640.700,712062.300,221082.100,183691.000,230686.400,160392.700,0.000
176175.000,175284.700,711640.700,712062.600,221242.900,183736.700,230830.500,160426.900,0.000
176152.900,175255.100,711639.900,712061.600,221285.000,183708.600,230851.400,160393.000,0.000
176152.000,175237.300,711636.900,712058.500,221320.700,183681.000,230855.400,160371.500,0.000
176167.900,175241.100,711638.200,712060.100,221407.500,183677.200,230905.600,160379.900,0.000
176174.600,175254.300,711636.800,712058.800,221512.100,183689.000,230979.500,160391.100,0.000
176170.500,175277.500,711635.700,712057.600,221666.400,183725.000,231116.000,160414.200,0.000
176150.500,175249.600,711633.800,712056.000,221708.600,183693.300,231128.800,160374.300,0.000
176149.800,175231.300,711634.300,712056.000,221745.500,183668.000,231132.000,160354.700,0.000
176164.300,175236.200,711634.900,712056.700,221828.700,183668.000,231177.800,160364.200,0.000
176172.900,175252.300,711636.500,712058.700,221934.100,183683.600,231255.300,160380.600,0.000
176169.100,175272.200,711634.300,712056.200,222080.200,183716.800,231388.000,160404.900,0.000
176147.200,175244.600,711631.300,712052.900,222116.500,183685.500,231401.200,160368.800,0.000
176147.500,175229.500,711630.300,712052.100,222148.500,183658.100,231401.200,160345.900,0.000
176160.600,175234.300,711632.800,712054.900,222230.400,183656.300,231450.000,160358.900,0.000
176156.100,175238.200,711630.500,712052.100,222323.900,183660.000,231515.500,160365.800,0.000
176157.400,175263.400,711628.400,712050.100,222472.600,183701.500,231649.700,160394.200,0.000
176136.500,175236.500,711627.100,712049.100,222508.100,183676.500,231661.000,160355.400,0.000
176142.200,175225.100,711627.600,712049.800,222544.100,183655.200,231660.500,160335.700,0.000
176152.900,175226.400,711627.600,712049.800,222618.000,183647.400,231692.600,160338.700,0.000
176158.500,175241.400,711628.900,712050.700,222720.800,183662.300,231761.900,160355.400,0.000
176162.700,175270.300,711629.300,712051.300,222876.000,183707.000,231902.400,160391.600,0.000
176135.000,175238.000,711628.000,712049.800,222904.600,183670.800,231905.400,160350.000,0.000
176141.000,175226.400,711627.400,712049.600,222938.500,183647.700,231903.700,160329.500,0.000
176157.100,175230.300,711629.100,712051.000,223016.700,183645.300,231942.200,160336.900,0.000
176163.600,175247.000,711630.100,712051.600,223120.400,183663.700,232017.500,160354.400,0.000
176161.900,175273.800,711631.600,712053.200,223271.400,183706.600,232152.300,160383.100,0.000
176134.300,175239.800,711626.800,712048.800,223293.900,183670.200,232150.400,160337.700,0.000
176135.600,175219.700,711626.600,712048.200,223322.000,183644.000,232144.800,160315.600,0.000
176149.500,175219.400,711624.300,712045.900,223387.400,183634.600,232171.900,160317.100,0.000
176160.200,175239.300,711626.200,712048.300,223489.400,183656.900,232243.300,160339.800,0.000
176157.600,175267.300,711628.800,712050.800,223642.300,183704.300,232377.100,160373.000,0.000
176135.500,175241.600,711626.800,712048.600,223673.500,183676.900,232384.700,160340.300,0.000
176138.100,175227.200,711627.900,712050.100,223702.400,183651.500,232382.700,160324.700,0.000
176137.800,175211.700,711624.300,712046.100,223758.400,183631.200,232403.100,160318.700,0.000
176143.600,175223.200,711622.400,712044.600,223847.500,183638.500,232464.100,160330.300,0.000
176146.700,175252.600,711622.700,712045.100,223996.600,183684.000,232599.000,160368.500,0.000
176126.800,175226.200,711620.300,712042.500,224029.900,183657.200,232609.100,160337.000,0.000
176132.600,175210.700,711619.300,712040.900,224056.700,183633.000,232605.800,160319.000,0.000
176148.100,175220.300,711620.700,712042.200,224132.500,183631.800,232645.400,160329.800,0.000
176153.100,175233.800,711620.800,712042.500,224229.500,183642.900,232711.000,160342.100,0.000
176156.000,175261.000,711621.100,712043.200,224378.900,183686.900,232842.700,160373.100,0.000
176140.300,175240.000,711621.400,712043.400,224413.000,183661.400,232852.300,160339.700,0.000
176148.600,175226.600,711620.700,712042.300,224440.200,183635.800,232846.900,160318.600,0.000
176165.700,175229.200,711620.500,712042.400,224511.800,183634.200,232882.700,160326.400,0.000
176171.400,175238.900,711621.100,712043.100,224605.000,183648.300,232945.300,160338.500,0.000
176167.400,175255.000,711618.700,712040.600,224745.700,183687.000,233067.500,160361.500,0.000
176148.500,175230.700,711618.300,712040.000,224780.600,183664.300,233079.700,160331.000,0.000
176155.200,175222.000,711619.400,712041.100,224813.500,183645.400,233084.900,160320.100,0.000
176169.600,175228.700,711618.100,712039.400,224888.400,183646.500,233124.900,160331.800,0.000
176180.800,175244.900,711618.100,712039.300,224992.000,183667.500,233198.500,160356.200,0.000
176179.700,175267.800,711615.800,712037.100,225138.800,183708.800,233329.000,160386.700,0.000
176159.700,175242.000,711615.000,712036.300,225171.500,183679.300,233336.300,160349.500,0.000
176160.300,175224.600,711613.900,712035.700,225201.300,183652.900,233332.100,160327.600,0.000
176168.700,175221.900,711614.100,712035.300,225274.700,183646.500,233367.400,160333.000,0.000
176175.800,175235.400,711612.300,712033.400,225372.100,183660.100,233435.900,160345.300,0.000
176182.700,175269.300,711612.400,712033.400,225526.900,183710.400,233576.000,160380.400,0.000
176164.800,175250.000,711611.900,712033.100,225568.400,183689.800,233599.700,160351.000,0.000
176171.500,175238.900,711613.100,712034.300,225606.800,183666.200,233609.200,160338.300,0.000
176185.300,175239.400,711610.900,712032.300,225679.100,183657.600,233644.400,160343.700,0.000
176195.600,175256.000,711612.900,712034.400,225783.500,183676.500,233716.400,160362.500,0.000
176195.500,175282.200,711613.900,712035.400,225934.700,183718.700,233850.600,160394.500,0.000
176173.100,175254.300,711609.200,712030.800,225969.700,183686.600,233861.700,160360.000,0.000
176176.100,175236.000,711608.900,712030.300,226000.700,183660.800,233863.300,160342.300,0.000
176187.500,175234.900,711608.300,712029.500,226072.200,183653.900,233904.600,160348.600,0.000
176203.500,175258.800,711609.900,712030.800,226181.400,183675.600,233990.900,160373.900,0.000
176213.800,175296.700,711610.600,712031.300,226341.300,183726.300,234139.100,160412.600,0.000
176194.200,175274.000,711609.200,712029.900,226382.100,183703.000,234156.900,160377.400,0.000
176194.400,175256.100,711607.900,712028.800,226414.100,183677.200,234160.500,160357.900,0.000
176209.500,175260.200,711608.800,712030.300,226494.600,183675.400,234210.200,160369.700,0.000
176217.800,175277.100,711610.100,712031.600,226607.600,183699.700,234294.900,160394.300,0.000
176209.700,175297.100,711608.100,712029.600,226761.200,183743.200,234433.000,160424.800,0.000
176185.700,175267.900,711608.300,712029.900,226800.800,183713.600,234452.900,160395.600,0.000
176192.400,175261.200,711610.000,712031.800,226844.600,183691.800,234471.200,160385.900,0.000
176209.900,175270.200,711609.200,712030.800,226931.100,183695.900,234527.000,160400.400,0.000
176210.400,175282.500,711607.900,712029.400,227036.200,183706.000,234606.000,160414.300,0.000
176199.800,175294.200,711605.200,712026.800,227183.000,183739.000,234739.300,160439.000,0.000
176180.800,175268.500,711601.500,712023.700,227225.300,183714.600,234764.000,160409.400,0.000
176191.100,175264.200,711604.300,712025.800,227274.700,183697.700,234784.800,160400.600,0.000
176198.600,175264.800,711606.000,712027.300,227362.000,183698.500,234840.700,160412.900,0.000
176196.400,175271.800,711605.000,712026.600,227470.000,183712.000,234924.300,160427.800,0.000
176200.900,175304.000,711607.300,712028.600,227637.200,183762.000,235079.800,160465.600,0.000
176177.300,175277.300,711606.600,712028.100,227683.000,183732.800,235103.800,160428.000,0.000
176174.100,175260.300,711605.200,712026.600,227724.200,183707.800,235112.600,160403.100,0.000
176184.600,175260.500,711604.500,712026.000,227810.500,183709.000,235163.100,160411.000,0.000
176193.800,175280.400,711603.300,712025.300,227924.500,183730.300,235250.000,160432.700,0.000
176194.600,175306.600,711604.200,712026.000,228090.400,183776.600,235401.500,160470.100,0.000
176170.300,175275.800,711602.300,712023.700,228133.000,183746.800,235422.200,160433.800,0.000
176169.800,175261.400,711601.500,712023.000,228171.200,183721.200,235435.100,160412.900,0.000
176184.300,175272.200,711603.100,712024.400,228264.200,183724.500,235499.700,160428.300,0.000
176192.800,175289.900,711603.300,712025.100,228384.800,183744.400,235595.100,160449.700,0.000
176191.300,175312.900,711604.800,712025.900,228553.600,183787.900,235747.300,160480.900,0.000
176178.800,175295.200,711602.900,712024.300,228612.200,183769.300,235778.800,160451.300,0.000
176178.100,175281.400,711601.300,712022.600,228658.000,183743.100,235795.000,160430.600,0.000
176184.000,175276.800,711600.600,712021.800,228738.900,183733.800,235842.700,160431.400,0.000
176192.800,175294.800,711601.300,712022.800,228859.200,183755.000,235936.000,160454.000,0.000
176191.000,175319.400,711601.400,712022.600,229025.900,183799.600,236090.300,160488.000,0.000
176173.200,175297.000,711599.100,712020.900,229079.800,183777.800,236123.100,160460.600,0.000
176181.300,175289.700,711601.800,712023.600,229136.100,183761.800,236154.200,160452.200,0.000
176190.000,175288.500,711601.000,712022.800,229224.700,183757.100,236212.500,160462.500,0.000
176198.200,175308.400,711599.900,712021.600,229343.200,183778.400,236305.300,160486.500,0.000
176199.600,175335.000,711598.800,712020.500,229510.300,183826.400,236458.600,160522.100,0.000
176182.400,175306.900,711597.800,712019.600,229563.700,183801.400,236491.800,160491.800,0.000
176190.100,175296.700,711600.400,712022.100,229619.800,183782.000,236520.000,160483.800,0.000
176197.500,175298.800,711598.800,712020.400,229709.000,183777.300,236575.400,160493.800,0.000
176205.000,175316.700,711599.400,712021.500,229832.100,183802.300,236670.800,160520.500,0.000
176202.500,175345.800,711600.100,712021.600,229996.400,183849.200,236821.300,160553.200,0.000
176182.800,175322.000,711600.600,712021.600,230051.200,183830.000,236853.800,160526.100,0.000
176192.100,175314.400,711602.500,712024.100,230107.900,183814.000,236883.200,160521.500,0.000
176201.400,175315.600,711600.100,712021.900,230196.800,183809.900,236939.000,160530.100,0.000
176203.000,175326.800,711599.800,712021.600,230313.500,183827.700,237027.700,160548.700,0.000
176200.800,175348.200,711599.900,712021.400,230477.600,183872.400,237176.300,160581.600,0.000
176183.400,175321.500,711596.700,712018.500,230525.500,183847.800,237200.900,160547.500,0.000
176185.800,175308.400,711597.400,712018.800,230574.800,183827.400,237218.100,160530.700,0.000
176198.900,175310.100,711595.900,712017.000,230668.000,183827.900,237268.800,160537.000,0.000
176210.400,175331.100,711596.300,712017.900,230787.900,183853.100,237352.500,160556.300,0.000
176205.800,175358.400,711598.400,712020.100,230956.500,183895.000,237502.500,160590.000,0.000
176183.500,175332.500,711595.600,712017.000,231006.000,183864.200,237527.800,160553.800,0.000
176181.500,175311.100,711593.100,712014.300,231050.000,183835.500,237541.000,160531.700,0.000
176194.300,175313.900,711597.600,712019.300,231139.800,183836.200,237595.100,160540.800,0.000
176200.900,175328.300,711599.000,712020.600,231259.800,183857.000,237683.900,160561.400,0.000
176197.400,175350.200,711596.200,712017.600,231421.800,183899.300,237828.400,160589.700,0.000
176172.100,175317.800,711593.100,712014.600,231466.000,183867.000,237848.100,160550.000,0.000
176177.200,175307.700,711592.600,712014.300,231516.300,183846.100,237867.400,160535.500,0.000
176193.900,175314.600,711594.100,712015.600,231607.100,183844.500,237925.800,160547.200,0.000
176198.500,175328.000,711595.400,712017.000,231719.800,183860.400,238010.600,160561.800,0.000
176200.300,175356.700,711598.300,712020.100,231892.800,183906.500,238164.300,160594.900,0.000
176179.000,175327.200,711594.600,712016.400,231935.300,183870.600,238181.000,160552.700,0.000
176181.200,175308.100,711591.100,712013.300,231975.800,183843.200,238193.000,160533.500,0.000
176188.300,175308.700,711590.900,712012.800,232063.400,183839.400,238249.300,160545.000,0.000
176194.400,175325.500,711593.100,712014.900,232182.200,183852.800,238340.500,160564.000,0.000
176189.500,175347.600,711590.800,712012.000,232336.500,183887.500,238481.800,160585.800,0.000
176167.900,175319.300,711589.400,712010.600,232381.100,183857.700,238502.800,160547.800,0.000
176179.100,175307.300,711590.000,712011.800,232429.000,183836.800,238522.900,160534.600,0.000
176197.600,175313.000,711592.100,712013.600,232518.000,183834.400,238578.400,160543.600,0.000
176206.200,175325.800,711591.900,712013.100,232627.700,183849.500,238660.500,160558.200,0.000
176202.700,175348.600,711589.400,712010.600,232784.500,183891.700,238801.000,160583.500,0.000
176183.900,175325.400,711591.800,712013.000,232835.500,183865.300,238830.300,160550.600,0.000
176185.000,175307.100,711591.100,712012.800,232878.300,183838.100,238843.900,160531.000,0.000
176194.700,175303.200,711589.400,712010.900,232957.300,183830.100,238888.600,160533.200,0.000
176204.400,175322.200,711589.800,712011.100,233069.600,183847.700,238975.200,160554.600,0.000
176206.500,175350.000,711589.600,712010.800,233227.900,183891.700,239121.100,160587.900,0.000
176187.500,175323.700,711587.100,712008.400,233266.800,183863.200,239140.000,160551.100,0.000
176192.800,175310.500,711587.600,712008.900,233309.600,183838.800,239155.000,160533.200,0.000
176200.900,175305.900,711587.900,712009.100,233389.200,183828.900,239199.100,160539.200,0.000
176209.500,175321.800,711588.400,712009.400,233497.800,183845.400,239278.700,160557.100,0.000
176209.200,175347.800,711587.800,712008.900,233652.300,183885.700,239421.000,160587.400,0.000
176185.000,175318.400,711587.800,712008.900,233695.300,183860.800,239440.300,160555.500,0.000
176189.400,175305.700,711590.900,712012.300,233742.000,183840.700,239453.000,160542.000,0.000
176202.300,175312.200,711590.300,712011.400,233820.500,183835.300,239500.400,160549.700,0.000
176206.700,175328.100,711588.800,712010.100,233924.900,183848.600,239581.000,160565.500,0.000
176204.600,175348.000,711587.800,712009.500,234072.000,183887.600,239714.300,160592.200,0.000
176182.600,175321.200,711587.400,712008.900,234104.500,183858.800,239725.400,160550.200,0.000
176187.100,175309.000,711587.600,712008.600,234146.900,183833.600,239736.200,160531.000,0.000
176201.100,175309.800,711588.800,712010.600,234228.500,183828.900,239784.200,160539.400,0.000
176201.600,175316.500,711586.400,712007.800,234328.900,183837.800,239857.600,160547.600,0.000
176200.400,175342.000,711585.500,712006.900,234481.800,183879.700,239994.200,160574.800,0.000
176187.300,175319.800,711584.800,712006.300,234518.300,183855.800,240007.500,160540.700,0.000
176196.800,175309.100,711585.500,712007.400,234551.100,183831.700,240011.800,160522.900,0.000
176200.500,175303.500,711585.600,712007.800,234623.300,183814.600,240051.000,160526.100,0.000
176207.000,175320.000,711585.400,712007.600,234725.300,183826.800,240127.200,160545.300,0.000
176199.200,175339.900,711584.200,712006.400,234868.600,183859.900,240255.000,160569.900,0.000
176175.800,175307.300,711582.500,712004.500,234900.100,183826.500,240264.400,160532.700,0.000
176181.900,175292.900,711580.000,712001.800,234931.700,183802.100,240266.800,160512.200,0.000
176196.900,175300.400,711583.200,712005.000,235011.700,183804.200,240310.500,160521.600,0.000
176198.900,175312.600,711584.600,712006.400,235108.300,183816.900,240380.000,160533.500,0.000
176192.900,175333.500,711585.100,712007.100,235250.200,183857.800,240511.000,160560.900,0.000
176177.300,175314.400,711584.000,712005.800,235284.400,183833.500,240522.100,160529.400,0.000
176188.200,175307.800,711584.300,712005.800,235317.900,183811.900,240525.200,160513.300,0.000
176192.100,175300.900,711585.300,712007.200,235382.300,183800.700,240557.400,160510.500,0.000
176199.200,175316.100,711585.900,712007.800,235482.700,183818.000,240630.200,160527.200,0.000
176197.400,175338.100,711585.300,712006.700,235623.600,183857.700,240757.700,160553.700,0.000
176179.700,175308.900,711583.100,712004.500,235647.600,183830.900,240760.000,160514.200,0.000
176182.400,175293.300,711582.700,712004.200,235677.300,183803.600,240758.200,160493.800,0.000
176188.500,175291.400,711581.100,712002.500,235737.100,183789.100,240785.400,160495.400,0.000
176196.400,175312.400,711582.500,712004.400,235831.100,183807.200,240852.000,160517.900,0.000
176197.700,175343.000,711584.700,712006.800,235975.800,183851.200,240984.500,160553.600,0.000
176169.600,175309.800,711582.700,712004.800,235994.200,183812.000,240981.600,160510.200,0.000
176179.700,175299.600,711585.800,712008.000,236028.300,183794.600,240984.700,160499.200,0.000
176201.000,175305.400,711587.400,712009.600,236097.500,183794.300,241023.200,160509.900,0.000
176202.900,175316.200,711585.900,712007.800,236187.200,183807.700,241090.000,160526.600,0.000
176190.400,175335.200,711581.900,712003.600,236315.100,183843.300,241202.700,160546.000,0.000
176165.300,175309.000,711580.200,712001.600,236336.600,183815.900,241202.300,160508.900,0.000
176167.100,175293.000,711583.800,712005.400,236361.500,183787.800,241198.600,160492.500,0.000
176171.700,175286.700,711583.800,712005.600,236417.900,183772.800,241221.900,160492.000,0.000
176178.600,175303.300,711582.700,712004.100,236511.800,183792.500,241289.200,160509.300,0.000
176181.900,175334.600,711585.900,712006.900,236654.600,183838.600,241417.500,160539.300,0.000
176162.500,175307.300,711586.900,712008.300,236678.700,183810.100,241420.200,160501.000,0.000
176166.300,175290.800,711587.600,712009.300,236699.500,183787.600,241411.200,160480.100,0.000
176174.600,175287.000,711586.500,712008.100,236754.600,183780.800,241428.000,160480.400,0.000
176182.500,175306.800,711587.100,712008.900,236846.300,183802.800,241489.600,160500.400,0.000
176166.800,175322.300,711583.600,712005.400,236972.100,183835.100,241599.800,160517.700,0.000
176152.200,175304.100,711583.800,712005.800,236996.300,183807.200,241597.300,160484.100,0.000
176161.400,175300.200,711586.300,712008.600,237028.500,183788.700,241596.500,160473.500,0.000
176172.100,175297.500,711585.400,712007.700,237080.400,183776.300,241613.700,160472.400,0.000
176178.100,175311.500,711586.500,712008.500,237172.000,183793.900,241676.100,160490.100,0.000
176171.900,175330.800,711586.100,712007.800,237302.000,183826.000,241788.800,160515.500,0.000
176147.300,175300.800,711586.900,712008.300,237318.400,183792.900,241774.700,160474.500,0.000
176152.000,175285.400,711585.500,712006.700,237334.000,183766.800,241752.000,160453.400,0.000
176171.500,175292.200,711587.900,712008.900,237398.100,183766.500,241775.600,160467.700,0.000
176174.500,175300.400,711587.900,712009.100,237480.500,183774.700,241819.900,160479.600,0.000
176171.000,175324.900,711586.300,712007.300,237613.900,183811.900,241927.700,160502.900,0.000
176149.300,175298.400,711585.900,712007.300,237634.800,183779.800,241916.300,160468.400,0.000
176158.500,175292.500,711587.100,712008.400,237655.300,183755.600,241899.500,160456.300,0.000
176161.300,175284.000,711584.600,712006.100,237700.700,183736.700,241905.700,160452.700,0.000
176173.900,175304.400,711584.300,712005.400,237789.200,183753.600,241958.600,160477.000,0.000
176174.000,175329.500,711585.600,712007.100,237921.100,183790.000,242066.600,160509.900,0.000
176151.300,175295.200,711585.200,712006.300,237931.700,183752.600,242049.500,160468.900,0.000
176146.300,175271.000,711583.800,712005.300,237942.900,183720.900,242024.900,160444.000,0.000
176159.400,175275.100,711586.400,712007.900,238002.400,183719.400,242042.000,160450.600,0.000
176165.800,175290.100,711585.400,712006.700,238084.500,183737.800,242090.200,160463.700,0.000
176166.500,175317.300,711585.700,712007.100,238212.900,183783.500,242198.700,160490.800,0.000
176143.500,175292.200,711585.500,712006.700,238224.800,183759.400,242181.500,160449.400,0.000
176144.500,175278.900,711585.200,712006.000,238237.900,183738.900,242161.200,160429.500,0.000
176149.200,175278.000,711584.200,712005.300,238284.900,183730.700,242173.100,160430.000,0.000
176152.900,175291.400,711585.600,712007.100,238363.800,183743.700,242221.800,160439.900,0.000
176159.100,175319.400,711585.100,712006.300,238490.100,183785.700,242329.900,160468.600,0.000
176139.000,175289.800,711584.400,712005.800,238495.300,183752.300,242312.700,160430.500,0.000
176140.100,175272.000,711583.100,712004.200,238498.300,183718.900,242281.900,160406.700,0.000
176146.600,175271.800,711583.400,712004.600,238542.500,183704.800,242285.100,160408.000,0.000
176151.900,175288.000,711582.900,712003.700,238618.300,183716.900,242328.100,160423.800,0.000
176150.700,175311.600,711582.700,712003.400,238740.400,183754.100,242429.300,160453.200,0.000
176130.500,175285.200,711583.800,712004.700,238761.400,183729.400,242410.300,160419.000,0.000
176134.500,175266.600,711582.900,712004.100,238776.500,183702.500,242383.000,160400.700,0.000
176142.600,175262.200,711580.300,712001.700,238868.500,183685.400,242389.900,160407.700,0.000
176152.600,175283.400,711580.600,712002.200,239028.800,183700.400,242434.500,160427.600,0.000
176160.000,175315.400,711582.900,712004.400,239162.400,183747.500,242536.600,160458.400,0.000
176137.200,175285.100,711580.400,712002.200,239153.600,183712.000,242512.600,160415.100,0.000
176146.200,175276.800,711581.800,712003.300,239163.900,183691.300,242499.000,160401.000,0.000
176156.700,175278.600,711582.200,712003.600,239207.500,183689.100,242509.800,160404.400,0.000
176160.000,175294.900,711582.600,712004.200,239275.500,183710.500,242549.400,160416.500,0.000
176154.200,175318.000,711584.300,712005.200,239391.500,183754.900,242655.600,160445.000,0.000
176134.200,175289.500,711583.400,712004.700,239392.600,183723.700,242636.600,160411.900,0.000
176131.900,175265.200,711581.700,712003.100,239379.200,183688.800,242597.300,160386.400,0.000
176144.500,175265.800,711581.900,712003.300,239414.700,183677.600,242604.300,160392.900,0.000
176151.300,175280.500,711579.900,712001.100,239487.900,183690.500,242654.500,160412.000,0.000
176147.000,175297.800,711579.700,712000.600,239599.400,183729.400,242757.700,160436.900,0.000
176126.800,175268.300,711579.500,712001.100,239599.500,183703.500,242744.800,160404.500,0.000
176129.400,175256.100,711580.400,712001.900,239606.600,183682.900,242733.100,160392.200,0.000
176143.000,175259.500,711581.100,712003.100,239642.400,183680.300,242743.400,160397.600,0.000
176145.500,175272.500,711580.900,712002.800,239708.900,183695.900,242788.600,160411.700,0.000
176134.300,175287.100,711579.400,712000.400,239814.500,183727.300,242881.000,160428.800,0.000
176120.200,175267.400,711579.300,712000.400,239817.000,183704.600,242864.000,160395.300,0.000
176120.400,175251.300,711578.300,711999.600,239812.400,183678.600,242837.700,160376.000,0.000
176130.900,175252.100,711578.000,711999.100,239849.800,183669.800,242846.400,160384.000,0.000
176137.900,175270.500,711576.700,711997.900,239916.000,183685.600,242890.700,160403.800,0.000
176142.800,175304.200,711579.800,712000.600,240034.100,183737.900,243000.900,160443.900,0.000
176119.100,175273.600,711580.500,712000.900,240034.100,183709.300,242982.400,160408.000,0.000
176122.200,175257.900,711580.300,712001.100,240035.800,183684.600,242960.200,160391.900,0.000
176132.900,175257.200,711578.800,712000.000,240070.900,183678.700,242968.500,160399.200,0.000
176136.000,175268.000,711576.100,711997.500,240131.300,183691.800,243005.900,160411.900,0.000
176141.700,175293.700,711577.800,711998.900,240243.500,183736.800,243108.400,160443.900,0.000
176118.000,175260.200,711576.400,711997.800,240237.300,183705.800,243087.400,160406.500,0.000
176124.100,175249.800,711577.300,711998.900,240237.700,183682.900,243068.200,160394.900,0.000
176137.000,175255.500,711577.400,711998.800,240278.100,183679.400,243083.000,160404.400,0.000
176147.800,175275.700,711577.800,711998.900,240347.400,183698.900,243132.300,160423.000,0.000
176149.200,175304.600,711579.800,712000.800,240460.600,183741.700,243235.600,160453.000,0.000
176132.500,175281.300,711579.100,711999.800,240455.700,183714.900,243214.500,160416.100,0.000
176140.900,175269.100,711576.900,711997.800,240452.900,183690.800,243187.500,160397.700,0.000
176151.500,175265.900,711577.300,711998.400,240489.700,183681.800,243191.500,160403.600,0.000
176153.400,175277.700,711578.100,711999.100,240559.000,183694.500,243236.800,160423.300,0.000
176155.100,175307.100,711578.800,711999.600,240673.700,183739.500,243344.400,160456.200,0.000
176130.300,175277.600,711576.100,711997.100,240662.900,183704.700,243316.300,160411.500,0.000
176135.400,175267.100,711575.800,711996.600,240661.500,183681.200,243290.600,160391.800,0.000
176150.300,175274.300,711578.600,711999.600,240707.300,183677.700,243310.700,160402.500,0.000
176158.000,175292.100,711581.400,712002.700,240780.800,183696.600,243365.000,160420.500,0.000
176155.400,175311.500,711580.500,712001.400,240888.300,183733.800,243462.800,160442.000,0.000
176135.500,175281.600,711576.800,711998.100,240882.400,183702.700,243443.000,160403.800,0.000
176141.200,175269.800,711575.500,711996.500,240881.700,183680.800,243424.000,160387.500,0.000
176148.600,175270.000,711574.600,711995.100,240925.400,183681.000,243443.700,160400.100,0.000
176154.700,175287.000,711574.900,711995.600,240996.300,183702.200,243495.500,160421.600,0.000
176155.300,175314.500,711575.900,711996.600,241110.100,183744.000,243599.100,160447.900,0.000
176131.600,175285.300,711573.900,711995.000,241106.500,183712.200,243578.300,160408.100,0.000
176131.400,175268.900,711575.100,711996.400,241105.700,183686.100,243551.200,160386.600,0.000
176140.300,175270.100,711574.200,711995.600,241148.300,183680.800,243565.500,160395.100,0.000
176146.600,175289.400,711574.200,711995.400,241225.000,183705.000,243622.800,160418.800,0.000
176143.700,175310.500,711574.800,711995.400,241340.300,183743.500,243730.900,160448.200,0.000
176123.800,175283.700,711573.800,711994.600,241338.100,183715.800,243712.700,160410.700,0.000
176126.400,175269.100,711573.800,711994.600,241342.400,183693.200,243692.100,160394.600,0.000
176138.500,175273.900,711576.400,711996.900,241391.500,183693.700,243711.300,160402.900,0.000
176148.300,175291.100,711574.900,711995.600,241465.600,183713.200,243763.900,160419.900,0.000
176147.200,175312.000,711574.100,711995.000,241578.700,183753.300,243868.600,160447.100,0.000
176126.300,175283.800,711571.100,711991.700,241573.100,183721.900,243846.300,160408.100,0.000
176128.500,175271.100,711570.900,711991.800,241581.300,183693.900,243830.700,160392.200,0.000
176142.600,175274.500,711571.800,711992.600,241630.100,183691.100,243855.500,160403.600,0.000
176152.000,175292.000,711573.600,711994.800,241706.100,183711.100,243915.900,160425.500,0.000
176153.800,175317.800,711572.300,711993.600,241825.700,183753.700,244029.500,160457.200,0.000
176135.000,175290.700,711571.900,711992.900,241830.500,183727.100,244018.500,160425.800,0.000
176133.500,175274.300,711571.600,711992.900,241840.900,183700.800,244007.100,160413.100,0.000
176146.400,175279.300,711571.900,711992.600,241892.800,183699.300,244031.500,160424.800,0.000
176152.400,175297.500,711571.900,711993.100,241970.100,183716.400,244087.100,160441.400,0.000
176145.500,175318.900,711571.100,711992.100,242091.600,183760.200,244199.900,160467.300,0.000
176120.500,175283.400,711569.000,711990.200,242094.700,183725.400,244186.600,160426.000,0.000
176130.200,175272.900,711568.800,711990.100,242112.700,183706.800,244182.500,160417.500,0.000
176143.000,175279.600,711569.800,711990.600,242171.700,183709.900,244217.200,160430.800,0.000
176148.100,175298.900,711570.800,711991.500,242258.100,183733.000,244283.500,160450.800,0.000
176149.400,175328.700,711571.700,711992.300,242389.000,183783.900,244406.400,160483.800,0.000
176133.200,175306.800,711572.800,711993.500,242405.000,183763.900,244407.200,160454.700,0.000
176127.100,175285.900,711571.900,711993.100,242420.500,183735.800,244402.900,160437.100,0.000
176137.900,175288.100,711569.900,711991.200,242474.400,183728.100,244434.900,160443.400,0.000
176148.200,175307.700,711569.200,711990.400,242561.200,183750.200,244504.200,160465.900,0.000
176150.100,175338.700,711569.000,711990.200,242694.700,183797.500,244629.500,160501.100,0.000
176133.200,175313.100,711568.200,711988.800,242712.300,183771.000,244629.200,160470.400,0.000
176133.700,175297.000,711567.000,711988.100,242726.200,183745.500,244622.600,160449.900,0.000
176140.400,175297.400,711567.300,711988.300,242782.700,183738.600,244654.500,160454.800,0.000
176152.900,175320.700,711569.700,711990.600,242883.300,183769.200,244737.600,160485.800,0.000
176154.500,175341.400,711569.300,711990.100,243011.700,183811.200,244859.300,160512.700,0.000
176134.000,175308.600,711565.100,711986.300,243022.800,183777.800,244855.100,160472.900,0.000
176141.900,175300.800,711565.600,711986.800,243047.500,183758.900,244862.800,160462.700,0.000
176153.300,175303.800,711566.400,711987.900,243109.900,183759.000,244903.900,160473.500,0.000
176162.300,175324.100,711563.400,711985.000,243203.400,183782.200,244979.100,160494.700,0.000
176167.300,175350.000,711564.500,711985.800,243339.500,183832.600,245109.000,160529.200,0.000
176151.200,175324.000,711564.500,711985.100,243364.100,183804.800,245117.600,160495.000,0.000
176159.600,175312.500,711563.700,711984.300,243392.600,183783.000,245125.100,160482.800,0.000
176169.800,175311.800,711563.300,711984.200,243454.900,183778.200,245161.200,160490.200,0.000
176177.000,175333.900,711563.500,711984.400,243554.900,183804.000,245240.300,160512.700,0.000
176167.700,175351.000,711564.900,711985.700,243688.200,183844.000,245365.300,160539.300,0.000
176150.400,175322.600,711563.200,711984.100,243707.900,183814.800,245368.600,160502.400,0.000
176163.200,175320.200,711565.100,711985.600,243748.600,183797.200,245383.700,160495.000,0.000
176173.600,175320.200,711565.900,711986.300,243819.100,183793.800,245425.600,160504.600,0.000
176177.000,175335.200,711566.600,711987.100,243919.400,183814.900,245507.200,160527.500,0.000
176178.300,175362.200,711565.900,711986.600,244058.100,183856.100,245639.800,160557.600,0.000
176155.700,175330.000,711564.500,711984.800,244075.300,183825.300,245640.900,160516.900,0.000
176161.100,175315.300,711562.800,711983.200,244106.400,183808.000,245647.800,160505.700,0.000
176174.000,175321.900,711564.100,711984.600,244180.800,183804.000,245693.600,160517.200,0.000
176177.000,175336.400,711565.900,711986.100,244283.200,183822.500,245774.000,160535.600,0.000
176179.200,175361.000,711565.300,711985.300,244422.700,183868.000,245903.900,160563.900,0.000
176163.600,175336.800,711563.300,711983.600,244452.400,183845.600,245917.300,160533.000,0.000
176173.200,175331.300,711565.500,711986.100,244495.200,183833.600,245936.800,160526.100,0.000
176175.800,175328.700,711564.800,711985.800,244564.000,183824.200,245974.600,160527.200,0.000
176183.300,175350.200,711565.900,711986.900,244670.300,183848.900,246057.400,160547.000,0.000
176182.600,175374.100,711566.600,711987.800,244814.300,183892.200,246192.200,160574.000,0.000
176163.900,175347.900,711568.600,711989.400,244842.900,183868.800,246207.800,160542.000,0.000
176160.400,175326.400,711564.800,711985.600,244867.000,183841.900,246211.000,160524.300,0.000
176167.300,175326.500,711564.100,711985.000,244938.300,183838.400,246254.800,160534.800,0.000
176174.800,175349.100,711566.600,711987.100,245048.300,183865.800,246342.700,160561.300,0.000
176173.200,175375.500,711568.200,711989.200,245191.400,183907.800,246475.200,160588.500,0.000
176149.000,175344.100,711566.800,711987.600,245218.000,183874.400,246482.600,160551.800,0.000
176155.400,175328.300,711567.600,711988.400,245254.600,183855.700,246492.200,160541.800,0.000
176169.600,175333.700,711568.400,711989.000,245327.900,183858.400,246540.600,160555.100,0.000
176178.000,175351.200,711568.800,711989.400,245431.900,183883.900,246632.400,160579.000,0.000
176170.700,175363.400,711567.300,711987.900,245569.100,183914.500,246763.500,160605.000,0.000
176145.900,175328.700,711564.100,711984.800,245583.800,183879.000,246766.300,160568.300,0.000
176150.800,175320.800,711563.000,711983.800,245610.900,183859.700,246775.300,160558.500,0.000
176162.900,175330.400,711563.600,711984.200,245687.000,183863.400,246826.800,160575.800,0.000
176168.000,175347.100,711566.400,711986.900,245792.600,183888.700,246912.700,160605.500,0.000
176166.200,175368.300,711565.100,711985.900,245931.100,183931.700,247039.900,160636.200,0.000
176146.500,175342.800,711562.800,711983.800,245956.600,183902.500,247046.600,160601.200,0.000
176153.400,175338.400,711565.300,711986.100,245991.800,183884.600,247055.300,160589.400,0.000
176159.900,175336.800,711562.800,711983.400,246051.200,183877.600,247087.700,160593.400,0.000
176165.000,175355.800,711565.300,711985.800,246153.900,183902.700,247170.300,160617.100,0.000
176162.500,175378.700,711566.800,711987.300,246292.500,183943.800,247294.100,160644.600,0.000
176141.800,175351.400,711564.900,711985.600,246313.500,183913.600,247292.600,160609.600,0.000
176147.100,175337.800,711565.500,711986.100,246344.100,183892.500,247292.400,160597.800,0.000
176164.200,175343.900,711566.300,711986.900,246413.200,183892.000,247328.000,160607.800,0.000
176179.000,175369.600,711568.100,711988.200,246518.800,183921.300,247409.300,160632.000,0.000
176171.800,175386.500,711564.300,711985.200,246650.200,183957.200,247527.900,160652.500,0.000
176150.300,175358.500,711561.800,711982.600,246667.000,183925.800,247525.700,160613.200,0.000
176155.700,175347.600,711563.400,711984.100,246696.900,183904.300,247526.200,160598.500,0.000
176165.600,175348.600,711564.300,711985.300,246763.800,183898.800,247558.800,160608.800,0.000
176173.800,175367.100,711563.600,711984.800,246861.700,183917.500,247632.700,160629.300,0.000
176174.600,175393.800,711566.800,711987.900,246996.700,183960.900,247756.700,160658.000,0.000
176151.800,175361.900,711564.800,711985.500,247014.300,183929.800,247751.900,160619.000,0.000
176159.100,175347.300,711563.400,711984.100,247042.600,183909.600,247753.700,160607.700,0.000
176169.200,175344.000,711563.000,711983.900,247107.100,183905.000,247787.800,160618.100,0.000
176172.500,175356.700,711563.200,711984.000,247202.800,183925.300,247862.400,160639.100,0.000
176166.700,175378.600,711564.000,711984.300,247336.400,183970.200,247989.300,160668.400,0.000
176152.200,175356.900,711565.900,711986.500,247360.900,183948.900,247997.900,160639.700,0.000
176163.300,175351.100,711566.200,711987.100,247389.900,183926.800,248002.400,160627.300,0.000
176176.100,175353.400,711565.100,711986.000,247447.300,183917.200,248032.300,160630.100,0.000
176180.300,175368.800,711563.400,711984.100,247538.300,183927.300,248106.300,160645.700,0.000
176175.700,175393.600,711563.000,711983.400,247669.000,183964.800,248231.000,160669.600,0.000
176153.400,175364.900,711562.200,711982.800,247685.900,183936.700,248229.500,160630.100,0.000
176156.100,175349.300,711564.500,711985.000,247711.600,183910.000,248231.600,160614.300,0.000
176171.200,175353.400,711565.800,711986.100,247779.000,183904.000,248274.600,160627.200,0.000
176176.800,175365.600,711564.900,711985.600,247866.900,183917.700,248342.200,160642.300,0.000
176174.800,175384.500,711563.700,711984.900,247990.900,183954.000,248456.000,160664.300,0.000
176154.600,175358.900,711562.000,711983.000,248002.800,183924.600,248449.000,160626.600,0.000
176158.400,175349.100,711564.600,711985.300,248031.200,183901.100,248451.600,160614.200,0.000
176167.800,175347.800,711563.500,711984.300,248089.300,183893.000,248480.800,160615.900,0.000
176172.100,175362.600,711561.800,711982.600,248177.600,183913.300,248548.100,160631.800,0.000
176167.000,175382.300,711561.800,711982.500,248304.200,183952.600,248665.500,160657.600,0.000
176155.500,175361.500,711561.800,711982.400,248319.000,183924.600,248667.500,160626.300,0.000
176160.900,175345.100,711561.900,711982.700,248338.000,183900.700,248666.400,160613.000,0.000
176168.700,175345.500,711561.200,711981.300,248389.900,183890.400,248692.000,160615.300,0.000
176175.000,175364.100,711560.500,711980.500,248475.700,183909.700,248757.300,160631.700,0.000
176171.800,175384.200,711560.500,711980.700,248598.000,183945.400,248867.800,160654.800,0.000
176151.300,175352.000,711558.400,711978.200,248599.800,183903.300,248849.500,160611.900,0.000
176158.700,175339.900,711556.900,711977.200,248611.400,183872.600,248837.300,160595.100,0.000
176172.700,175347.800,711559.600,711980.500,248668.400,183869.100,248866.700,160605.600,0.000
176180.600,175363.800,711562.300,711983.400,248752.400,183889.300,248931.200,160624.500,0.000
176177.300,175386.000,711564.400,711985.400,248879.400,183930.800,249049.700,160652.300,0.000
176151.500,175350.400,711562.400,711983.000,248881.400,183894.000,249034.300,160611.800,0.000
176158.400,175338.900,711561.900,711982.300,248891.300,183870.200,249020.200,160592.800,0.000
176170.000,175341.700,711560.500,711980.500,248937.200,183865.400,249039.000,160594.300,0.000
176174.900,175356.900,711559.300,711979.400,249017.900,183882.400,249097.800,160608.900,0.000
176169.600,175376.500,711560.300,711980.500,249137.700,183919.500,249205.800,160632.500,0.000
176154.200,175349.600,711560.300,711980.600,249139.200,183889.100,249189.700,160592.800,0.000
176167.600,175343.300,711562.800,711983.000,249160.500,183872.200,249185.900,160583.100,0.000
176179.000,175345.100,711562.200,711983.000,249209.700,183861.600,249206.300,160587.500,0.000
176185.300,175362.900,711561.800,711982.500,249291.800,183882.800,249267.000,160606.300,0.000
176174.900,175379.500,711558.500,711979.300,249407.000,183917.400,249369.700,160625.400,0.000
176150.300,175349.700,711556.000,711976.100,249407.500,183883.800,249350.500,160581.600,0.000
176152.400,175332.700,711557.900,711977.700,249417.700,183855.900,249336.000,160565.500,0.000
176162.900,175332.700,711560.300,711980.300,249462.200,183847.000,249353.000,160570.600,0.000
176171.500,175357.300,711560.900,711981.300,249547.400,183869.800,249414.500,160591.100,0.000
176168.300,175379.500,711561.300,711981.600,249663.100,183907.000,249517.400,160613.300,0.000
176149.900,175352.700,711560.900,711981.300,249658.500,183874.700,249494.800,160571.500,0.000
176155.500,175341.200,711561.800,711982.100,249665.800,183855.400,249480.100,160557.600,0.000
176163.400,175337.900,711561.500,711981.700,249706.900,183843.900,249494.800,160562.000,0.000
176168.600,175355.800,711561.000,711981.100,249783.900,183861.700,249549.800,160579.700,0.000
176164.000,175375.900,711561.000,711981.300,249895.800,183898.900,249651.500,160603.000,0.000
176139.300,175341.600,711558.300,711978.800,249883.800,183865.800,249623.300,160561.000,0.000
176151.000,175335.500,711559.600,711979.800,249890.800,183847.400,249608.300,160550.400,0.000
176167.900,175341.300,711563.800,711983.500,249938.700,183844.800,249627.800,160558.500,0.000
176172.700,175354.600,711562.400,711982.800,250011.700,183861.100,249677.800,160569.000,0.000
176170.100,175371.900,711560.800,711980.800,250117.900,183897.300,249771.500,160589.800,0.000
176148.900,175338.900,711560.800,711980.700,250105.600,183863.800,249740.400,160549.100,0.000
176156.700,175333.700,711559.700,711979.600,250110.300,183844.500,249722.100,160538.400,0.000
176163.100,175333.600,711558.500,711978.800,250145.800,183832.400,249730.200,160543.700,0.000
176169.700,175352.800,711560.800,711981.100,250218.800,183850.200,249781.200,160563.600,0.000
176167.400,175372.200,711560.300,711981.300,250326.900,183886.400,249878.300,160586.900,0.000
176146.200,175336.500,711558.500,711979.400,250312.100,183853.000,249846.200,160544.700,0.000
176154.300,175322.200,711558.600,711979.000,250311.000,183830.700,249821.700,160527.000,0.000
176166.000,175320.300,711558.200,711978.600,250345.600,183820.000,249829.000,160530.100,0.000
176178.600,175340.900,711558.100,711978.600,250418.200,183840.100,249878.500,160551.100,0.000
176174.600,175360.000,711558.400,711978.600,250522.700,183874.700,249973.300,160575.500,0.000
176151.300,175325.600,711555.700,711975.800,250508.400,183836.800,249941.500,160533.900,0.000
176156.300,175312.400,711555.800,711975.900,250505.000,183812.600,249916.500,160518.500,0.000
176165.400,175311.500,711557.400,711977.500,250534.400,183801.400,249920.500,160518.900,0.000
176171.900,175328.700,711558.300,711978.600,250602.000,183819.800,249967.200,160536.300,0.000
176168.400,175351.600,711558.100,711978.400,250703.300,183858.500,250060.000,160561.300,0.000
176153.300,175330.500,711557.600,711978.000,250695.400,183831.000,250033.400,160526.500,0.000
176160.200,175319.000,711557.400,711977.800,250693.600,183805.600,250005.100,160510.100,0.000
176174.800,175320.700,711557.800,711978.300,250725.300,183798.700,250008.200,160516.700,0.000
176179.400,175333.600,711558.100,711978.400,250784.200,183816.000,250046.400,160530.600,0.000
176168.500,175346.300,711556.200,711976.600,250875.600,183848.400,250126.100,160543.900,0.000
176153.400,175324.100,711554.700,711974.800,250863.600,183818.300,250093.500,160507.200,0.000
176161.500,175316.500,711556.200,711976.100,250865.800,183798.800,250070.800,160498.000,0.000
176170.900,175312.600,711558.400,711978.800,250892.400,183789.500,250071.700,160500.500,0.000
176180.600,175330.900,711559.300,711979.400,250958.300,183809.700,250119.600,160522.000,0.000
176179.700,175354.500,711559.100,711978.800,251063.700,183847.100,250213.800,160550.400,0.000
176161.200,175325.100,711555.600,711975.000,251040.700,183809.400,250174.100,160507.300,0.000
176171.600,175312.600,711555.600,711975.400,251030.300,183786.100,250140.500,160490.900,0.000
176184.000,175314.700,711555.100,711975.200,251055.800,183775.900,250139.800,160493.200,0.000
176188.100,175332.600,711556.900,711976.800,251119.100,183794.500,250183.400,160513.300,0.000
176183.400,175353.600,711557.900,711977.800,251215.700,183833.600,250271.700,160538.100,0.000
176166.200,175327.700,711556.000,711975.600,251198.600,183805.500,250236.400,160499.700,0.000
176173.300,175318.100,711556.400,711976.300,251189.300,183784.200,250205.700,160484.600,0.000
176183.400,175324.800,711557.100,711976.800,251218.200,183780.600,250206.800,160493.700,0.000
176188.200,175342.400,711558.400,711978.400,251281.500,183804.500,250251.800,160514.900,0.000
176183.400,175361.100,711556.800,711977.100,251372.600,183838.600,250338.900,160536.800,0.000
176162.000,175329.500,711553.100,711973.800,251346.500,183800.100,250298.600,160494.300,0.000
176170.200,175316.200,711555.600,711976.400,251334.700,183780.600,250267.800,160481.200,0.000
176179.700,175318.500,711556.100,711976.600,251364.100,183775.000,250273.200,160489.000,0.000
176184.900,175338.300,711554.700,711975.400,251427.700,183796.300,250319.900,160508.400,0.000
176189.200,175364.500,711556.100,711976.700,251525.900,183838.900,250412.200,160537.700,0.000
176172.300,175335.300,711553.700,711974.300,251495.200,183804.900,250369.500,160494.100,0.000
176178.800,175321.600,711552.700,711973.100,251478.700,183780.300,250335.000,160476.100,0.000
176193.700,175328.900,711554.500,711974.800,251505.300,183777.200,250338.300,160483.400,0.000
176202.200,175348.000,711554.300,711974.300,251562.600,183798.300,250379.700,160499.900,0.000
176201.300,175370.300,711556.000,711976.300,251656.300,183842.000,250469.500,160524.700,0.000
176183.000,175338.900,711554.800,711974.900,251632.200,183810.300,250430.300,160483.600,0.000
176183.600,175321.000,711553.900,711973.600,251619.500,183781.700,250392.400,160461.200,0.000
176194.400,175323.300,711555.100,711975.200,251642.500,183773.500,250388.500,160464.800,0.000
176196.500,175340.900,711555.100,711975.400,251697.600,183788.400,250426.700,160481.100,0.000
176192.200,175358.800,711555.200,711975.600,251786.000,183824.700,250509.500,160505.900,0.000
176177.600,175330.600,711554.900,711975.100,251764.300,183796.000,250472.400,160473.300,0.000
176182.600,175321.000,711555.300,711975.300,251751.900,183774.400,250440.000,160459.500,0.000
176189.800,175322.400,711557.600,711977.200,251774.000,183767.000,250438.700,160464.600,0.000
176199.200,175342.200,711557.300,711977.100,251829.700,183786.900,250476.700,160482.900,0.000
176198.200,175361.400,711558.100,711977.800,251919.200,183822.100,250560.400,160506.600,0.000
176179.000,175328.700,711557.600,711977.600,251891.900,183786.800,250517.700,160467.700,0.000
176188.600,175324.300,711558.600,711978.200,251883.500,183769.800,250484.500,160456.600,0.000
176193.500,175321.500,711557.800,711977.800,251900.100,183757.600,250474.800,160453.600,0.000
176197.700,175337.700,711558.300,711978.600,251959.500,183778.400,250515.500,160473.000,0.000
176185.800,175350.900,711555.700,711975.600,252039.700,183805.300,250590.900,160488.200,0.000
176164.900,175320.900,711554.400,711974.600,252008.700,183768.500,250547.500,160447.800,0.000
176172.400,175309.500,711554.900,711975.000,251993.900,183748.000,250510.400,160434.800,0.000
176185.100,175314.000,711556.600,711976.500,252016.100,183744.000,250508.300,160442.100,0.000
176198.900,175337.600,711557.200,711976.800,252075.800,183767.100,250552.900,160464.000,0.000
176192.600,175350.000,711555.400,711975.200,252160.300,183797.600,250634.500,160483.000,0.000
176171.200,175315.700,711556.300,711976.300,252126.600,183758.900,250588.900,160439.800,0.000
176184.400,175314.000,711558.600,711978.300,252119.600,183744.000,250562.800,160434.500,0.000
176189.300,175310.400,711556.200,711975.900,252134.300,183732.800,250557.300,160437.700,0.000
176183.500,175319.400,711554.100,711974.000,252178.500,183745.400,250587.600,160449.200,0.000
176181.000,175342.100,711554.900,711974.900,252269.900,183787.300,250674.300,160476.700,0.000
176165.200,175313.100,711554.900,711975.200,252243.400,183757.300,250637.400,160440.000,0.000
176167.800,175296.300,711552.500,711972.600,252221.500,183729.800,250596.000,160418.800,0.000
176179.400,175296.400,711555.100,711974.800,252238.500,183723.800,250588.500,160421.800,0.000
176193.500,175322.100,711557.000,711976.500,252292.100,183750.000,250628.000,160445.200,0.000
176188.000,175339.800,711555.400,711975.000,252375.300,183785.800,250706.900,160467.200,0.000
176165.500,175306.100,711553.500,711973.600,252340.000,183746.200,250660.400,160427.200,0.000
176179.100,175300.900,711554.500,711974.400,252327.300,183728.300,250630.100,160421.100,0.000
176194.900,175309.400,711556.100,711975.900,252354.300,183728.500,250632.900,160430.800,0.000
176200.200,175325.900,711555.700,711975.600,252409.300,183751.700,250668.200,160444.400,0.000
176191.800,175340.000,711554.500,711974.400,252486.100,183783.300,250735.400,160457.200,0.000
176176.400,175314.800,711554.100,711974.100,252455.000,183751.500,250689.800,160419.500,0.000
176183.500,175303.700,711554.800,711974.400,252437.800,183728.100,250651.300,160404.400,0.000
176196.800,175308.600,711555.900,711975.600,252459.000,183725.400,250648.800,160411.000,0.000
176198.300,175323.300,711555.200,711974.800,252510.000,183745.500,250686.300,160428.900,0.000
176190.200,175339.500,711554.500,711973.800,252592.700,183780.300,250767.300,160450.800,0.000
176172.500,175311.000,711553.100,711972.600,252560.700,183746.800,250723.500,160411.900,0.000
176175.200,175299.500,711552.700,711972.500,252542.800,183721.300,250685.200,160395.800,0.000
176187.200,175305.200,711553.400,711973.100,252564.300,183717.300,250684.000,160403.900,0.000
176195.100,175324.900,711551.800,711971.400,252618.400,183739.100,250721.600,160424.400,0.000
176191.000,175342.800,711551.600,711971.100,252699.900,183778.600,250800.500,160450.300,0.000
176167.300,175310.800,711550.400,711970.100,252668.000,183744.700,250760.600,160412.400,0.000
176179.000,175309.100,711553.300,711973.100,252660.300,183730.800,250735.300,160406.500,0.000
176183.400,175306.600,711552.200,711972.200,252677.000,183722.200,250728.700,160408.700,0.000
176178.800,175315.600,711550.100,711970.100,252724.800,183736.500,250762.900,160421.800,0.000
176176.800,175338.600,711550.100,711969.500,252811.300,183777.600,250847.100,160450.800,0.000
176157.600,175311.000,711549.100,711968.600,252781.300,183744.400,250807.000,160416.500,0.000
176166.800,175302.100,711553.900,711973.600,252773.900,183725.700,250776.800,160410.500,0.000
176172.000,175296.600,711551.600,711971.500,252790.100,183716.400,250767.500,160415.000,0.000
176180.800,175314.600,711550.300,711970.500,252849.500,183741.300,250814.800,160439.500,0.000
176180.300,175340.600,711553.400,711973.600,252941.800,183781.100,250906.100,160467.700,0.000
176156.000,175310.000,711551.400,711971.900,252913.800,183750.700,250865.600,160430.500,0.000
176160.800,175298.000,711552.200,711972.600,252902.500,183733.500,250836.200,160418.900,0.000
176175.500,175303.200,711552.400,711972.800,252927.300,183733.600,250837.000,160425.900,0.000
176179.900,175322.300,711553.600,711973.400,252987.300,183755.800,250880.500,160446.100,0.000
176176.800,175345.700,711553.300,711973.200,253076.600,183792.600,250965.700,160470.400,0.000
176157.800,175319.900,711551.100,711971.100,253051.100,183758.900,250930.300,160433.100,0.000
176167.800,175313.600,711552.700,711972.800,253050.200,183744.000,250909.400,160426.900,0.000
176177.700,175310.900,711552.200,711972.500,253080.400,183740.200,250916.000,160436.500,0.000
176185.300,175330.600,711552.500,711972.500,253146.400,183764.300,250970.700,160461.500,0.000
176177.400,175347.300,711551.800,711971.800,253240.000,183802.500,251064.500,160487.000,0.000
176164.700,175326.600,711551.400,711971.400,253223.800,183777.300,251040.700,160455.800,0.000
176168.000,175311.600,711552.500,711972.600,253217.800,183756.700,251018.800,160440.100,0.000
176178.000,175313.300,711551.100,711971.300,253247.200,183755.700,251026.300,160444.400,0.000
176185.200,175335.100,711553.300,711973.400,253322.500,183784.000,251090.000,160472.000,0.000
176177.600,175352.100,711554.800,711974.800,253424.300,183821.600,251186.200,160495.700,0.000
176161.900,175323.400,711553.000,711972.900,253410.800,183792.500,251158.900,160460.000,0.000
176170.900,175314.700,711551.800,711971.800,253415.400,183774.600,251148.100,160453.500,0.000
176181.200,175318.200,711551.300,711971.100,253448.500,183772.200,251164.100,160464.800,0.000
176187.600,175338.400,711552.300,711971.700,253522.300,183795.900,251223.700,160491.300,0.000
176184.800,175363.600,711552.500,711971.800,253630.400,183833.800,251328.100,160520.700,0.000
176168.500,175341.000,711553.000,711972.500,253626.000,183809.000,251315.900,160491.300,0.000
176175.100,175331.900,711553.500,711973.600,253637.900,183793.300,251312.600,160485.800,0.000
176183.000,175330.800,711553.000,711973.000,253679.100,183790.200,251336.500,160494.400,0.000
176185.700,175350.900,711553.300,711972.800,253757.200,183814.300,251402.200,160517.200,0.000
176183.400,175377.200,711554.300,711974.000,253871.400,183859.200,251512.800,160550.300,0.000
176163.100,175346.200,711551.200,711970.500,253864.600,183827.900,251494.200,160512.400,0.000
176173.000,175335.900,711553.000,711972.400,253877.800,183815.400,251495.600,160504.200,0.000
176184.400,175342.400,711552.300,711971.900,253921.800,183815.000,251533.300,160515.200,0.000
176184.000,175356.700,711550.500,711969.900,253998.000,183836.600,251610.400,160535.900,0.000
176180.300,175378.100,711552.900,711972.300,254118.000,183878.500,251729.900,160564.500,0.000
176163.000,175352.800,711551.400,711970.800,254117.200,183852.400,251718.700,160526.800,0.000
176169.600,175344.400,711551.100,711970.400,254139.500,183836.900,251721.000,160519.100,0.000
176181.100,175350.500,711550.200,711969.500,254197.400,183838.300,251756.500,160531.100,0.000
176190.800,175369.400,711551.100,711970.700,254292.700,183869.000,251835.400,160556.600,0.000
176188.000,175385.500,711551.400,711971.300,254411.700,183904.400,251949.400,160583.500,0.000
176167.900,175357.100,711550.600,711970.900,254413.000,183874.900,251941.700,160551.000,0.000
176171.600,175346.800,711551.200,711971.100,254429.700,183856.500,251945.400,160542.600,0.000
176184.700,175354.000,711550.300,711970.000,254487.200,183856.300,251981.500,160554.600,0.000
176193.300,175377.000,711550.200,711969.800,254584.100,183884.000,252066.800,160582.400,0.000
176188.200,175396.300,711549.300,711968.900,254709.200,183923.800,252189.700,160611.700,0.000
176166.000,175359.500,711546.600,711966.100,254711.000,183891.800,252181.600,160572.900,0.000
176175.000,175353.600,711549.900,711969.500,254743.600,183877.800,252201.000,160573.000,0.000
176184.100,175357.800,711549.800,711969.200,254804.800,183876.500,252245.200,160585.900,0.000
176189.300,175375.200,711549.500,711968.900,254899.500,183903.100,252328.900,160610.400,0.000
176185.900,175396.000,711548.400,711968.200,255025.500,183943.300,252454.300,160640.300,0.000
176166.500,175368.200,711548.900,711968.600,255042.200,183913.800,252461.100,160606.200,0.000
176173.400,175358.800,711549.800,711969.200,255073.300,183899.500,252475.100,160597.100,0.000
176180.800,175358.300,711549.600,711969.000,255131.400,183899.300,252513.400,160607.000,0.000
176189.800,175380.000,711548.100,711967.400,255229.200,183926.500,252599.700,160634.700,0.000
176188.900,175401.100,711548.900,711968.400,255361.100,183965.900,252730.200,160666.700,0.000
176176.500,175377.900,711549.500,711969.200,255379.100,183940.400,252736.700,160639.200,0.000
176183.200,175366.300,711550.600,711970.100,255409.900,183923.800,252752.200,160635.100,0.000
176188.900,175366.800,711550.400,711969.800,255467.900,183919.000,252794.000,160645.000,0.000
176192.600,175389.900,711549.900,711969.400,255567.900,183948.100,252883.700,160671.900,0.000
176187.900,175411.500,711548.900,711968.600,255698.000,183993.600,253012.300,160704.800,0.000
176178.100,175385.800,711547.700,711967.600,255708.800,183966.800,253011.200,160670.500,0.000
176191.700,175379.000,711548.900,711968.900,255742.900,183952.400,253025.600,160665.300,0.000
176199.700,175377.000,711548.700,711968.400,255805.100,183949.100,253066.800,160676.700,0.000
176210.800,175401.700,711549.400,711968.800,255910.200,183982.200,253161.600,160709.800,0.000
176210.400,175429.900,711550.400,711970.100,256040.000,184026.800,253286.900,160740.600,0.000
176196.800,175409.300,711549.400,711969.100,256052.800,184001.000,253284.500,160707.100,0.000
176203.200,175401.200,711550.200,711969.800,256085.600,183986.300,253293.600,160699.700,0.000
176204.700,175396.100,711551.000,711970.700,256145.500,183976.300,253326.600,160703.300,0.000
176204.900,175411.200,711550.200,711969.900,256239.000,183998.300,253404.200,160724.200,0.000
176205.200,175435.800,711552.400,711971.800,256366.300,184040.200,253524.800,160752.700,0.000
176196.200,175414.900,711553.900,711973.200,256386.300,184018.300,253528.100,160723.700,0.000
176202.500,175400.800,711553.900,711972.900,256414.800,183999.500,253534.900,160713.200,0.000
176208.600,175391.400,711552.800,711972.200,256467.700,183988.500,253566.100,160715.700,0.000
176218.400,175411.500,711552.800,711971.900,256563.900,184011.900,253650.600,160739.800,0.000
176212.500,175433.000,711551.400,711970.600,256688.300,184052.000,253769.100,160763.700,0.000
176188.600,175402.500,711551.000,711970.600,256694.500,184022.300,253761.700,160725.100,0.000
176188.300,175388.700,711549.600,711969.100,256717.000,183997.400,253767.500,160713.500,0.000
176200.200,175392.500,711550.300,711969.800,256777.800,183990.900,253809.500,160725.700,0.000
176204.800,175409.400,711548.500,711967.800,256869.700,184008.800,253887.800,160744.500,0.000
176201.800,175426.900,711546.000,711965.100,256986.600,184040.700,253997.500,160761.000,0.000
176184.900,175400.800,711546.300,711965.500,256994.000,184009.300,253987.700,160720.500,0.000
176191.500,175393.200,711547.400,711966.400,257016.300,183995.900,253985.800,160706.600,0.000
176198.300,175395.800,711550.100,711969.400,257085.800,183992.000,254029.600,160718.900,0.000
176204.900,175414.600,711550.500,711969.800,257182.200,184012.200,254114.800,160741.100,0.000
176198.100,175430.800,711548.500,711968.000,257295.200,184040.100,254223.900,160755.000,0.000
176183.300,175406.100,711547.200,711966.700,257302.300,184008.200,254214.500,160716.900,0.000
176195.800,175401.100,711549.800,711969.000,257332.800,183994.100,254222.900,160710.200,0.000
176202.500,175395.800,711547.500,711967.200,257381.800,183980.800,254245.600,160708.400,0.000
176209.300,175411.600,711547.100,711966.700,257473.600,184002.300,254319.000,160727.000,0.000
176212.400,175436.000,711549.600,711968.900,257597.400,184043.600,254437.300,160754.900,0.000
176184.000,175397.300,711545.200,711964.700,257593.900,183998.000,254419.800,160708.700,0.000
176192.800,175393.500,711545.800,711964.900,257623.800,183978.900,254430.000,160702.000,0.000
176203.700,175395.000,711547.300,711966.700,257676.800,183973.000,254459.400,160706.000,0.000
176210.300,175414.100,711547.800,711966.900,257768.300,183997.000,254535.900,160726.600,0.000
176201.600,175427.700,711546.900,711966.100,257880.800,184029.500,254645.400,160745.300,0.000
176185.300,175402.000,711546.800,711965.900,257883.800,183998.900,254634.300,160705.600,0.000
176192.400,175390.400,711546.700,711965.600,257903.600,183978.100,254632.200,160691.600,0.000
176201.900,175389.100,711546.600,711965.600,257954.300,183969.400,254657.100,160695.900,0.000
176211.600,175412.700,711545.400,711964.600,258041.800,183992.600,254729.600,160717.700,0.000
176210.700,175437.200,711544.100,711963.400,258159.800,184031.400,254843.300,160743.100,0.000
176192.500,175407.800,711544.100,711963.400,258158.900,183995.700,254829.800,160704.300,0.000
176198.200,175396.800,711545.400,711965.100,258172.800,183973.100,254826.300,160688.400,0.000
176211.200,175399.100,711544.900,711964.800,258223.400,183970.600,254852.800,160695.500,0.000
176210.300,175409.900,711543.600,711963.300,258301.300,183981.200,254911.100,160707.800,0.000
176197.800,175421.800,711541.900,711961.500,258403.500,184009.900,255007.800,160723.000,0.000
176184.800,175400.000,711542.900,711962.400,258405.000,183981.600,254994.900,160689.700,0.000
176194.400,175389.200,711546.400,711965.500,258421.000,183960.000,254988.400,160678.000,0.000
176204.700,175385.200,711546.700,711965.900,258468.800,183948.700,255007.300,160681.300,0.000
176204.900,175399.400,711545.600,711965.100,258550.200,183966.800,255067.200,160697.300,0.000
176200.200,175420.300,711545.800,711965.300,258657.900,184000.500,255168.600,160718.100,0.000
176190.200,175394.900,711546.300,711965.300,258654.300,183972.300,255151.300,160682.000,0.000
176204.500,175389.900,711547.400,711966.500,258667.200,183956.300,255143.400,160672.200,0.000
176214.600,175388.200,711545.400,711964.400,258703.600,183942.700,255154.700,160674.600,0.000
176220.300,175403.700,711543.700,711962.900,258780.300,183958.800,255213.000,160691.500,0.000
176208.100,175411.900,711542.300,711961.700,258882.700,183986.900,255305.900,160706.700,0.000
176192.800,175386.300,711540.400,711959.900,258876.000,183952.300,255281.200,160667.600,0.000
176201.800,175379.800,711539.500,711958.600,258884.100,183932.300,255267.800,160656.600,0.000
176214.500,175386.500,711541.900,711960.900,258928.300,183931.000,255288.000,160668.300,0.000
176220.600,175402.000,711541.600,711960.700,259003.200,183954.300,255350.000,160689.700,0.000
176218.800,175419.900,711541.000,711959.900,259105.100,183987.600,255446.800,160709.700,0.000
176198.700,175393.300,711543.100,711962.000,259095.400,183952.500,255421.200,160670.100,0.000
176204.100,175381.700,711543.500,711962.400,259102.500,183932.400,255406.300,160660.100,0.000
176211.300,175377.300,711544.700,711963.600,259137.200,183924.100,255417.600,160667.600,0.000
176221.000,175400.300,711544.400,711963.800,259211.900,183948.000,255479.000,160690.500,0.000
176220.500,175422.300,711544.900,711964.300,259313.900,183984.600,255574.200,160711.800,0.000
176202.200,175389.900,711543.500,711962.400,259295.800,183948.100,255540.600,160669.900,0.000
176210.900,175383.200,711543.900,711962.800,259301.800,183930.600,255528.600,160660.300,0.000
176220.800,175383.800,711545.400,711964.200,259337.100,183925.400,255538.300,160663.200,0.000
176231.500,175408.500,711545.400,711964.600,259412.000,183951.100,255593.500,160684.000,0.000
176220.700,175421.200,711542.900,711962.100,259504.000,183978.000,255683.500,160701.800,0.000
176201.000,175389.000,711541.400,711961.000,259484.400,183941.000,255650.500,160659.200,0.000
176210.100,175382.300,711541.600,711961.300,259483.900,183923.300,255628.200,160645.200,0.000
176221.300,175387.400,711543.100,711962.600,259517.200,183920.400,255637.800,160653.200,0.000
176227.100,175407.400,711543.600,711962.800,259586.600,183941.400,255690.300,160672.300,0.000
176222.100,175424.800,711542.200,711961.500,259682.200,183977.200,255780.700,160692.500,0.000
176204.300,175392.700,711541.300,711960.600,259660.900,183943.300,255745.100,160654.400,0.000
176216.500,175387.100,711542.300,711961.200,259660.700,183925.000,255725.000,160646.600,0.000
176225.700,175390.500,711544.800,711963.600,259692.900,183917.800,255733.700,160654.300,0.000
176228.100,175404.900,711544.100,711963.600,259758.800,183938.400,255785.200,160672.700,0.000
176219.300,175421.700,711544.300,711964.000,259851.800,183974.400,255872.100,160692.000,0.000
176199.200,175388.600,711542.700,711962.200,259831.800,183939.600,255834.000,160653.900,0.000
176202.200,175374.800,711542.600,711962.200,259825.100,183912.800,255806.400,160639.700,0.000
176212.600,175380.700,711542.300,711961.800,259850.600,183905.600,255810.700,160644.600,0.000
176220.200,175402.700,711542.700,711961.800,259918.000,183931.300,255864.300,160666.000,0.000
176217.400,175422.700,711543.600,711962.800,260006.100,183963.700,255948.100,160686.200,0.000
176200.500,175395.000,711541.700,711960.900,259982.500,183926.100,255912.600,160646.900,0.000
