EEG 1, EEG 2, EEG 3, EEG 4, EEG 5, EEG 6, EEG 7, EEG 8, TRIG
65004.340,65004.340,14059.460,60771.230,-65004.350,-51394.840,65004.340,-65004.350,0.000
256133.600,256133.600,60962.730,228672.200,-209690.500,-102410.900,256133.600,-216572.000,0.000
473328.600,488262.500,138349.200,420567.700,-243713.600,24673.700,488262.500,-307024.600,0.000
602887.200,668836.700,253315.000,577581.400,-97690.960,287281.900,668836.700,-270887.000,0.000
645325.300,783576.600,396469.500,701084.400,37271.980,532835.800,783576.600,-187113.100,0.000
621937.500,802020.300,514694.100,769165.400,53899.220,721478.800,825724.900,-149180.200,0.000
548950.400,684871.600,593060.900,778365.600,-42615.530,831828.200,804636.900,-202284.200,0.000
498090.900,513943.700,654074.100,761847.100,-249204.800,843982.400,761561.300,-264662.200,0.000
541364.300,450346.600,701487.800,754612.900,-495640.200,788369.800,741316.600,-251774.400,0.000
643939.800,513641.600,731651.800,760831.200,-691262.900,738868.100,750834.600,-155488.700,0.000
727885.400,613484.200,750295.400,761489.000,-750950.300,740409.200,761001.600,16135.590,0.000
759689.800,696977.800,761875.500,747066.500,-679460.900,767494.100,749565.100,216791.500,0.000
753251.300,750172.500,762645.900,730978.300,-618871.300,769136.100,718828.600,353443.100,0.000
743024.100,768687.400,752152.600,729561.100,-625194.500,731066.100,676614.700,369233.500,0.000
742355.400,754317.000,739735.100,739512.800,-624971.300,678971.200,623840.500,309015.100,0.000
728399.600,713947.900,735379.800,743466.700,-560161.000,636675.600,552060.400,267019.300,0.000
675581.400,657089.500,738287.800,733771.600,-442777.800,592223.800,459031.200,278701.100,0.000
591621.000,590151.700,739262.100,721310.600,-330210.200,518703.000,366419.700,295192.000,0.000
504683.300,512333.800,733318.500,719250.400,-262830.400,422320.900,302052.800,264300.100,0.000
431883.800,427231.400,725450.000,725650.400,-228132.100,342515.000,268690.400,202819.200,0.000
372531.500,352185.800,722817.900,727774.100,-190094.700,304465.900,244097.500,168980.400,0.000
322425.400,304841.300,725004.400,719954.900,-139745.200,291749.200,211949.500,183230.400,0.000
284288.900,283757.100,725291.500,710098.000,-100951.700,272756.800,180444.400,206209.800,0.000
263037.900,271341.800,720105.800,707740.100,-91969.720,241859.600,166649.000,196693.200,0.000
256694.000,255894.600,713357.000,711516.800,-99476.550,221280.000,171443.000,165158.200,0.000
255404.500,241891.500,710533.100,712384.400,-96619.860,225262.800,177757.600,152886.600,0.000
250033.600,237335.500,711402.400,706311.300,-76321.430,238669.600,171927.300,173001.500,0.000
239930.300,239088.000,710998.100,698721.500,-55714.620,237603.000,158780.200,195700.100,0.000
230602.800,236207.900,706621.600,696146.600,-50202.520,220036.300,151963.700,191492.900,0.000
225452.400,224686.800,701037.800,697733.000,-54258.540,205010.100,155004.200,168823.200,0.000
222189.000,212241.700,698201.600,697523.100,-51794.850,205304.400,158354.700,158047.100,0.000
216919.500,207224.000,698019.100,692852.000,-38019.340,212272.000,153605.800,169666.000,0.000
209219.300,207700.600,697031.800,687117.900,-23378.840,210367.500,144044.700,184069.000,0.000
201929.100,205141.600,693317.500,684396.800,-17938.680,198074.300,138671.500,181157.300,0.000
197192.800,196385.700,688705.200,684234.000,-19221.850,187456.700,139973.400,165835.700,0.000
194238.500,187211.800,685872.100,683148.800,-17713.230,186559.900,141976.900,157644.500,0.000
190903.400,183692.000,684826.800,679577.100,-9622.505,190065.500,139177.300,163746.900,0.000
186184.000,184113.500,683350.600,675318.800,56.495,188512.500,133172.700,172329.800,0.000
180895.200,182091.000,680166.600,672511.900,5449.626,180828.700,129224.200,170898.800,0.000
176449.900,175486.800,676350.400,671002.400,6617.514,173769.700,129110.800,161722.900,0.000
173447.500,168677.700,673540.900,669229.500,7847.135,171847.600,129837.400,155841.200,0.000
171220.500,165977.900,671816.800,666486.800,11954.240,172482.500,128327.500,157766.400,0.000
168485.000,165986.700,669946.100,663361.000,18011.350,171035.700,124954.400,161811.600,0.000
164604.100,164172.300,667172.700,660516.800,23409.890,166822.700,122085.200,161498.500,0.000
160380.200,159210.200,663988.300,658015.300,26530.670,162509.500,120890.200,157137.200,0.000
157312.100,154235.900,661216.500,655723.800,27768.610,159863.900,120599.500,153211.500,0.000
155800.900,152084.800,658979.800,653577.500,29099.400,158342.900,119992.100,152116.900,0.000
154436.700,151645.700,656802.500,651284.900,32499.050,156936.700,118565.700,152756.700,0.000
151599.300,149926.400,654335.200,648440.800,37802.480,155280.300,116535.700,153225.100,0.000
147614.300,146240.900,651635.300,645249.900,42309.660,153034.000,114578.400,152456.000,0.000
144531.600,142692.600,648910.600,642586.900,43664.300,149942.900,113522.000,150102.100,0.000
143483.100,140931.400,646306.000,640843.900,43138.700,146910.800,113515.400,146938.400,0.000
143040.300,140096.800,643901.300,639131.800,44632.490,145519.100,113470.400,145133.200,0.000
140974.000,138424.900,641651.700,636315.100,49707.430,145651.000,112077.000,146091.400,0.000
137257.000,135716.800,639308.600,632684.900,55062.360,144884.600,109625.100,147853.800,0.000
134217.900,133246.600,636636.300,629774.500,56543.730,141559.200,108024.500,146710.400,0.000
133445.500,131749.500,633786.400,628279.100,54857.190,137541.600,108385.400,142247.300,0.000
133579.400,130586.800,631222.900,626940.700,55037.710,136149.000,109270.200,138795.300,0.000
132080.000,128949.000,629118.800,624170.400,59780.820,137452.100,108365.800,140012.000,0.000
128670.300,126991.000,627025.300,620300.600,65548.250,137702.700,105670.000,143429.000,0.000
125745.800,125337.200,624407.800,617244.600,67141.450,134333.800,103742.300,143172.500,0.000
125132.400,124038.600,621412.400,615876.100,64819.730,129778.000,104308.000,138002.200,0.000
125595.600,122646.700,618748.200,614747.800,64148.720,128398.600,105769.400,133533.600,0.000
124514.100,121063.600,616732.600,612035.800,68486.540,130405.500,105235.200,134822.800,0.000
121441.500,119678.400,614801.500,608080.100,74319.480,131316.000,102488.800,139185.900,0.000
118686.700,118622.100,612238.500,604958.800,75984.440,128050.500,100401.200,139539.800,0.000
118147.100,117463.200,609177.000,603627.400,73405.340,123301.100,101040.700,134118.000,0.000
118749.200,115913.400,606459.200,602584.500,72225.280,121937.900,102790.300,129133.300,0.000
117956.900,114383.700,604488.800,599936.800,76098.340,124268.100,102510.700,130362.400,0.000
115227.300,113412.100,602651.600,596009.000,81724.980,125538.300,99846.340,135125.100,0.000
112687.700,112781.700,600141.300,592883.900,83420.590,122472.100,97738.170,135869.500,0.000
112186.600,111743.500,597073.800,591526.000,80869.530,117795.400,98386.720,130543.500,0.000
112814.000,110124.900,594339.800,590477.700,79457.500,116470.400,100240.600,125436.000,0.000
112221.000,108664.400,592383.100,587896.100,82851.080,118858.100,100143.300,126522.600,0.000
109826.800,107980.800,590588.100,584075.600,88083.600,120272.400,97657.130,131279.500,0.000
107520.900,107631.800,588127.500,580991.400,89758.450,117469.600,95617.480,132229.900,0.000
107020.200,106685.500,585097.600,579565.500,87404.120,113047.800,96206.210,127223.300,0.000
107581.600,105059.100,582375.900,578449.600,85941.730,111773.300,98008.750,122266.300,0.000
107115.600,103682.800,580316.300,575875.900,88858.640,114032.800,98026.500,123163.700,0.000
105043.500,103199.400,578114.100,571914.600,93581.200,115436.500,95781.500,127639.700,0.000
102986.000,103031.600,574846.400,568185.300,95199.790,112932.400,93882.410,128665.600,0.000
102478.200,102168.700,570658.600,565547.600,93155.890,108890.400,94385.640,124128.400,0.000
102933.000,100592.400,566516.800,562939.000,91779.830,107685.400,96046.410,119511.200,0.000
102549.200,99314.430,563008.200,558984.300,94248.430,109702.000,96131.770,120194.100,0.000
100776.900,98959.590,559745.000,554043.600,98402.770,110989.700,94158.210,124203.900,0.000
98959.550,98885.980,556059.200,549782.400,99931.040,108787.500,92434.700,125196.800,0.000
98424.330,98080.610,551981.900,546948.100,98237.070,105176.800,92821.540,121191.900,0.000
98733.530,96577.350,548189.900,544453.000,97012.760,104036.800,94269.060,117018.800,0.000
98392.040,95399.700,545057.100,540939.900,99060.050,105742.600,94384.080,117485.100,0.000
96895.700,95126.170,542151.100,536596.300,102627.700,106860.900,92700.950,120936.300,0.000
95317.590,95099.430,538841.900,532787.300,104047.500,104972.400,91187.860,121839.500,0.000
94769.130,94356.340,535148.400,530146.400,102724.500,101837.400,91466.190,118404.900,0.000
94935.860,92958.260,531671.600,527779.600,101701.300,100775.000,92676.000,114740.700,0.000
94609.830,91876.160,528752.900,524562.000,103364.700,102131.700,92784.690,114995.900,0.000
93349.380,91632.170,526031.400,520645.000,106348.700,103026.000,91367.050,117835.900,0.000
91986.140,91600.770,522967.700,517153.300,107637.600,101413.100,90056.890,118597.700,0.000
91421.020,90905.300,519573.300,514615.900,106667.700,98737.980,90226.050,115718.400,0.000
91445.930,89626.300,516356.600,512316.100,105866.100,97755.780,91194.850,112581.900,0.000
91120.770,88647.360,513609.100,509342.200,107203.500,98775.050,91290.370,112658.100,0.000
90067.390,88416.930,511031.900,505803.200,109651.100,99447.190,90131.370,114904.700,0.000
88902.640,88362.760,508174.000,502590.700,110807.500,98094.050,89026.480,115511.800,0.000
88331.330,87714.100,505039.100,500130.900,110159.900,95859.090,89099.960,113154.300,0.000
88226.630,86554.840,502042.300,497868.500,109570.700,94951.540,89831.980,110524.200,0.000
87886.210,85661.630,499426.300,495090.000,110616.500,95642.020,89890.510,110433.800,0.000
87000.220,85414.950,496953.900,491871.000,112567.500,96087.550,88950.440,112109.000,0.000
86003.150,85313.610,494260.800,488893.400,113582.700,94956.510,88026.670,112542.800,0.000
85428.020,84704.580,491345.600,486490.000,113213.200,93121.930,88014.300,110649.200,0.000
85215.450,83671.070,488537.200,484249.700,112829.300,92295.940,88536.660,108494.800,0.000
84863.430,82867.770,486029.900,481634.100,113641.800,92702.640,88565.790,108277.100,0.000
84121.380,82602.660,483640.600,478689.400,115162.700,92945.290,87826.430,109445.900,0.000
83270.920,82450.330,481084.900,475914.200,116041.300,92004.950,87072.060,109715.600,0.000
82693.270,81871.320,478356.800,473557.200,115895.000,90516.220,86985.040,108220.500,0.000
82380.110,80944.510,475706.600,471328.800,115676.500,89753.530,87308.180,106478.500,0.000
82003.770,80213.730,473286.300,468844.300,116286.300,89905.820,87291.100,106148.700,0.000
81372.990,79924.570,470962.000,466128.200,117437.100,89967.380,86713.890,106873.100,0.000
80646.690,79723.840,468519.000,463522.900,118190.300,89188.800,86104.420,106991.700,0.000
80078.390,79177.590,465947.900,461204.700,118227.400,88001.530,85959.420,105838.800,0.000
79693.160,78355.790,463431.700,458986.000,118156.400,87303.550,86119.280,104465.200,0.000
79298.770,77692.840,461084.900,456609.900,118608.500,87245.460,86064.370,104060.300,0.000
78753.860,77376.200,458814.500,454083.800,119450.800,87148.020,85621.880,104417.100,0.000
78124.600,77124.340,456466.400,451622.700,120084.300,86493.600,85133.630,104401.400,0.000
77565.200,76604.680,454030.000,449343.400,120255.500,85552.260,84942.450,103524.500,0.000
77124.800,75878.080,451629.800,447138.300,120299.600,84911.770,84967.010,102456.600,0.000
76715.770,75276.330,449346.400,444852.100,120623.600,84686.520,84876.110,101996.100,0.000
76239.270,74935.590,447120.500,442479.900,121209.700,84461.160,84539.710,102053.000,0.000
75692.030,74639.210,444849.500,440137.100,121730.400,83907.120,84151.880,101922.500,0.000
75148.140,74140.760,442522.800,437892.600,121990.200,83165.630,83926.880,101265.600,0.000
74670.970,73492.310,440218.600,435701.600,122115.900,82576.150,83841.160,100449.000,0.000
74251.520,72939.010,437990.300,433489.500,122337.000,82222.000,83713.950,99952.770,0.000
73826.410,72574.850,435805.200,431243.000,122717.400,81895.210,83453.380,99773.720,0.000
73344.600,72240.620,433601.700,429001.000,123137.000,81417.300,83140.800,99546.350,0.000
72817.770,71762.080,431368.400,426793.800,123450.500,80829.670,82888.160,99052.270,0.000
72314.510,71181.950,429146.600,424622.300,123633.300,80280.710,82715.120,98427.090,0.000
71884.900,70673.110,426968.200,422473.000,123780.600,79830.710,82559.190,97906.200,0.000
71493.860,70292.810,424820.700,420327.500,124006.200,79425.790,82357.660,97545.880,0.000
71058.270,69929.120,422674.300,418168.800,124340.100,79002.670,82106.890,97237.710,0.000
70550.930,69472.960,420520.700,416001.000,124686.000,78538.090,81845.950,96867.410,0.000
70040.730,68957.730,418372.900,413857.000,124911.600,78036.260,81621.020,96400.720,0.000
69606.300,68486.800,416242.400,411763.200,125002.800,77525.910,81444.320,95877.350,0.000
69232.220,68087.090,414130.100,409697.400,125102.800,77062.750,81276.130,95389.340,0.000
68823.760,67692.050,412032.100,407606.400,125352.700,76673.090,81060.340,95018.480,0.000
68327.380,67243.610,409941.800,405475.000,125693.900,76287.160,80781.780,94726.790,0.000
67808.420,66766.890,407851.800,403356.600,125926.100,75808.850,80503.660,94363.120,0.000
67370.390,66321.120,405762.500,401307.800,125967.900,75255.130,80301.210,93838.100,0.000
67015.730,65915.580,403685.900,399307.200,125978.000,74759.960,80156.700,93267.580,0.000
66637.980,65510.280,401633.300,397275.800,126159.800,74402.040,79971.180,92854.960,0.000
66161.560,65078.000,399597.900,395183.300,126480.800,74075.810,79686.040,92613.700,0.000
65646.480,64636.890,397559.100,393095.300,126706.700,73619.680,79373.970,92320.160,0.000
65208.450,64212.300,395508.900,391086.600,126714.100,73040.960,79151.020,91799.680,0.000
64861.600,63799.370,393466.700,389137.400,126663.500,72521.370,79016.380,91178.770,0.000
64499.950,63382.040,391455.300,387156.200,126792.300,72177.100,78849.200,90738.250,0.000
64039.510,62960.640,389468.700,385104.600,127088.100,71888.260,78565.220,90529.130,0.000
63532.020,62547.300,387476.400,383051.300,127301.700,71454.850,78237.930,90287.000,0.000
63093.930,62139.570,385464.300,381079.300,127283.200,70871.890,78002.140,89781.710,0.000
62748.580,61722.490,383455.600,379170.900,127184.600,70342.450,77867.450,89137.240,0.000
62397.350,61298.490,381479.900,377231.100,127258.000,70003.650,77706.190,88674.380,0.000
61955.250,60888.220,379532.700,375217.800,127509.700,69733.510,77423.360,88471.130,0.000
61464.640,60499.150,377579.500,373199.500,127695.400,69316.500,77089.200,88250.990,0.000
61032.450,60107.590,375602.700,371260.100,127652.300,68738.650,76842.080,87757.340,0.000
60685.890,59692.420,373626.300,369384.500,127519.800,68209.200,76700.050,87108.120,0.000
60339.140,59270.090,371684.200,367480.600,127549.600,67874.510,76540.770,86637.480,0.000
59911.440,58872.320,369772.500,365505.800,127759.100,67614.900,76264.430,86435.220,0.000
59438.190,58502.750,367855.300,363524.000,127918.600,67214.770,75934.000,86229.620,0.000
59018.380,58126.310,365913.900,361616.700,127866.800,66656.460,75685.640,85761.330,0.000
58676.660,57714.430,363971.100,359770.300,127719.400,66136.300,75536.080,85132.480,0.000
58333.150,57288.550,362059.500,357897.400,127705.300,65793.660,75364.310,84660.720,0.000
57914.720,56891.770,360176.900,355957.800,127853.500,65522.730,75076.850,84442.170,0.000
57451.870,56527.930,358289.800,354010.700,127964.800,65124.460,74736.340,84227.540,0.000
57032.520,56154.620,356379.400,352130.400,127889.400,64579.170,74472.800,83767.520,0.000
56684.190,55744.880,354467.600,350306.800,127727.700,64069.750,74308.710,83151.770,0.000
56341.950,55327.110,352586.400,348463.000,127688.700,63729.630,74137.860,82679.350,0.000
55938.080,54942.380,350733.900,346561.200,127800.100,63460.460,73867.130,82444.560,0.000
55492.460,54587.940,348877.100,344650.900,127881.700,63074.800,73541.280,82219.990,0.000
55080.620,54220.840,346997.500,342797.600,127796.400,62552.020,73275.200,81776.020,0.000
54730.520,53817.350,345115.700,340994.500,127628.000,62057.250,73094.330,81188.210,0.000
54389.900,53407.510,343261.600,339175.600,127558.600,61711.790,72908.340,80722.320,0.000
54000.420,53032.880,341434.000,337307.200,127618.400,61431.820,72635.470,80467.410,0.000
53576.150,52691.130,339604.200,335431.900,127660.800,61055.740,72317.250,80229.590,0.000
53178.090,52337.300,337756.100,333606.300,127567.900,60563.120,72055.150,79805.470,0.000
52828.600,51943.620,335906.400,331824.800,127401.100,60090.110,71868.070,79251.980,0.000
52486.630,51538.910,334080.600,330031.000,127311.600,59739.860,71676.910,78797.370,0.000
52106.920,51167.160,332278.500,328196.700,127330.500,59446.450,71412.340,78525.440,0.000
51699.570,50828.300,330475.700,326356.700,127338.200,59075.870,71107.220,78275.090,0.000
51310.050,50478.520,328656.700,324556.900,127231.600,58606.660,70843.750,77869.190,0.000
50956.910,50092.110,326835.100,322792.900,127057.000,58150.380,70640.190,77350.410,0.000
50610.500,49696.380,325033.300,321020.000,126940.300,57796.140,70435.450,76910.350,0.000
50233.330,49327.890,323252.100,319215.100,126910.600,57489.790,70170.120,76620.380,0.000
49831.760,48985.510,321471.100,317405.500,126875.300,57119.880,69868.840,76349.340,0.000
49445.460,48635.680,319678.500,315629.200,126754.500,56671.470,69602.650,75954.090,0.000
49093.160,48259.600,317885.500,313884.000,126582.800,56236.950,69390.130,75468.380,0.000
48751.990,47879.300,316110.800,312134.600,126456.700,55886.640,69181.310,75045.080,0.000
48389.880,47523.040,314354.800,310362.200,126398.600,55575.210,68924.530,74742.090,0.000
48007.490,47187.010,312600.300,308586.600,126336.400,55212.280,68636.160,74456.110,0.000
47631.370,46839.930,310835.700,306835.600,126204.000,54782.270,68369.770,74070.450,0.000
47276.190,46466.190,309069.700,305108.000,126023.800,54356.730,68140.240,73608.250,0.000
46929.640,46089.130,307317.800,303378.300,125874.100,53996.510,67914.590,73192.380,0.000
46570.640,45735.920,305581.300,301632.300,125778.100,53671.430,67656.110,72872.400,0.000
46198.780,45403.220,303847.300,299884.600,125684.700,53311.800,67375.810,72569.530,0.000
45831.880,45062.730,302107.100,298156.300,125542.500,52902.390,67111.980,72191.480,0.000
45479.930,44699.090,300367.200,296447.100,125362.700,52493.980,66874.070,71751.840,0.000
45135.300,44331.770,298639.800,294738.900,125201.600,52132.520,66638.700,71343.830,0.000
44783.380,43983.740,296926.400,293021.400,125078.500,51797.650,66379.080,71008.180,0.000
44421.190,43651.000,295216.600,291303.800,124957.400,51438.290,66101.840,70688.330,0.000
44060.070,43311.550,293503.000,289600.400,124800.900,51042.930,65835.980,70316.230,0.000
43709.500,42955.760,291789.800,287911.100,124615.500,50648.480,65590.930,69900.100,0.000
43365.330,42596.980,290085.400,286223.300,124438.000,50287.290,65348.610,69503.960,0.000
43018.100,42251.720,288391.000,284529.600,124283.100,49945.380,65087.210,69157.250,0.000
42667.420,41920.580,286700.600,282836.800,124133.100,49590.070,64813.920,68825.480,0.000
42319.100,41586.780,285010.100,281155.400,123964.800,49212.710,64550.860,68461.850,0.000
41976.660,41239.550,283322.200,279485.800,123776.400,48833.910,64302.840,68066.360,0.000
41638.010,40889.130,281642.000,277819.700,123588.900,48473.720,64057.450,67679.540,0.000
41298.400,40549.450,279970.200,276152.000,123413.500,48124.670,63799.540,67323.920,0.000
40956.930,40220.910,278302.700,274486.000,123243.100,47768.380,63533.240,66981.550,0.000
40615.020,39890.040,276636.000,272827.400,123062.400,47398.780,63271.630,66621.440,0.000
40274.590,39548.210,274971.200,271176.600,122863.900,47025.960,63016.000,66238.600,0.000
39937.300,39204.160,273312.000,269530.000,122659.100,46663.380,62761.370,65857.910,0.000
39601.730,38868.910,271660.200,267885.400,122459.300,46309.830,62501.050,65496.900,0.000
39265.930,38542.770,270014.100,266244.500,122266.600,45956.550,62237.960,65148.970,0.000
38929.510,38216.170,268371.200,264609.300,122072.700,45598.110,61977.700,64795.870,0.000
38593.430,37881.790,266730.300,262979.100,121864.800,45234.950,61716.210,64428.620,0.000
38259.570,37544.750,265092.500,261352.000,121644.500,44874.190,61451.420,64057.780,0.000
37927.810,37213.180,263459.600,259728.000,121422.700,44519.480,61183.430,63695.500,0.000
37596.180,36888.390,261832.100,258107.900,121208.000,44169.460,60915.350,63342.430,0.000
37262.990,36564.480,260209.700,256492.600,120998.600,43820.540,60650.300,62990.700,0.000
36929.680,36237.290,258591.900,254883.000,120785.100,43470.290,60388.750,62634.460,0.000
36600.800,35910.780,256979.000,253279.900,120565.600,43121.410,60133.350,62276.560,0.000
36277.150,35587.970,255371.000,251682.400,120340.000,42774.730,59878.680,61920.090,0.000
35953.740,35266.810,253766.700,250087.500,120110.200,42429.460,59617.790,61566.560,0.000
35625.460,34943.560,252166.000,248493.800,119878.200,42084.000,59350.380,61215.930,0.000
35293.490,34618.000,250569.400,246903.700,119642.100,41735.890,59080.290,60865.120,0.000
34964.360,34294.420,248977.000,245320.200,119403.100,41386.630,58814.910,60512.050,0.000
34641.520,33974.850,247388.900,243743.600,119164.500,41040.240,58554.870,60158.700,0.000
34322.660,33658.570,245805.400,242170.800,118932.500,40702.030,58297.550,59813.410,0.000
34003.760,33343.460,244226.600,240599.200,118707.400,40370.900,58038.560,59479.550,0.000
33683.690,33028.410,242652.300,239030.300,118478.700,40038.260,57774.670,59147.480,0.000
33364.010,32713.880,241081.700,237467.700,118237.700,39699.060,57512.020,58805.180,0.000
33045.960,32398.420,239514.400,235912.000,117983.300,39354.710,57252.250,58449.870,0.000
32730.020,32082.890,237951.000,234359.900,117727.500,39012.890,56991.270,58094.610,0.000
32414.360,31769.300,236392.700,232808.800,117481.300,38677.670,56725.380,57754.870,0.000
32097.920,31458.380,234839.700,231260.600,117239.900,38343.960,56456.570,57431.260,0.000
31783.650,31150.500,233290.700,229719.200,116993.100,38007.500,56193.740,57108.320,0.000
31472.600,30842.790,231744.800,228185.300,116733.800,37669.730,55935.340,56770.270,0.000
31162.010,30533.990,230203.000,226655.100,116469.600,37337.680,55676.520,56424.050,0.000
30848.060,30225.470,228666.100,225125.500,116209.900,37011.700,55416.070,56084.040,0.000
30531.370,29918.540,227133.900,223597.800,115950.600,36682.960,55153.130,55747.870,0.000
30217.640,29613.360,225605.300,222076.500,115683.600,36347.680,54891.660,55404.570,0.000
29908.690,29306.290,224079.600,220562.800,115405.200,36009.270,54629.720,55050.470,0.000
29600.650,28996.780,222557.800,219052.800,115125.200,35676.420,54362.650,54698.270,0.000
29289.540,28688.640,221041.100,217543.500,114854.300,35352.680,54089.080,54361.000,0.000
28976.210,28384.780,219529.100,216036.200,114587.900,35030.730,53811.880,54033.270,0.000
28665.830,28084.480,218020.400,214534.700,114315.800,34704.310,53540.310,53700.770,0.000
28361.390,27783.740,216514.800,213040.700,114034.000,34375.380,53275.760,53358.570,0.000
28061.330,27482.880,215014.100,211551.600,113752.900,34052.630,53013.680,53019.140,0.000
27760.880,27183.740,213518.700,210063.600,113479.900,33736.370,52747.540,52692.410,0.000
27458.710,26886.370,212027.400,208576.900,113207.000,33417.080,52474.890,52371.170,0.000
27158.520,26590.230,210539.200,207095.800,112926.100,33091.070,52203.930,52043.430,0.000
26861.050,26291.580,209053.900,205621.800,112633.800,32761.550,51935.610,51704.600,0.000
26563.920,25990.960,207572.300,204151.600,112338.800,32437.330,51666.460,51365.520,0.000
26264.730,25692.650,206095.600,202682.600,112052.000,32122.660,51394.950,51038.380,0.000
25964.030,25398.470,204624.100,201216.200,111769.900,31810.590,51121.070,50719.250,0.000
25665.330,25107.790,203156.300,199755.500,111483.700,31494.630,50850.690,50395.660,0.000
25370.850,24817.600,201691.800,198301.800,111189.500,31176.710,50585.240,50062.540,0.000
25079.990,24527.330,200231.900,196853.000,110895.500,30865.370,50322.250,49730.330,0.000
24787.680,24236.580,198776.700,195405.600,110607.100,30560.080,50055.600,49407.460,0.000
24490.410,23944.190,197325.100,193959.500,110317.900,30250.930,49781.370,49088.300,0.000
24192.650,23652.610,195876.400,192518.000,110022.800,29935.270,49507.740,48764.610,0.000
23900.180,23363.660,194431.500,191083.600,109722.400,29619.070,49240.210,48435.180,0.000
23612.950,23077.440,192991.500,189654.300,109423.500,29310.650,48977.430,48108.880,0.000
23326.440,22793.740,191556.400,188227.000,109130.000,29010.110,48713.610,47792.250,0.000
23038.720,22513.020,190125.400,186801.700,108836.900,28709.740,48444.990,47480.820,0.000
22750.720,22233.530,188697.500,185381.000,108539.300,28404.320,48176.150,47165.520,0.000
22462.850,21950.270,187273.100,183966.300,108234.200,28093.940,47908.210,46841.130,0.000
22176.790,21664.710,185853.300,182556.700,107927.700,27785.660,47641.090,46515.290,0.000
21892.010,21381.130,184438.300,181149.600,107624.700,27482.090,47372.490,46196.140,0.000
21606.200,21099.730,183026.300,179744.000,107320.200,27177.290,47098.730,45880.500,0.000
21320.000,20819.160,181616.400,178341.600,107010.200,26868.850,46823.960,45562.100,0.000
21035.740,20538.100,180209.500,176944.300,106694.700,26559.390,46551.150,45239.130,0.000
20755.190,20258.590,178807.200,175551.800,106380.900,26254.780,46282.010,44919.020,0.000
20476.200,19981.700,177409.900,174162.700,106073.000,25955.980,46014.690,44607.640,0.000
20196.910,19706.740,176017.300,172776.800,105766.900,25658.380,45746.090,44301.720,0.000
19919.450,19434.510,174628.700,171395.700,105460.300,25360.670,45480.820,43996.110,0.000
19644.230,19162.420,173243.500,170019.600,105149.700,25062.480,45218.860,43686.270,0.000
19369.410,18888.250,171861.600,168647.200,104835.800,24765.250,44957.030,43373.820,0.000
19093.600,18613.380,170483.300,167277.200,104521.300,24469.920,44692.840,43063.350,0.000
18817.010,18340.350,169109.300,165910.300,104206.600,24174.840,44425.290,42755.480,0.000
18540.130,18069.180,167739.200,164547.800,103891.000,23879.430,44158.140,42447.210,0.000
18263.290,17796.920,166372.500,163190.100,103570.800,23583.130,43890.710,42134.510,0.000
17989.120,17525.330,165009.600,161836.400,103248.500,23288.800,43623.700,41821.430,0.000
17718.790,17257.250,163651.200,160486.000,102930.000,22998.450,43358.670,41514.410,0.000
17449.990,16991.400,162297.000,159138.900,102613.900,22709.350,43092.770,41212.520,0.000
17181.080,16726.180,160946.500,157795.900,102297.000,22419.490,42826.230,40911.100,0.000
16912.550,16460.400,159599.400,156457.200,101975.600,22128.250,42558.460,40606.070,0.000
16645.860,16195.330,158255.900,155122.500,101652.200,21838.760,42291.430,40300.220,0.000
16380.550,15932.080,156916.600,153791.400,101330.400,21552.370,42026.430,39997.570,0.000
16115.710,15670.240,155581.500,152463.900,101008.600,21266.400,41761.100,39697.210,0.000
15851.750,15409.970,154250.000,151140.200,100686.500,20980.220,41497.010,39397.620,0.000
15588.040,15149.880,152922.200,149820.500,100361.800,20693.290,41232.640,39096.210,0.000
15325.670,14891.440,151598.300,148504.800,100036.300,20408.910,40969.260,38795.180,0.000
15065.260,14635.360,150278.500,147193.000,99712.950,20128.650,40708.700,38497.480,0.000
14804.500,14378.150,148962.000,145884.100,99388.600,19848.010,40446.880,38200.630,0.000
14543.250,14119.230,147648.300,144578.100,99063.170,19565.870,40184.160,37903.560,0.000
14282.790,13859.870,146338.100,143276.100,98736.050,19282.980,39920.650,37606.130,0.000
14022.620,13600.720,145032.100,141978.300,98406.930,19000.310,39656.180,37308.360,0.000
13762.190,13341.750,143730.300,140684.500,98076.190,18718.440,39390.430,37010.450,0.000
13504.270,13085.260,142433.300,139395.200,97745.020,18439.010,39123.660,36714.490,0.000
13250.810,12833.890,141140.700,138110.300,97417.050,18164.500,38860.030,36423.400,0.000
12998.440,12584.520,139851.800,136829.300,97090.090,17892.560,38598.610,36135.000,0.000
12744.530,12334.760,138566.100,135551.600,96762.440,17621.660,38338.800,35847.920,0.000
12488.900,12084.160,137283.500,134277.000,96433.130,17350.270,38079.190,35560.800,0.000
12231.860,11831.970,136003.900,133005.200,96099.780,17075.830,37815.610,35271.090,0.000
11974.640,11579.360,134727.500,131736.600,95764.590,16800.180,37550.140,34980.360,0.000
11718.400,11327.080,133454.600,130471.600,95427.950,16524.880,37284.050,34689.710,0.000
11464.590,11076.650,132185.800,129210.800,95091.270,16251.250,37019.440,34399.810,0.000
11213.320,10828.370,130921.300,127954.400,94755.670,15979.490,36757.200,34110.910,0.000
10963.380,10581.260,129661.300,126702.400,94419.950,15708.380,36494.930,33822.860,0.000
10714.600,10336.150,128405.300,125454.000,94086.660,15438.790,36234.650,33537.300,0.000
10467.180,10092.270,127152.500,124208.800,93756.230,15170.160,35975.230,33253.120,0.000
10221.180,9848.755,125903.000,122966.900,93434.640,14902.250,35714.770,32968.840,0.000
9975.459,9604.842,124656.700,121728.500,93133.010,14633.670,35450.930,32683.230,0.000
9729.829,9360.846,123413.900,120493.500,92849.390,14363.490,35181.750,32396.280,0.000
9485.060,9119.115,122174.500,119261.900,92567.820,14095.480,34912.540,32111.110,0.000
9240.175,8878.892,120938.700,118033.800,92270.290,13830.440,34645.400,31827.880,0.000
8996.050,8639.635,119706.800,116809.700,91951.770,13568.410,34382.410,31547.130,0.000
8753.661,8401.221,118479.300,115590.000,91613.730,13309.410,34124.090,31268.770,0.000
8512.374,8162.716,117255.700,114374.300,91260.940,13052.000,33867.260,30991.450,0.000
8271.306,7923.713,116035.600,113162.100,90906.680,12795.160,33612.310,30715.800,0.000
8029.122,7683.024,114818.800,111953.000,90557.830,12536.060,33356.020,30439.970,0.000
7787.428,7443.075,113605.800,110747.500,90214.120,12276.230,33098.730,30164.570,0.000
7548.182,7206.904,112396.600,109546.000,89871.200,12018.860,32843.350,29892.360,0.000
7310.778,6973.735,111191.100,108348.300,89524.620,11763.900,32588.330,29623.150,0.000
7073.300,6740.862,109988.900,107153.800,89177.470,11510.240,32333.010,29354.660,0.000
6834.808,6506.765,108789.900,105962.300,88832.520,11255.900,32076.170,29084.180,0.000
6596.963,6273.624,107594.400,104774.100,88490.610,11002.100,31820.740,28812.740,0.000
6359.988,6041.388,106402.300,103589.700,88147.530,10749.050,31567.470,28540.080,0.000
6123.775,5809.027,105213.700,102408.900,87799.660,10496.040,31313.100,28265.310,0.000
5890.412,5579.021,104028.700,101231.800,87452.810,10245.370,31059.650,27991.820,0.000
5660.679,5352.192,102847.700,100058.500,87109.300,9996.345,30806.420,27721.090,0.000
5432.914,5126.632,101670.600,98888.950,86766.530,9747.443,30552.250,27452.090,0.000
5204.323,4899.470,100496.900,97723.090,86420.220,9497.530,30296.870,27182.280,0.000
4974.752,4671.453,99326.770,96560.770,86069.350,9247.163,30040.930,26911.530,0.000
4745.889,4445.714,98160.140,95401.800,85720.070,8999.231,29788.150,26643.110,0.000
4517.313,4220.384,96996.730,94245.880,85373.020,8752.217,29535.530,26375.760,0.000
4289.288,3994.032,95836.630,93093.230,85026.870,8505.197,29282.030,26108.780,0.000
4062.653,3768.063,94680.090,91944.230,84681.230,8259.349,29030.700,25843.570,0.000
3838.760,3544.777,93527.120,90798.940,84335.840,8015.996,28781.770,25581.010,0.000
3618.812,3326.244,92378.070,89657.480,83993.950,7776.559,28535.390,25322.270,0.000
3398.952,3108.966,91232.670,88519.530,83653.030,7536.815,28286.740,25063.770,0.000
3175.458,2889.454,90090.340,87384.630,83310.320,7294.480,28035.160,24802.780,0.000
2949.276,2667.978,88951.110,86252.990,82965.370,7051.562,27783.780,24539.870,0.000
2722.359,2445.416,87815.010,85124.680,82616.960,6809.238,27531.880,24275.310,0.000
2496.540,2223.515,86682.550,84000.020,82269.480,6569.229,27281.670,24011.610,0.000
2273.239,2003.260,85554.590,82879.640,81925.020,6331.083,27033.320,23750.340,0.000
2052.577,1785.661,84430.800,81763.260,81583.270,6094.938,26787.320,23492.200,0.000
1832.740,1569.891,83310.380,80650.280,81242.250,5860.124,26543.510,23235.830,0.000
1612.171,1353.454,82192.840,79540.300,80898.340,5624.140,26297.990,22978.380,0.000
1391.796,1136.784,81078.370,78433.300,80553.190,5388.148,26050.330,22720.850,0.000
1173.696,922.005,79967.950,77330.200,80208.240,5154.373,25800.630,22465.170,0.000
958.354,710.406,78861.920,76231.450,79864.480,4923.609,25551.210,22212.470,0.000
743.102,499.338,77759.130,75135.930,79520.190,4692.127,25301.870,21960.360,0.000
527.037,286.700,76658.870,74043.020,79173.030,4457.880,25051.000,21706.980,0.000
311.622,74.074,75561.490,72953.090,78825.760,4224.334,24802.250,21454.480,0.000
96.559,-138.621,74467.090,71866.130,78477.390,3990.611,24554.520,21201.830,0.000
-117.479,-350.476,73375.630,70782.040,78128.380,3756.009,24307.150,20948.580,0.000
-329.047,-560.058,72287.510,69701.320,77780.950,3522.413,24060.810,20695.850,0.000
-538.140,-768.146,71203.280,68624.540,77434.380,3290.490,23814.600,20444.190,0.000
-746.335,-976.239,70122.900,67551.550,77088.830,3060.382,23569.820,20194.060,0.000
-954.116,-1184.168,69046.340,66482.350,76743.820,2831.854,23325.270,19945.150,0.000
-1159.379,-1388.838,67974.080,65417.510,76401.940,2607.212,23083.000,19699.960,0.000
-1364.142,-1592.475,66905.410,64356.340,76060.700,2384.226,22841.240,19456.260,0.000
-1571.424,-1798.803,65839.510,63297.880,75715.530,2159.456,22595.170,19209.660,0.000
-1779.772,-2005.410,64776.930,62242.590,75370.730,1935.880,22348.830,18962.570,0.000
-1987.847,-2210.890,63717.660,61190.480,75026.790,1713.514,22102.850,18716.020,0.000
-2194.479,-2414.753,62661.040,60141.040,74682.910,1491.970,21857.330,18471.170,0.000
-2398.555,-2616.233,61607.440,59094.830,74339.990,1272.297,21613.930,18229.640,0.000
-2599.784,-2814.739,60558.160,58053.010,73998.200,1054.399,21372.740,17991.220,0.000
-2799.668,-3010.725,59513.430,57015.640,73658.660,837.983,21135.840,17755.410,0.000
-3001.135,-3207.658,58471.930,55981.470,73317.050,620.289,20899.430,17518.730,0.000
-3203.653,-3405.626,57432.910,54949.750,72972.590,401.795,20661.900,17280.660,0.000
-3406.516,-3604.161,56396.440,53920.550,72627.400,183.155,20423.480,17041.900,0.000
-3609.608,-3803.628,55362.980,52894.380,72281.300,-36.077,20182.840,16802.290,0.000
-3810.108,-4000.953,54333.550,51872.140,71937.140,-252.638,19943.510,16564.770,0.000
-4006.911,-4195.188,53308.380,50854.060,71594.350,-466.868,19705.050,16329.450,0.000
-4201.375,-4387.349,52286.440,49839.310,71252.450,-680.783,19466.700,16094.890,0.000
-4395.094,-4578.770,51267.180,48827.400,70911.650,-894.484,19228.630,15860.190,0.000
-4588.287,-4769.709,50251.230,47818.750,70571.730,-1106.482,18990.630,15625.660,0.000
-4781.024,-4959.680,49238.610,46813.240,70234.510,-1315.520,18755.270,15392.660,0.000
-4975.083,-5150.454,48228.910,45810.530,69897.060,-1524.751,18520.130,15159.240,0.000
-5169.018,-5340.016,47222.770,44811.420,69560.120,-1733.271,18286.220,14926.610,0.000
-5361.196,-5526.896,46220.390,43816.160,69224.370,-1940.052,18054.520,14695.710,0.000
-5553.084,-5713.716,45220.780,42823.730,68885.270,-2148.763,17820.430,14464.040,0.000
-5744.470,-5900.723,44223.590,41833.760,68543.960,-2358.633,17585.190,14232.980,0.000
-5935.720,-6089.238,43229.130,40846.460,68200.640,-2568.837,17348.560,14002.310,0.000
-6126.792,-6278.984,42237.900,39862.240,67857.000,-2778.327,17111.930,13771.820,0.000
-6316.556,-6467.774,41250.290,38881.570,67516.300,-2985.517,16878.260,13542.720,0.000
-6505.462,-6655.862,40266.240,37904.510,67177.660,-3191.187,16646.490,13315.090,0.000
-6694.081,-6843.418,39285.910,36931.180,66840.630,-3395.690,16416.920,13089.770,0.000
-6883.116,-7031.123,38309.310,35961.620,66501.530,-3601.005,16186.570,12865.060,0.000
-7071.647,-7217.802,37335.960,34995.380,66160.330,-3806.292,15955.750,12641.140,0.000
-7257.637,-7401.288,36365.700,34032.300,65820.460,-4008.767,15727.650,12420.300,0.000
-7440.739,-7581.396,35398.770,33072.610,65481.980,-4208.024,15501.180,12202.550,0.000
-7622.270,-7759.451,34435.210,32116.280,65144.730,-4404.289,15275.770,11987.090,0.000
-7804.160,-7938.154,33474.950,31163.070,64805.960,-4599.503,15048.280,11771.040,0.000
-7987.544,-8118.078,32517.650,30212.660,64466.100,-4794.026,14818.530,11553.570,0.000
-8172.747,-8299.182,31563.060,29264.930,64126.840,-4988.451,14588.010,11335.320,0.000
-8358.219,-8480.721,30611.380,28320.160,63787.450,-5183.693,14356.630,11116.720,0.000
-8542.087,-8660.445,29662.830,27378.540,63449.650,-5378.400,14127.580,10899.540,0.000
-8724.848,-8838.738,28717.560,26440.180,63112.100,-5573.304,13899.940,10683.020,0.000
-8906.951,-9015.730,27775.810,25505.400,62775.380,-5767.563,13673.780,10467.210,0.000
-9087.805,-9191.288,26837.870,24574.490,62440.970,-5960.133,13449.610,10252.330,0.000
-9265.999,-9365.609,25903.810,23647.380,62107.880,-6151.450,13225.640,10037.850,0.000
-9441.937,-9539.212,24972.810,22723.240,61776.620,-6341.897,13002.930,9824.056,0.000
-9617.885,-9713.865,24044.080,21801.390,61444.860,-6533.933,12779.340,9609.130,0.000
-9793.179,-9887.499,23118.340,20882.510,61114.390,-6725.984,12556.380,9394.393,0.000
-9967.427,-10059.100,22196.220,19967.200,60786.750,-6916.981,12335.720,9180.482,0.000
-10142.090,-10230.920,21277.020,19054.730,60458.090,-7109.030,12113.640,8964.904,0.000
-10317.250,-10402.790,20360.140,18144.630,60128.820,-7300.762,11890.850,8748.668,0.000
-10492.480,-10574.460,19445.650,17237.020,59799.070,-7491.622,11667.210,8532.703,0.000
-10666.690,-10745.210,18534.000,16332.240,59470.310,-7680.811,11444.530,8318.626,0.000
-10839.080,-10914.660,17626.280,15431.330,59144.270,-7867.792,11224.770,8107.717,0.000
-11010.230,-11083.880,16722.790,14534.670,58818.870,-8054.523,11005.320,7898.083,0.000
-11180.810,-11253.010,15822.710,13641.520,58493.550,-8241.631,10786.130,7688.350,0.000
-11350.280,-11421.280,14925.710,12751.530,58167.220,-8428.941,10566.260,7477.846,0.000
-11517.260,-11587.000,14031.860,11864.640,57841.200,-8614.841,10346.850,7267.959,0.000
-11682.010,-11750.530,13141.110,10980.640,57516.640,-8798.966,10129.500,7059.733,0.000
-11845.820,-11913.190,12253.250,10099.350,57192.790,-8981.680,9913.796,6853.363,0.000
-12011.050,-12076.640,11367.630,9220.314,56869.860,-9163.261,9699.937,6648.228,0.000
-12179.160,-12243.090,10484.290,8343.654,56544.870,-9346.446,9484.073,6441.142,0.000
-12347.400,-12410.260,9604.100,7470.193,56219.320,-9530.138,9267.117,6233.043,0.000
-12514.590,-12575.890,8727.310,6600.170,55895.430,-9713.180,9051.196,6025.518,0.000
-12681.730,-12740.200,7853.559,5733.225,55571.800,-9896.838,8835.448,5818.479,0.000
-12847.880,-12902.290,6982.881,4869.322,55250.290,-10079.710,8622.993,5613.889,0.000
-13012.170,-13062.810,6115.644,4008.864,54929.540,-10261.780,8412.818,5411.281,0.000
-13174.130,-13222.470,5251.826,3151.871,54608.940,-10442.340,8203.944,5210.438,0.000
-13334.230,-13381.790,4391.056,2297.915,54288.850,-10621.190,7995.781,5010.867,0.000
-13492.460,-13540.210,3533.679,1447.318,53969.130,-10798.830,7787.018,4812.067,0.000
-13647.880,-13695.980,2680.060,600.443,53652.440,-10973.610,7580.611,4615.782,0.000
-13802.710,-13851.860,1828.989,-243.909,53334.420,-11148.540,7373.293,4419.131,0.000
-13958.940,-14010.010,979.562,-1086.635,53012.310,-11326.170,7162.868,4219.995,0.000
-14115.710,-14169.100,132.689,-1926.882,52689.040,-11504.930,6951.457,4019.921,0.000
-14271.440,-14326.640,-710.679,-2763.675,52366.630,-11682.140,6739.802,3820.470,0.000
-14425.260,-14480.460,-1550.305,-3596.696,52048.140,-11855.060,6530.868,3623.489,0.000
-14578.640,-14632.820,-2386.223,-4426.008,51731.160,-12025.810,6322.398,3427.294,0.000
-14733.690,-14786.750,-3218.849,-5252.115,51412.630,-12196.550,6112.254,3230.553,0.000
-14891.740,-14943.590,-4049.310,-6076.136,51090.680,-12368.790,5899.848,3032.632,0.000
-15050.330,-15100.950,-4878.017,-6898.431,50765.320,-12542.570,5685.291,2834.473,0.000
-15204.750,-15253.680,-5703.528,-7717.550,50442.940,-12713.130,5474.490,2640.579,0.000
-15355.280,-15401.850,-6524.833,-8532.431,50124.640,-12880.340,5267.428,2450.152,0.000
-15504.150,-15547.220,-7342.392,-9343.420,49809.630,-13046.230,5062.792,2260.904,0.000
-15653.270,-15692.270,-8157.188,-10151.470,49496.080,-13212.470,4858.918,2070.947,0.000
-15804.610,-15840.230,-8970.153,-10957.650,49179.450,-13381.620,4651.065,1877.647,0.000
-15957.160,-15989.510,-9781.303,-11762.140,48861.570,-13551.690,4441.233,1683.149,0.000
-16108.500,-16137.060,-10589.530,-12563.860,48544.750,-13719.440,4231.980,1490.657,0.000
-16257.710,-16282.780,-11393.960,-13361.920,48230.170,-13883.340,4025.375,1301.862,0.000
-16406.740,-16429.980,-12194.990,-14156.640,47915.520,-14046.380,3820.337,1114.185,0.000
-16556.930,-16579.470,-12993.170,-14948.410,47597.790,-14211.370,3613.976,924.546,0.000
-16707.180,-16727.590,-13788.420,-15737.170,47280.700,-14375.730,3409.348,734.904,0.000
-16856.300,-16872.890,-14580.560,-16522.790,46965.720,-14538.210,3206.733,546.507,0.000
-17002.670,-17014.920,-15369.530,-17305.260,46654.390,-14697.660,3006.900,360.870,0.000
-17146.690,-17155.310,-16155.450,-18084.740,46346.510,-14854.990,2809.260,177.207,0.000
-17290.290,-17297.270,-16938.630,-18861.520,46037.960,-15013.290,2609.621,-7.473,0.000
-17433.800,-17440.910,-17719.220,-19635.750,45728.940,-15172.110,2409.457,-191.913,0.000
-17577.430,-17586.080,-18497.140,-20407.320,45418.540,-15331.480,2209.074,-375.227,0.000
-17721.060,-17730.930,-19272.400,-21176.210,45107.420,-15490.300,2009.821,-556.724,0.000
-17864.850,-17873.370,-20045.030,-21942.400,44797.580,-15647.250,1813.286,-736.705,0.000
-18009.940,-18014.600,-20815.150,-22705.950,44488.110,-15803.520,1617.257,-917.485,0.000
-18156.390,-18156.350,-21582.680,-23466.920,44179.310,-15959.950,1421.603,-1099.396,0.000
-18302.030,-18299.000,-22347.130,-24224.950,43870.140,-16117.650,1224.786,-1282.049,0.000
-18443.470,-18439.500,-23108.090,-24979.640,43563.540,-16274.040,1029.451,-1462.011,0.000
-18580.740,-18576.760,-23865.800,-25731.090,43261.420,-16427.520,837.744,-1637.878,0.000
-18717.120,-18713.130,-24620.700,-26479.690,42959.680,-16580.610,646.362,-1812.674,0.000
-18854.460,-18849.020,-25373.000,-27225.610,42657.320,-16733.610,455.726,-1987.116,0.000
-18993.160,-18985.250,-26122.900,-27969.060,42352.990,-16886.700,263.968,-2162.447,0.000
-19132.140,-19121.110,-26870.300,-28710.010,42048.330,-17038.100,71.207,-2338.370,0.000
-19270.860,-19256.170,-27614.650,-29448.060,41745.670,-17187.810,-120.833,-2513.874,0.000
-19409.170,-19391.600,-28355.660,-30182.900,41444.180,-17338.250,-312.728,-2688.946,0.000
-19545.590,-19526.200,-29093.260,-30914.350,41145.540,-17487.910,-501.736,-2861.820,0.000
-19680.430,-19659.830,-29827.580,-31642.470,40847.460,-17637.010,-689.691,-3033.671,0.000
-19814.670,-19792.310,-30559.180,-32367.770,40548.180,-17785.800,-877.900,-3205.228,0.000
-19949.370,-19924.260,-31288.780,-33091.100,40247.070,-17934.380,-1066.878,-3376.782,0.000
-20084.790,-20056.670,-32016.510,-33812.700,39942.800,-18083.720,-1259.362,-3549.482,0.000
-20219.120,-20187.560,-32741.800,-34531.950,39639.300,-18232.120,-1452.393,-3721.604,0.000
-20352.400,-20316.930,-33464.460,-35248.490,39337.240,-18380.260,-1645.235,-3893.279,0.000
-20485.020,-20445.370,-34184.360,-35962.230,39037.170,-18528.230,-1836.764,-4064.059,0.000
-20614.620,-20571.460,-34900.590,-36672.320,38741.540,-18673.450,-2024.321,-4231.500,0.000
-20739.700,-20694.830,-35612.860,-37378.330,38449.690,-18815.170,-2208.600,-4395.365,0.000
-20863.240,-20818.350,-36322.440,-38081.560,38159.610,-18955.630,-2390.872,-4558.541,0.000
-20989.020,-20946.060,-37030.420,-38783.320,37866.200,-19099.230,-2576.075,-4725.601,0.000
-21116.310,-21076.900,-37736.560,-39483.330,37569.800,-19245.410,-2764.277,-4895.444,0.000
-21243.150,-21207.410,-38439.950,-40180.610,37273.470,-19391.370,-2952.854,-5065.244,0.000
-21367.680,-21334.210,-39139.630,-40874.240,36978.520,-19534.700,-3140.197,-5233.432,0.000
-21489.630,-21455.950,-39835.470,-41564.140,36687.760,-19673.460,-3322.362,-5398.192,0.000
-21612.930,-21577.430,-40528.520,-42251.300,36397.640,-19811.590,-3502.562,-5562.394,0.000
-21738.450,-21700.370,-41219.390,-42936.230,36106.510,-19950.120,-3682.136,-5726.243,0.000
-21864.460,-21823.610,-41908.030,-43618.750,35814.560,-20087.870,-3860.722,-5888.507,0.000
-21990.440,-21946.880,-42594.120,-44298.640,35520.650,-20225.710,-4040.343,-6050.060,0.000
-22115.430,-22068.890,-43277.090,-44975.380,35228.570,-20362.280,-4217.964,-6209.368,0.000
-22239.080,-22190.140,-43956.890,-45649.000,34938.470,-20498.460,-4394.374,-6367.178,0.000
-22360.990,-22309.810,-44633.960,-46320.050,34650.240,-20634.300,-4570.093,-6524.635,0.000
-22481.640,-22427.780,-45308.470,-46988.690,34363.530,-20769.560,-4745.327,-6683.097,0.000
-22601.800,-22545.980,-45980.280,-47654.650,34075.590,-20905.110,-4922.951,-6843.744,0.000
-22721.110,-22664.560,-46649.500,-48317.950,33788.160,-21039.370,-5101.018,-7004.246,0.000
-22839.530,-22783.320,-47316.230,-48978.620,33501.840,-21172.510,-5278.752,-7163.423,0.000
-22957.040,-22901.110,-47980.310,-49636.550,33217.760,-21304.650,-5454.595,-7320.541,0.000
-23075.420,-23019.100,-48641.830,-50292.050,32935.000,-21437.090,-5628.816,-7477.048,0.000
-23196.020,-23139.090,-49301.010,-50945.360,32649.840,-21571.460,-5804.422,-7634.993,0.000
-23317.090,-23258.800,-49957.760,-51596.250,32363.610,-21705.720,-5979.546,-7792.922,0.000
-23436.960,-23376.430,-50611.970,-52244.520,32076.740,-21839.070,-6154.708,-7951.054,0.000
-23554.150,-23490.740,-51263.300,-52889.860,31791.850,-21969.860,-6328.431,-8108.451,0.000
-23667.940,-23601.680,-51911.250,-53531.860,31511.580,-22097.000,-6498.723,-8263.646,0.000
-23778.730,-23710.460,-52555.790,-54170.540,31234.680,-22221.650,-6667.187,-8416.389,0.000
-23887.850,-23818.010,-53197.510,-54806.470,30960.910,-22344.030,-6833.573,-8566.256,0.000
-23998.590,-23927.520,-53837.180,-55440.390,30685.790,-22467.250,-7002.133,-8716.558,0.000
-24112.210,-24039.810,-54475.170,-56072.570,30407.930,-22592.750,-7173.763,-8867.913,0.000
-24227.350,-24153.150,-55111.130,-56702.650,30129.190,-22719.870,-7345.959,-9018.738,0.000
-24342.160,-24266.130,-55744.490,-57330.120,29849.240,-22848.140,-7518.701,-9169.020,0.000
-24455.070,-24376.840,-56375.000,-57954.730,29570.660,-22975.120,-7689.058,-9317.402,0.000
-24566.490,-24485.840,-57002.480,-58576.360,29292.670,-23101.300,-7858.461,-9465.249,0.000
-24676.360,-24593.240,-57626.600,-59194.780,29015.410,-23226.680,-8027.286,-9613.043,0.000
-24784.390,-24699.190,-58247.480,-59810.100,28740.380,-23350.540,-8194.145,-9760.396,0.000
-24892.190,-24805.640,-58866.140,-60423.160,28465.980,-23473.900,-8361.171,-9908.775,0.000
-25000.740,-24913.120,-59483.110,-61034.330,28193.020,-23595.860,-8527.377,-10057.110,0.000
-25109.830,-25021.790,-60097.700,-61643.050,27920.080,-23716.790,-8693.712,-10204.790,0.000
-25219.580,-25130.960,-60709.480,-62249.080,27646.500,-23837.060,-8860.251,-10351.410,0.000
-25330.980,-25240.730,-61318.770,-62852.660,27372.650,-23957.130,-9026.441,-10496.860,0.000
-25442.560,-25350.300,-61925.380,-63453.530,27098.740,-24077.180,-9192.671,-10641.200,0.000
-25551.920,-25457.840,-62529.170,-64051.570,26826.850,-24196.380,-9357.481,-10784.500,0.000
-25659.340,-25563.750,-63130.280,-64646.980,26555.050,-24315.670,-9523.432,-10928.770,0.000
-25763.950,-25666.300,-63728.420,-65239.390,26285.090,-24432.640,-9688.296,-11071.790,0.000
-25866.200,-25765.960,-64324.150,-65829.330,26017.880,-24547.190,-9850.093,-11212.540,0.000
-25968.330,-25866.170,-64918.340,-66417.770,25749.640,-24663.050,-10012.820,-11353.430,0.000
-26070.970,-25967.380,-65510.600,-67004.310,25481.040,-24780.420,-10176.060,-11493.990,0.000
-26174.740,-26069.750,-66100.130,-67588.130,25211.070,-24899.500,-10340.400,-11634.860,0.000
-26279.030,-26172.600,-66686.520,-68168.840,24939.880,-25018.720,-10504.680,-11775.700,0.000
-26382.480,-26274.660,-67269.830,-68746.530,24669.540,-25135.990,-10666.990,-11915.280,0.000
-26484.480,-26375.660,-67850.240,-69321.320,24400.370,-25250.870,-10828.470,-12053.640,0.000
-26584.910,-26475.580,-68428.110,-69893.600,24134.040,-25362.960,-10988.030,-12190.270,0.000
-26684.640,-26575.630,-69004.090,-70464.050,23868.280,-25475.160,-11147.690,-12326.800,0.000
-26783.740,-26675.140,-69578.520,-71032.910,23602.870,-25588.250,-11306.660,-12463.040,0.000
-26882.360,-26773.970,-70151.090,-71599.820,23338.790,-25701.460,-11463.790,-12598.990,0.000
-26980.560,-26872.430,-70720.890,-72163.980,23074.810,-25814.420,-11620.980,-12735.980,0.000
-27077.220,-26968.590,-71287.200,-72724.730,22813.400,-25924.640,-11775.400,-12871.830,0.000
-27173.320,-27063.630,-71850.640,-73282.700,22552.590,-26033.520,-11929.030,-13007.160,0.000
-27270.130,-27158.790,-72412.190,-73838.760,22290.720,-26142.380,-12084.220,-13142.760,0.000
-27367.750,-27254.060,-72971.900,-74392.900,22028.660,-26250.900,-12240.430,-13277.710,0.000
-27464.920,-27349.180,-73529.230,-74944.600,21766.920,-26358.740,-12396.900,-13410.920,0.000
-27560.320,-27443.020,-74083.710,-75493.380,21508.610,-26464.660,-12550.140,-13540.790,0.000
-27655.550,-27537.320,-74635.550,-76039.560,21250.910,-26571.450,-12703.400,-13670.480,0.000
-27751.040,-27632.000,-75185.060,-76583.580,20992.170,-26679.910,-12857.910,-13801.060,0.000
-27846.570,-27726.400,-75732.480,-77125.600,20733.190,-26788.940,-13012.240,-13931.550,0.000
-27942.920,-27821.160,-76277.930,-77665.660,20472.840,-26898.340,-13167.740,-14062.700,0.000
-28039.490,-27915.380,-76821.050,-78203.380,20213.660,-27005.970,-13322.010,-14193.400,0.000
-28134.710,-28008.790,-77361.210,-78738.110,19956.310,-27111.820,-13474.950,-14323.470,0.000
-28227.100,-28100.400,-77898.420,-79269.830,19701.600,-27215.310,-13626.060,-14452.490,0.000
-28319.430,-28192.640,-78433.740,-79799.590,19447.200,-27319.240,-13778.000,-14583.510,0.000
-28415.990,-28288.950,-78968.130,-80328.450,19187.560,-27428.590,-13936.370,-14720.610,0.000
-28516.750,-28388.070,-79501.690,-80856.650,18923.750,-27542.650,-14098.740,-14861.540,0.000
-28619.610,-28489.010,-80033.730,-81383.480,18657.310,-27659.250,-14262.990,-15003.560,0.000
-28721.020,-28589.140,-80562.770,-81907.300,18392.360,-27773.060,-14424.770,-15142.580,0.000
-28815.560,-28682.670,-81086.790,-82426.000,18135.790,-27877.460,-14576.920,-15272.750,0.000
-28898.580,-28764.550,-81604.140,-82938.020,17891.630,-27969.250,-14716.400,-15390.480,0.000
-28972.120,-28836.980,-82116.130,-83444.730,17657.990,-28051.490,-14846.300,-15498.600,0.000
-29044.450,-28909.470,-82626.470,-83949.790,17423.970,-28134.260,-14978.280,-15607.390,0.000
-29120.170,-28986.250,-83137.050,-84455.000,17184.860,-28221.570,-15116.750,-15721.160,0.000
-29200.240,-29067.170,-83647.630,-84960.160,16941.550,-28312.470,-15259.790,-15838.840,0.000
-29284.910,-29151.400,-84157.410,-85464.520,16693.620,-28406.310,-15407.200,-15960.110,0.000
-29371.270,-29234.390,-84664.950,-85966.730,16446.260,-28499.170,-15553.590,-16081.860,0.000
-29457.650,-29315.040,-85169.520,-86466.070,16200.440,-28591.410,-15697.960,-16203.880,0.000
-29544.390,-29395.980,-85671.400,-86962.730,15954.670,-28685.090,-15841.540,-16327.140,0.000
-29631.440,-29479.520,-86170.750,-87456.870,15708.550,-28780.950,-15984.840,-16451.370,0.000
-29718.630,-29566.220,-86667.880,-87948.860,15460.280,-28880.140,-16130.420,-16576.690,0.000
-29804.540,-29652.900,-87162.860,-88438.760,15212.910,-28979.720,-16275.790,-16700.520,0.000
-29889.070,-29737.980,-87655.500,-88926.200,14967.170,-29077.420,-16420.860,-16822.290,0.000
-29972.940,-29821.280,-88145.770,-89411.160,14722.590,-29172.380,-16565.980,-16942.410,0.000
-30056.270,-29903.200,-88634.020,-89894.070,14478.040,-29266.100,-16711.510,-17062.020,0.000
-30138.710,-29984.510,-89120.740,-90375.470,14230.710,-29361.250,-16859.600,-17183.210,0.000
-30218.310,-30062.860,-89605.340,-90854.800,13984.300,-29455.030,-17006.140,-17303.330,0.000
-30293.790,-30136.880,-90086.280,-91330.540,13741.940,-29544.490,-17148.630,-17419.570,0.000
-30366.160,-30207.790,-90563.150,-91802.260,13504.250,-29629.610,-17287.080,-17532.060,0.000
-30439.230,-30279.140,-91037.350,-92271.380,13267.730,-29714.590,-17424.430,-17644.630,0.000
-30516.210,-30354.410,-91510.700,-92739.740,13026.450,-29803.660,-17565.510,-17760.700,0.000
-30596.290,-30433.240,-91983.460,-93207.550,12781.360,-29895.020,-17708.610,-17878.400,0.000
-30676.630,-30513.140,-92454.640,-93673.670,12534.610,-29986.190,-17852.190,-17995.450,0.000
-30754.710,-30590.510,-92923.360,-94137.160,12290.250,-30074.990,-17993.270,-18109.040,0.000
-30831.080,-30665.160,-93389.040,-94597.530,12051.080,-30161.780,-18129.940,-18218.640,0.000
-30907.010,-30739.590,-93851.440,-95054.700,11815.080,-30248.300,-18264.710,-18326.600,0.000
-30982.430,-30814.680,-94310.960,-95509.070,11581.870,-30333.720,-18397.120,-18433.540,0.000
-31057.810,-30891.030,-94768.360,-95961.350,11348.580,-30419.130,-18528.570,-18541.090,0.000
-31132.000,-30967.130,-95224.160,-96412.130,11113.960,-30504.660,-18658.830,-18649.030,0.000
-31204.710,-31042.670,-95678.460,-96861.500,10878.660,-30590.250,-18787.960,-18757.070,0.000
-31278.020,-31118.560,-96131.170,-97309.260,10641.860,-30676.980,-18919.180,-18866.570,0.000
-31352.950,-31193.400,-96581.790,-97754.800,10406.390,-30763.480,-19050.690,-18976.120,0.000
-31429.930,-31268.070,-97029.700,-98197.630,10171.930,-30850.620,-19183.460,-19086.220,0.000
-31507.740,-31342.760,-97475.070,-98638.020,9938.285,-30937.920,-19318.100,-19196.880,0.000
-31584.340,-31415.940,-97918.100,-99076.090,9706.283,-31023.040,-19453.210,-19306.990,0.000
-31659.470,-31488.140,-98358.760,-99511.680,9473.846,-31106.660,-19589.750,-19417.200,0.000
-31733.520,-31560.170,-98797.200,-99944.890,9242.057,-31189.730,-19724.990,-19526.630,0.000
-31806.100,-31632.320,-99233.370,-100375.900,9010.942,-31273.290,-19858.490,-19634.770,0.000
-31875.810,-31702.730,-99667.070,-100804.500,8781.955,-31355.550,-19989.030,-19739.780,0.000
-31943.760,-31771.550,-100098.600,-101231.100,8555.169,-31436.340,-20116.810,-19842.450,0.000
-32011.320,-31839.990,-100528.400,-101656.100,8327.770,-31517.570,-20245.420,-19945.880,0.000
-32077.530,-31906.510,-100956.200,-102079.000,8101.991,-31597.660,-20372.910,-20048.790,0.000
-32143.780,-31972.770,-101381.600,-102499.600,7876.552,-31677.790,-20500.610,-20151.920,0.000
-32211.440,-32040.140,-101805.200,-102918.200,7650.479,-31758.460,-20628.860,-20255.770,0.000
-32279.980,-32107.700,-102226.600,-103334.700,7425.365,-31838.540,-20755.510,-20358.970,0.000
-32348.860,-32175.400,-102645.700,-103748.900,7200.729,-31918.610,-20881.670,-20461.500,0.000
-32417.630,-32242.770,-103062.800,-104161.100,6978.134,-31997.560,-21006.520,-20562.540,0.000
-32486.240,-32309.850,-103478.000,-104571.300,6756.856,-32075.120,-21131.460,-20662.920,0.000
-32554.530,-32376.250,-103891.000,-104979.400,6537.212,-32151.100,-21256.040,-20762.490,0.000
-32623.090,-32442.310,-104302.000,-105385.600,6319.688,-32226.340,-21379.040,-20860.660,0.000
-32690.770,-32507.310,-104710.900,-105789.800,6103.548,-32300.990,-21500.540,-20956.980,0.000
-32755.380,-32569.180,-105117.300,-106191.300,5890.185,-32372.500,-21618.110,-21050.150,0.000
-32817.750,-32629.700,-105520.900,-106590.000,5676.693,-32442.230,-21734.260,-21142.020,0.000
-32878.620,-32689.810,-105921.600,-106986.000,5462.869,-32511.110,-21849.550,-21232.410,0.000
-32939.110,-32749.950,-106320.600,-107380.100,5248.503,-32580.290,-21964.690,-21322.090,0.000
-33001.560,-32812.170,-106718.600,-107773.300,5029.835,-32652.610,-22083.910,-21414.210,0.000
-33066.290,-32876.020,-107115.500,-108165.300,4809.326,-32726.900,-22204.770,-21507.380,0.000
-33131.460,-32939.770,-107510.400,-108555.400,4588.864,-32801.910,-22326.200,-21600.090,0.000
-33194.120,-33000.200,-107902.400,-108942.900,4370.860,-32875.210,-22446.620,-21690.580,0.000
-33255.160,-33058.240,-108291.700,-109327.600,4155.293,-32946.530,-22566.000,-21779.820,0.000
-33317.740,-33118.340,-108679.300,-109710.600,3937.679,-33018.470,-22688.090,-21871.370,0.000
-33380.700,-33179.670,-109064.900,-110091.600,3720.293,-33089.310,-22809.880,-21963.630,0.000
-33441.770,-33240.210,-109448.400,-110470.500,3504.838,-33158.440,-22930.470,-22055.850,0.000
-33499.720,-33298.210,-109830.000,-110847.500,3292.302,-33225.720,-23049.780,-22147.840,0.000
-33555.650,-33353.790,-110209.300,-111222.300,3083.012,-33291.760,-23167.180,-22239.520,0.000
-33611.510,-33408.660,-110586.000,-111594.300,2874.527,-33358.750,-23284.440,-22331.870,0.000
-33667.180,-33462.360,-110960.300,-111963.900,2667.699,-33425.550,-23399.510,-22423.360,0.000
-33723.910,-33515.890,-111332.800,-112331.600,2460.431,-33492.170,-23513.890,-22514.550,0.000
-33782.960,-33570.230,-111703.400,-112697.300,2252.511,-33558.280,-23628.110,-22605.550,0.000
-33843.330,-33625.410,-112072.000,-113061.200,2045.869,-33623.170,-23740.970,-22695.080,0.000
-33902.570,-33680.760,-112438.900,-113423.500,1839.976,-33686.740,-23853.570,-22782.930,0.000
-33959.800,-33735.410,-112804.300,-113784.400,1635.444,-33748.940,-23965.030,-22869.520,0.000
-34017.840,-33791.850,-113168.700,-114144.100,1428.963,-33813.900,-24078.680,-22958.650,0.000
-34076.840,-33849.190,-113531.500,-114502.300,1221.431,-33880.940,-24194.090,-23050.020,0.000
-34134.130,-33904.090,-113891.400,-114857.500,1017.518,-33945.110,-24306.810,-23139.740,0.000
-34188.550,-33955.920,-114247.400,-115209.000,817.653,-34004.980,-24416.130,-23226.360,0.000
-34240.930,-34005.780,-114600.500,-115557.600,621.199,-34061.690,-24522.300,-23310.470,0.000
-34293.910,-34057.100,-114952.100,-115904.700,423.715,-34120.090,-24630.300,-23396.120,0.000
-34347.780,-34110.820,-115302.400,-116250.400,224.463,-34181.880,-24740.590,-23483.900,0.000
-34401.450,-34165.990,-115651.300,-116594.700,24.493,-34246.520,-24851.350,-23572.760,0.000
-34454.730,-34222.030,-115999.100,-116937.800,-177.721,-34314.020,-24964.070,-23663.290,0.000
-34507.140,-34277.320,-116345.300,-117279.400,-379.835,-34381.470,-25076.230,-23753.420,0.000
-34559.780,-34332.330,-116689.700,-117619.300,-582.357,-34448.740,-25188.400,-23843.020,0.000
-34613.190,-34386.110,-117032.100,-117957.100,-784.377,-34515.080,-25299.840,-23931.600,0.000
-34666.450,-34437.180,-117372.100,-118292.400,-983.646,-34578.290,-25408.720,-24017.930,0.000
-34719.000,-34486.090,-117709.400,-118625.100,-1180.932,-34638.540,-25516.230,-24102.080,0.000
-34770.770,-34534.140,-118044.500,-118955.700,-1375.300,-34697.140,-25620.800,-24183.430,0.000
-34821.890,-34584.140,-118378.000,-119284.700,-1568.911,-34756.570,-25724.070,-24263.490,0.000
-34870.540,-34635.250,-118709.100,-119611.300,-1761.293,-34814.930,-25825.240,-24341.550,0.000
-34916.950,-34686.360,-119037.600,-119935.500,-1952.383,-34871.540,-25924.400,-24418.440,0.000
-34963.310,-34737.710,-119364.200,-120257.800,-2145.733,-34929.000,-26026.060,-24498.040,0.000
-35010.090,-34787.250,-119689.300,-120578.500,-2339.612,-34986.900,-26129.060,-24580.040,0.000
-35057.540,-34834.570,-120013.000,-120897.600,-2533.328,-35045.300,-26232.880,-24663.150,0.000
-35104.390,-34879.270,-120334.900,-121215.100,-2725.400,-35102.350,-26335.590,-24745.030,0.000
-35150.480,-34922.910,-120655.300,-121531.100,-2915.651,-35157.640,-26436.880,-24825.860,0.000
-35195.860,-34967.090,-120973.900,-121845.500,-3105.577,-35212.040,-26538.890,-24906.550,0.000
-35239.500,-35010.310,-121289.900,-122157.300,-3292.284,-35264.190,-26638.440,-24984.210,0.000
-35283.590,-35054.110,-121603.200,-122466.400,-3478.120,-35317.200,-26737.480,-25060.470,0.000
-35329.970,-35099.650,-121915.000,-122773.900,-3665.879,-35372.960,-26838.600,-25138.050,0.000
-35378.350,-35147.140,-122226.500,-123081.100,-3856.156,-35430.900,-26942.030,-25217.960,0.000
-35427.290,-35195.970,-122537.100,-123387.300,-4048.941,-35490.050,-27047.170,-25299.590,0.000
-35473.580,-35242.190,-122845.600,-123691.300,-4239.584,-35546.200,-27149.200,-25378.910,0.000
-35515.330,-35283.940,-123151.500,-123992.700,-4427.186,-35597.700,-27248.650,-25454.700,0.000
-35552.720,-35321.310,-123454.500,-124291.300,-4610.895,-35644.820,-27345.160,-25526.450,0.000
-35587.470,-35356.400,-123754.700,-124587.200,-4790.113,-35689.950,-27437.840,-25595.100,0.000
-35622.030,-35392.570,-124052.800,-124880.900,-4968.914,-35736.940,-27531.650,-25664.810,0.000
-35657.770,-35430.500,-124349.400,-125173.400,-5148.935,-35786.080,-27628.160,-25737.410,0.000
-35695.970,-35471.430,-124645.500,-125465.300,-5333.065,-35838.450,-27729.170,-25814.240,0.000
-35736.550,-35514.470,-124940.800,-125756.400,-5521.145,-35892.840,-27833.210,-25893.960,0.000
-35778.360,-35556.480,-125233.800,-126045.200,-5708.980,-35946.160,-27935.200,-25972.480,0.000
-35820.750,-35596.630,-125523.700,-126330.800,-5894.839,-35998.300,-28033.730,-26047.500,0.000
-35863.540,-35635.880,-125811.000,-126613.800,-6077.401,-36048.920,-28128.130,-26119.030,0.000
-35906.990,-35676.440,-126096.300,-126895.000,-6258.598,-36098.770,-28221.770,-26190.010,0.000
-35950.480,-35718.790,-126380.100,-127174.500,-6438.895,-36148.070,-28316.090,-26261.410,0.000
-35993.950,-35762.400,-126662.600,-127452.900,-6618.500,-36197.300,-28410.950,-26333.230,0.000
-36036.000,-35804.450,-126943.700,-127729.800,-6797.726,-36245.420,-28506.080,-26404.370,0.000
-36074.050,-35841.130,-127222.700,-128004.700,-6973.159,-36288.890,-28597.560,-26472.190,0.000
-36108.830,-35873.710,-127499.600,-128277.400,-7146.267,-36329.070,-28686.990,-26538.800,0.000
-36141.580,-35903.880,-127774.300,-128548.000,-7318.096,-36368.210,-28775.040,-26605.310,0.000
-36173.930,-35933.930,-128047.100,-128816.700,-7489.379,-36409.020,-28861.720,-26671.800,0.000
-36208.150,-35967.230,-128318.200,-129083.700,-7663.541,-36454.720,-28950.390,-26740.020,0.000
-36246.270,-36005.260,-128588.500,-129350.000,-7841.304,-36505.450,-29041.860,-26810.690,0.000
-36289.660,-36048.590,-128858.500,-129616.000,-8023.523,-36560.650,-29137.660,-26884.340,0.000
-36334.550,-36092.250,-129126.800,-129880.000,-8204.726,-36614.520,-29232.930,-26956.290,0.000
-36376.550,-36131.670,-129392.200,-130141.000,-8380.536,-36662.920,-29323.320,-27023.250,0.000
-36415.350,-36167.760,-129655.000,-130399.600,-8553.728,-36708.020,-29411.460,-27087.700,0.000
-36450.410,-36199.950,-129915.400,-130655.800,-8722.649,-36749.050,-29495.090,-27149.250,0.000
-36482.040,-36228.480,-130173.700,-130910.100,-8888.729,-36786.500,-29575.700,-27208.840,0.000
-36513.000,-36256.230,-130430.900,-131163.200,-9056.091,-36823.020,-29657.520,-27269.610,0.000
-36546.140,-36286.350,-130687.000,-131415.400,-9226.613,-36860.850,-29742.850,-27333.810,0.000
-36581.810,-36320.070,-130941.700,-131666.000,-9400.645,-36901.190,-29832.790,-27401.660,0.000
-36618.390,-36356.020,-131194.500,-131914.900,-9575.271,-36942.750,-29923.880,-27470.460,0.000
-36654.600,-36392.420,-131445.700,-132162.100,-9750.150,-36985.390,-30015.660,-27538.770,0.000
-36688.860,-36426.450,-131695.000,-132407.500,-9922.774,-37027.240,-30106.060,-27604.040,0.000
-36721.030,-36457.980,-131942.700,-132651.100,-10091.910,-37067.590,-30193.690,-27666.310,0.000
-36751.700,-36488.220,-132188.600,-132893.000,-10260.110,-37107.610,-30280.630,-27728.330,0.000
-36780.770,-36516.720,-132432.300,-133132.800,-10425.630,-37145.620,-30364.210,-27788.880,0.000
-36809.180,-36545.410,-132674.100,-133370.700,-10589.910,-37182.750,-30445.700,-27848.370,0.000
-36837.870,-36575.590,-132914.600,-133607.200,-10755.030,-37220.790,-30527.760,-27908.560,0.000
-36867.790,-36607.030,-133154.300,-133842.900,-10921.090,-37259.930,-30611.060,-27969.940,0.000
-36899.310,-36639.310,-133392.500,-134077.300,-11088.140,-37299.570,-30696.320,-28032.020,0.000
-36932.390,-36671.980,-133629.200,-134309.900,-11254.260,-37338.310,-30781.820,-28093.840,0.000
-36965.730,-36703.930,-133863.800,-134540.400,-11419.880,-37376.320,-30867.570,-28155.590,0.000
-36995.570,-36731.000,-134095.900,-134768.500,-11582.190,-37410.830,-30949.540,-28214.180,0.000
-37021.750,-36752.940,-134326.000,-134994.800,-11740.280,-37440.950,-31026.440,-28268.890,0.000
-37048.200,-36774.650,-134555.100,-135220.000,-11898.760,-37470.520,-31103.960,-28323.660,0.000
-37076.870,-36798.840,-134783.100,-135444.300,-12057.930,-37501.460,-31183.040,-28379.360,0.000
-37107.070,-36826.210,-135009.600,-135666.800,-12218.570,-37535.200,-31264.550,-28436.150,0.000
-37137.090,-36855.790,-135234.100,-135887.400,-12379.960,-37570.440,-31346.950,-28492.740,0.000
-37166.490,-36886.580,-135456.800,-136106.200,-12540.510,-37605.130,-31427.790,-28547.540,0.000
-37194.870,-36916.950,-135677.700,-136323.100,-12700.510,-37639.110,-31507.380,-28600.320,0.000
-37221.340,-36944.050,-135896.500,-136537.900,-12857.940,-37671.870,-31583.480,-28650.820,0.000
-37247.050,-36968.310,-136113.300,-136751.000,-13014.550,-37704.630,-31658.210,-28701.980,0.000
-37273.230,-36991.460,-136328.700,-136962.700,-13171.210,-37737.480,-31733.140,-28755.460,0.000
-37299.610,-37015.080,-136542.800,-137173.200,-13327.400,-37770.660,-31808.120,-28810.710,0.000
-37325.350,-37039.920,-136755.800,-137382.500,-13484.480,-37805.020,-31884.860,-28867.080,0.000
-37350.460,-37065.460,-136967.400,-137590.400,-13640.800,-37839.360,-31961.710,-28922.710,0.000
-37375.700,-37092.110,-137177.200,-137796.400,-13796.260,-37873.700,-32038.610,-28977.380,0.000
-37400.820,-37118.670,-137384.900,-138000.300,-13950.070,-37906.910,-32114.320,-29030.740,0.000
-37426.070,-37144.340,-137591.000,-138202.600,-14102.980,-37938.730,-32188.690,-29083.620,0.000
-37450.960,-37168.450,-137795.700,-138403.500,-14256.710,-37969.540,-32263.230,-29136.610,0.000
-37473.800,-37189.590,-137998.800,-138603.000,-14408.170,-37997.710,-32335.050,-29187.720,0.000
-37494.970,-37209.890,-138199.900,-138800.400,-14558.450,-38025.290,-32405.930,-29238.510,0.000
-37515.930,-37231.710,-138398.900,-138995.900,-14709.600,-38054.780,-32478.190,-29291.050,0.000
-37537.320,-37255.510,-138596.700,-139189.900,-14862.260,-38086.880,-32552.130,-29345.530,0.000
-37557.230,-37278.730,-138792.800,-139382.300,-15015.480,-38119.020,-32626.860,-29399.490,0.000
-37574.270,-37298.150,-138986.800,-139572.500,-15164.960,-38147.120,-32698.090,-29449.530,0.000
-37591.300,-37316.140,-139179.100,-139761.100,-15313.040,-38173.700,-32768.280,-29498.050,0.000
-37610.910,-37335.340,-139370.200,-139948.500,-15462.270,-38201.660,-32839.870,-29547.670,0.000
-37632.650,-37355.530,-139559.900,-140134.600,-15611.870,-38230.730,-32912.160,-29598.680,0.000
-37654.470,-37375.260,-139748.000,-140319.100,-15761.690,-38259.520,-32985.470,-29650.770,0.000
-37675.670,-37393.570,-139934.800,-140502.200,-15909.710,-38286.040,-33057.500,-29702.210,0.000
-37697.210,-37412.380,-140120.200,-140684.000,-16056.700,-38311.750,-33128.810,-29752.920,0.000
-37717.980,-37431.550,-140303.800,-140863.900,-16201.560,-38336.420,-33197.960,-29801.260,0.000
-37737.220,-37450.110,-140485.200,-141041.800,-16343.720,-38359.450,-33264.310,-29847.190,0.000
-37756.570,-37468.880,-140665.300,-141218.300,-16486.910,-38382.900,-33331.880,-29893.860,0.000
-37777.000,-37487.520,-140844.400,-141393.800,-16631.060,-38406.270,-33399.870,-29941.560,0.000
-37798.030,-37506.120,-141022.500,-141568.300,-16776.700,-38430.340,-33468.640,-29990.650,0.000
-37818.430,-37524.520,-141199.700,-141741.800,-16923.640,-38456.450,-33538.590,-30040.820,0.000
-37837.590,-37543.170,-141375.800,-141914.400,-17070.990,-38484.740,-33609.550,-30091.620,0.000
-37854.440,-37562.090,-141550.000,-142085.100,-17218.200,-38513.610,-33681.390,-30142.250,0.000
-37868.770,-37580.210,-141722.000,-142253.600,-17362.480,-38539.830,-33750.380,-30190.340,0.000
-37883.600,-37598.970,-141892.100,-142420.300,-17506.520,-38564.780,-33818.620,-30237.790,0.000
-37900.490,-37618.160,-142061.000,-142585.700,-17651.120,-38589.130,-33886.850,-30285.040,0.000
-37919.210,-37636.820,-142228.600,-142749.700,-17794.390,-38612.760,-33953.430,-30331.060,0.000
-37938.300,-37654.700,-142394.500,-142912.000,-17936.980,-38636.670,-34019.800,-30376.260,0.000
-37955.320,-37670.480,-142558.500,-143072.500,-18077.120,-38659.000,-34084.550,-30419.190,0.000
-37970.890,-37685.270,-142721.000,-143231.500,-18216.080,-38679.860,-34149.010,-30460.730,0.000
-37985.520,-37699.100,-142882.300,-143389.200,-18353.760,-38699.090,-34212.420,-30501.190,0.000
-37999.530,-37712.330,-143041.800,-143545.000,-18489.330,-38717.250,-34273.560,-30540.670,0.000
-38014.410,-37727.010,-143199.300,-143699.000,-18624.650,-38736.740,-34335.020,-30581.000,0.000
-38030.600,-37743.150,-143355.700,-143851.800,-18759.310,-38757.750,-34396.430,-30622.550,0.000
-38047.280,-37759.970,-143510.900,-144003.600,-18895.190,-38780.270,-34459.250,-30665.600,0.000
-38062.160,-37774.800,-143664.200,-144153.500,-19030.840,-38801.600,-34521.980,-30707.140,0.000
-38075.620,-37787.540,-143815.400,-144301.400,-19164.500,-38821.440,-34583.250,-30746.490,0.000
-38089.470,-37800.510,-143965.600,-144448.300,-19298.370,-38842.290,-34645.690,-30786.710,0.000
-38103.020,-37813.160,-144115.500,-144594.800,-19431.590,-38863.340,-34708.190,-30827.960,0.000
-38115.010,-37824.810,-144264.700,-144740.700,-19564.950,-38884.210,-34771.500,-30870.510,0.000
-38125.060,-37834.840,-144412.800,-144885.400,-19697.540,-38903.380,-34834.160,-30912.520,0.000
-38134.490,-37843.660,-144559.100,-145028.300,-19827.390,-38919.680,-34893.530,-30951.710,0.000
-38144.300,-37852.270,-144702.700,-145168.500,-19955.010,-38934.340,-34950.170,-30988.060,0.000
-38154.450,-37861.070,-144843.400,-145305.800,-20079.710,-38948.000,-35002.980,-31021.950,0.000
-38165.930,-37872.270,-144982.500,-145441.400,-20205.360,-38963.710,-35056.250,-31057.090,0.000
-38178.340,-37885.780,-145121.100,-145576.500,-20334.190,-38981.970,-35112.850,-31095.260,0.000
-38189.840,-37899.230,-145259.300,-145711.400,-20464.820,-39000.230,-35171.450,-31135.130,0.000
-38199.380,-37910.800,-145396.500,-145845.400,-20596.210,-39017.480,-35231.270,-31175.360,0.000
-38206.390,-37918.510,-145531.900,-145977.500,-20724.520,-39032.530,-35288.290,-31213.190,0.000
-38212.150,-37924.220,-145665.500,-146107.900,-20850.850,-39046.460,-35343.490,-31249.150,0.000
-38218.940,-37931.140,-145798.000,-146237.200,-20977.500,-39060.710,-35398.570,-31284.720,0.000
-38228.200,-37940.590,-145929.900,-146366.000,-21104.880,-39076.290,-35453.400,-31320.640,0.000
-38239.610,-37951.840,-146061.200,-146493.900,-21234.120,-39093.860,-35509.560,-31357.710,0.000
-38251.640,-37962.380,-146191.200,-146620.500,-21363.410,-39111.800,-35565.830,-31395.020,0.000
-38262.520,-37970.730,-146319.300,-146745.300,-21491.990,-39129.040,-35622.470,-31432.090,0.000
-38270.350,-37975.630,-146444.700,-146867.500,-21617.290,-39143.130,-35677.150,-31467.140,0.000
-38276.060,-37978.800,-146567.400,-146986.900,-21738.530,-39153.830,-35728.610,-31501.030,0.000
-38281.420,-37983.010,-146688.700,-147104.900,-21859.400,-39163.580,-35780.110,-31536.310,0.000
-38287.450,-37988.550,-146809.600,-147222.500,-21980.800,-39173.370,-35831.340,-31571.880,0.000
-38295.180,-37996.000,-146929.800,-147339.600,-22103.330,-39184.770,-35883.010,-31606.990,0.000
-38302.770,-38003.140,-147048.100,-147454.600,-22224.390,-39196.330,-35933.540,-31640.010,0.000
-38310.130,-38009.750,-147164.700,-147568.000,-22344.210,-39208.410,-35983.480,-31672.020,0.000
-38318.990,-38018.150,-147280.600,-147680.700,-22466.770,-39223.010,-36036.780,-31705.820,0.000
-38328.460,-38027.500,-147395.800,-147792.800,-22590.200,-39238.320,-36091.000,-31740.170,0.000
-38337.360,-38037.100,-147510.100,-147903.900,-22713.730,-39254.340,-36145.410,-31774.610,0.000
-38343.910,-38044.710,-147623.000,-148013.700,-22835.340,-39268.870,-36198.030,-31807.370,0.000
-38348.310,-38049.230,-147734.300,-148121.900,-22953.530,-39279.800,-36247.080,-31837.550,0.000
-38351.520,-38051.460,-147843.500,-148227.900,-23069.100,-39288.010,-36293.550,-31865.870,0.000
-38353.550,-38052.370,-147950.400,-148331.800,-23181.160,-39294.050,-36336.800,-31892.660,0.000
-38356.000,-38055.320,-148056.200,-148434.400,-23294.100,-39301.390,-36381.910,-31922.030,0.000
-38359.090,-38060.100,-148161.300,-148536.200,-23408.940,-39311.130,-36429.670,-31954.290,0.000
-38362.260,-38064.750,-148265.700,-148637.400,-23523.340,-39321.900,-36476.520,-31986.830,0.000
-38364.910,-38068.640,-148368.800,-148737.300,-23637.800,-39332.470,-36522.570,-32018.890,0.000
-38366.300,-38071.340,-148470.000,-148835.400,-23751.190,-39340.910,-36566.780,-32049.280,0.000
-38367.290,-38074.000,-148569.600,-148931.800,-23865.090,-39348.080,-36611.110,-32078.690,0.000
-38368.020,-38075.370,-148667.700,-149026.900,-23978.060,-39353.030,-36654.390,-32105.850,0.000
-38369.520,-38075.790,-148764.800,-149120.800,-24088.670,-39356.350,-36696.040,-32131.080,0.000
-38373.800,-38078.820,-148861.000,-149214.000,-24201.010,-39362.480,-36741.100,-32158.390,0.000
-38380.510,-38084.730,-148956.400,-149306.300,-24315.330,-39371.710,-36789.140,-32188.350,0.000
-38388.140,-38091.790,-149050.700,-149397.500,-24431.520,-39382.630,-36839.220,-32220.320,0.000
-38394.480,-38097.150,-149143.900,-149487.600,-24547.720,-39392.440,-36888.950,-32251.980,0.000
-38398.190,-38099.520,-149236.100,-149576.800,-24662.180,-39399.710,-36936.470,-32281.770,0.000
-38398.420,-38098.710,-149327.100,-149664.800,-24775.110,-39404.880,-36982.470,-32309.410,0.000
-38395.240,-38094.540,-149416.500,-149751.400,-24884.020,-39407.190,-37024.520,-32333.470,0.000
-38392.270,-38090.720,-149504.200,-149836.200,-24991.080,-39409.600,-37065.350,-32356.490,0.000
-38392.430,-38089.570,-149590.000,-149919.000,-25097.700,-39413.740,-37106.830,-32380.170,0.000
-38396.200,-38091.780,-149674.200,-150000.200,-25204.230,-39419.930,-37149.200,-32405.080,0.000
-38401.440,-38096.490,-149757.500,-150080.500,-25312.950,-39428.250,-37193.990,-32431.670,0.000
-38403.660,-38098.290,-149839.700,-150159.700,-25420.260,-39433.770,-37236.420,-32456.420,0.000
-38401.260,-38094.480,-149920.100,-150237.000,-25524.530,-39434.080,-37275.290,-32478.430,0.000
-38395.820,-38086.650,-149998.500,-150312.400,-25626.170,-39430.680,-37311.720,-32498.730,0.000
-38390.390,-38079.090,-150075.300,-150386.300,-25727.250,-39428.210,-37347.830,-32519.340,0.000
-38387.510,-38075.490,-150151.700,-150459.700,-25831.870,-39430.680,-37388.180,-32543.040,0.000
-38386.840,-38074.670,-150227.900,-150533.000,-25938.050,-39435.670,-37430.770,-32568.630,0.000
-38387.120,-38075.680,-150303.300,-150605.500,-26044.880,-39442.060,-37474.520,-32595.290,0.000
-38385.860,-38076.270,-150377.400,-150676.800,-26150.590,-39448.410,-37517.400,-32620.790,0.000
-38382.230,-38074.430,-150450.000,-150746.500,-26254.520,-39453.220,-37558.700,-32644.420,0.000
-38377.420,-38070.790,-150521.200,-150814.700,-26358.920,-39456.890,-37601.110,-32667.660,0.000
-38371.770,-38065.630,-150590.900,-150881.600,-26461.250,-39458.300,-37641.480,-32688.540,0.000
-38367.800,-38062.030,-150660.100,-150948.000,-26563.610,-39460.220,-37680.910,-32708.760,0.000
-38366.750,-38061.390,-150728.900,-151014.100,-26668.380,-39464.540,-37721.430,-32730.470,0.000
-38366.260,-38061.680,-150796.800,-151079.100,-26774.260,-39469.610,-37762.130,-32752.790,0.000
-38364.330,-38060.890,-150862.800,-151142.100,-26879.760,-39474.520,-37802.960,-32774.760,0.000
-38360.960,-38058.430,-150926.800,-151203.100,-26981.530,-39478.320,-37841.630,-32794.890,0.000
-38357.180,-38055.910,-150989.100,-151262.500,-27080.520,-39481.360,-37879.740,-32814.040,0.000
-38352.930,-38052.880,-151050.500,-151320.900,-27176.560,-39482.840,-37917.660,-32832.880,0.000
-38347.960,-38048.540,-151111.100,-151378.800,-27267.960,-39482.630,-37954.410,-32851.710,0.000
-38342.330,-38043.190,-151170.300,-151435.200,-27353.330,-39481.590,-37990.710,-32870.570,0.000
-38336.770,-38036.670,-151228.000,-151490.100,-27429.390,-39479.400,-38025.450,-32888.550,0.000
-38332.550,-38030.300,-151284.400,-151543.900,-27501.610,-39477.640,-38061.410,-32907.310,0.000
-38329.470,-38024.660,-151340.000,-151596.800,-27577.960,-39476.630,-38098.590,-32927.140,0.000
-38326.800,-38019.630,-151394.800,-151649.000,-27661.690,-39475.700,-38134.540,-32947.110,0.000
-38322.700,-38013.860,-151448.600,-151700.000,-27753.120,-39473.740,-38168.960,-32966.270,0.000
-38316.510,-38005.770,-151501.400,-151749.900,-27848.600,-39469.480,-38200.310,-32983.640,0.000
-38309.230,-37996.070,-151552.700,-151798.200,-27945.440,-39464.340,-38230.300,-33000.240,0.000
-38300.180,-37984.190,-151602.000,-151844.400,-28039.190,-39457.370,-38258.460,-33014.620,0.000
-38289.950,-37971.190,-151649.600,-151889.100,-28128.990,-39448.590,-38285.390,-33026.390,0.000
-38280.230,-37959.910,-151696.700,-151933.500,-28220.220,-39441.110,-38315.160,-33037.930,0.000
-38271.130,-37951.130,-151743.500,-151977.700,-28314.470,-39436.000,-38346.970,-33049.700,0.000
-38262.440,-37944.930,-151789.500,-152021.000,-28412.380,-39434.250,-38381.800,-33062.740,0.000
-38253.550,-37939.000,-151834.400,-152063.200,-28510.810,-39433.840,-38418.530,-33076.110,0.000
-38244.450,-37931.420,-151877.800,-152103.900,-28606.350,-39431.360,-38453.720,-33088.060,0.000
-38236.310,-37923.000,-151919.700,-152143.200,-28700.830,-39426.770,-38486.590,-33098.640,0.000
-38229.730,-37913.880,-151960.600,-152181.400,-28794.620,-39420.330,-38514.980,-33107.170,0.000
-38224.300,-37904.560,-152000.500,-152218.700,-28889.420,-39413.050,-38541.550,-33115.070,0.000
-38219.300,-37895.770,-152039.500,-152255.000,-28985.200,-39405.340,-38569.010,-33124.050,0.000
-38214.260,-37887.960,-152077.200,-152290.200,-29079.880,-39396.990,-38597.320,-33134.800,0.000
-38206.900,-37879.570,-152113.300,-152323.800,-29172.460,-39386.970,-38625.830,-33146.070,0.000
-38195.910,-37868.370,-152147.700,-152355.600,-29261.270,-39374.350,-38651.640,-33155.530,0.000
-38184.420,-37856.450,-152181.000,-152386.300,-29349.340,-39362.870,-38677.190,-33165.360,0.000
-38173.520,-37844.820,-152213.700,-152416.300,-29436.850,-39353.550,-38703.110,-33176.110,0.000
-38162.020,-37832.960,-152245.400,-152445.400,-29521.860,-39344.600,-38728.000,-33185.940,0.000
-38151.020,-37822.010,-152276.100,-152473.400,-29607.240,-39336.980,-38754.400,-33196.110,0.000
-38141.010,-37811.130,-152305.900,-152500.500,-29693.360,-39329.800,-38781.450,-33207.350,0.000
-38131.100,-37799.150,-152334.900,-152526.900,-29779.810,-39321.850,-38808.740,-33219.580,0.000
-38120.310,-37786.040,-152363.100,-152552.500,-29864.380,-39312.420,-38834.470,-33231.630,0.000
-38108.850,-37773.180,-152390.300,-152577.100,-29946.310,-39302.480,-38858.370,-33243.520,0.000
-38098.190,-37762.420,-152416.300,-152600.600,-30029.050,-39294.370,-38884.860,-33257.000,0.000
-38088.520,-37753.510,-152441.500,-152623.200,-30112.770,-39287.270,-38913.990,-33271.600,0.000
-38078.860,-37745.750,-152465.800,-152645.100,-30197.960,-39280.770,-38945.720,-33287.110,0.000
-38066.640,-37735.570,-152488.500,-152665.200,-30281.220,-39272.890,-38976.070,-33300.380,0.000
-38051.250,-37720.610,-152509.300,-152683.500,-30359.880,-39262.410,-39001.470,-33309.400,0.000
-38035.500,-37703.360,-152528.800,-152700.500,-30437.550,-39251.400,-39024.560,-33316.850,0.000
-38021.440,-37687.110,-152547.500,-152716.600,-30515.200,-39241.110,-39045.900,-33324.660,0.000
-38009.730,-37675.320,-152565.600,-152732.300,-30595.720,-39234.450,-39069.320,-33335.990,0.000
-37998.750,-37666.740,-152583.500,-152747.700,-30679.200,-39230.130,-39095.100,-33350.480,0.000
-37987.070,-37658.320,-152600.900,-152762.600,-30762.900,-39224.620,-39120.410,-33365.690,0.000
-37974.640,-37649.150,-152617.500,-152776.800,-30846.580,-39217.850,-39146.060,-33380.910,0.000
-37961.140,-37637.990,-152633.200,-152790.000,-30928.010,-39209.420,-39170.150,-33394.140,0.000
-37945.550,-37623.790,-152647.300,-152801.600,-31006.990,-39198.780,-39191.900,-33404.340,0.000
-37926.630,-37605.200,-152659.300,-152811.100,-31082.040,-39184.390,-39209.250,-33410.440,0.000
-37906.800,-37585.680,-152669.500,-152818.900,-31154.100,-39169.060,-39223.070,-33415.130,0.000
-37888.930,-37569.820,-152678.800,-152825.900,-31227.810,-39157.470,-39238.790,-33422.890,0.000
-37872.950,-37556.530,-152687.800,-152832.600,-31302.610,-39148.200,-39256.730,-33433.390,0.000
-37859.180,-37544.860,-152696.400,-152838.900,-31378.970,-39140.410,-39277.950,-33446.220,0.000
-37847.820,-37534.590,-152704.700,-152844.800,-31456.950,-39133.770,-39301.980,-33460.070,0.000
-37837.660,-37524.510,-152712.300,-152849.900,-31535.520,-39127.090,-39326.980,-33473.220,0.000
-37826.710,-37513.180,-152718.700,-152853.800,-31614.710,-39119.550,-39352.700,-33485.140,0.000
-37812.870,-37498.800,-152723.300,-152855.900,-31690.970,-39108.540,-39375.420,-33493.500,0.000
-37795.170,-37481.510,-152725.800,-152856.100,-31763.360,-39094.360,-39394.590,-33497.460,0.000
-37775.600,-37463.610,-152726.900,-152855.000,-31834.080,-39080.310,-39412.050,-33499.270,0.000
-37758.050,-37448.410,-152728.000,-152853.800,-31907.080,-39069.650,-39430.890,-33503.390,0.000
-37742.680,-37435.730,-152729.100,-152852.600,-31984.320,-39062.140,-39452.960,-33510.950,0.000
-37727.460,-37422.690,-152729.800,-152850.900,-32062.240,-39053.910,-39474.860,-33518.550,0.000
-37712.570,-37409.050,-152729.500,-152848.100,-32140.590,-39044.100,-39497.140,-33525.780,0.000
-37696.820,-37393.300,-152727.400,-152843.600,-32217.140,-39031.630,-39518.780,-33531.660,0.000
-37678.750,-37374.020,-152723.300,-152837.200,-32289.010,-39015.430,-39537.460,-33535.160,0.000
-37659.540,-37352.980,-152717.400,-152828.900,-32357.500,-38997.280,-39554.270,-33537.520,0.000
-37640.640,-37331.630,-152710.100,-152819.200,-32422.540,-38978.650,-39567.570,-33538.910,0.000
-37622.360,-37311.550,-152702.100,-152808.800,-32487.800,-38961.780,-39579.890,-33540.920,0.000
-37604.200,-37293.210,-152694.000,-152798.400,-32555.740,-38946.360,-39593.720,-33544.110,0.000
-37586.630,-37276.400,-152686.200,-152788.200,-32626.380,-38932.020,-39609.960,-33548.960,0.000
-37569.610,-37260.060,-152678.200,-152777.900,-32700.260,-38919.210,-39629.840,-33556.110,0.000
-37551.820,-37241.990,-152669.200,-152766.600,-32772.900,-38905.490,-39649.020,-33562.800,0.000
-37533.280,-37223.020,-152658.500,-152753.700,-32842.590,-38890.510,-39666.210,-33568.300,0.000
-37514.380,-37204.200,-152646.300,-152739.400,-32909.440,-38874.250,-39681.580,-33572.180,0.000
-37495.860,-37186.680,-152633.500,-152724.200,-32974.390,-38857.610,-39695.620,-33574.350,0.000
-37477.850,-37171.070,-152620.200,-152708.500,-33040.550,-38842.680,-39710.870,-33575.970,0.000
-37459.610,-37155.340,-152606.400,-152692.400,-33107.850,-38828.630,-39726.320,-33576.970,0.000
-37440.870,-37138.030,-152591.600,-152675.400,-33176.560,-38814.860,-39742.210,-33577.960,0.000
-37421.170,-37117.830,-152575.600,-152657.200,-33244.840,-38800.160,-39756.940,-33578.390,0.000
-37401.370,-37095.500,-152558.400,-152637.800,-33311.750,-38784.470,-39769.830,-33579.030,0.000
-37381.510,-37072.230,-152539.700,-152616.900,-33377.630,-38767.680,-39782.240,-33580.390,0.000
-37360.380,-37048.000,-152519.000,-152594.200,-33439.780,-38748.000,-39791.860,-33580.030,0.000
-37338.120,-37024.980,-152497.400,-152570.300,-33501.080,-38727.560,-39800.800,-33578.680,0.000
-37315.300,-37003.650,-152475.300,-152546.000,-33563.790,-38708.230,-39810.200,-33576.960,0.000
-37292.620,-36983.090,-152452.900,-152521.300,-33626.720,-38690.360,-39819.540,-33574.710,0.000
-37269.580,-36962.460,-152429.800,-152496.000,-33689.550,-38673.670,-39830.410,-33572.100,0.000
-37246.910,-36941.880,-152405.800,-152470.000,-33751.490,-38657.460,-39842.210,-33569.460,0.000
-37227.570,-36923.710,-152381.300,-152443.400,-33815.510,-38643.340,-39857.430,-33569.790,0.000
-37209.830,-36905.480,-152356.300,-152416.200,-33879.900,-38628.430,-39873.310,-33570.680,0.000
-37190.180,-36884.160,-152330.000,-152387.600,-33940.940,-38609.550,-39885.320,-33568.550,0.000
-37168.470,-36861.160,-152302.400,-152357.700,-34000.270,-38588.410,-39895.600,-33565.380,0.000
-37145.520,-36837.300,-152274.000,-152327.100,-34057.460,-38565.460,-39903.820,-33561.960,0.000
-37122.460,-36813.570,-152245.000,-152296.100,-34113.700,-38542.040,-39911.230,-33558.950,0.000
-37099.710,-36790.480,-152215.100,-152264.200,-34169.960,-38519.330,-39918.770,-33556.340,0.000
-37078.210,-36768.710,-152184.500,-152231.600,-34226.670,-38498.040,-39926.910,-33554.170,0.000
-37057.860,-36747.630,-152152.600,-152197.600,-34284.060,-38477.620,-39936.350,-33552.030,0.000
-37037.010,-36724.970,-152119.300,-152162.100,-34338.720,-38455.540,-39943.670,-33547.950,0.000
-37016.040,-36702.040,-152084.800,-152125.500,-34392.180,-38432.890,-39950.290,-33543.260,0.000
-36995.980,-36680.440,-152049.700,-152088.300,-34446.650,-38411.410,-39957.590,-33539.030,0.000
-36978.820,-36662.270,-152015.100,-152051.800,-34504.250,-38394.200,-39967.100,-33537.710,0.000
-36963.310,-36647.020,-151981.500,-152016.000,-34566.020,-38381.360,-39980.780,-33540.500,0.000
-36944.700,-36629.890,-151947.300,-151979.700,-34626.560,-38366.700,-39993.890,-33542.750,0.000
-36922.060,-36609.540,-151911.500,-151941.800,-34685.000,-38349.090,-40005.800,-33542.970,0.000
-36896.510,-36585.770,-151873.800,-151901.900,-34741.310,-38328.900,-40015.800,-33540.830,0.000
-36870.140,-36559.860,-151834.000,-151860.100,-34794.200,-38305.500,-40022.140,-33535.780,0.000
-36843.660,-36532.460,-151792.400,-151816.500,-34843.880,-38278.940,-40025.530,-33528.200,0.000
-36816.950,-36503.110,-151749.500,-151771.600,-34890.220,-38250.290,-40025.550,-33518.650,0.000
-36793.310,-36476.620,-151707.000,-151727.100,-34939.180,-38225.740,-40028.020,-33511.850,0.000
-36772.200,-36453.820,-151664.900,-151683.100,-34992.150,-38206.200,-40034.040,-33508.460,0.000
-36750.400,-36432.270,-151622.500,-151638.800,-35047.120,-38188.520,-40040.910,-33506.700,0.000
-36727.130,-36411.660,-151579.600,-151594.000,-35104.880,-38172.090,-40049.990,-33506.520,0.000
-36701.700,-36389.390,-151536.200,-151548.700,-35160.690,-38153.880,-40057.530,-33504.640,0.000
-36675.700,-36365.430,-151491.800,-151502.300,-35214.120,-38133.700,-40063.580,-33501.150,0.000
-36651.140,-36340.890,-151446.300,-151454.800,-35266.770,-38112.220,-40069.280,-33497.530,0.000
-36627.720,-36315.710,-151399.600,-151406.200,-35317.990,-38089.590,-40073.670,-33493.390,0.000
-36603.990,-36290.000,-151351.700,-151356.400,-35368.600,-38067.140,-40077.800,-33488.550,0.000
-36578.980,-36263.600,-151302.600,-151305.400,-35417.730,-38044.730,-40080.750,-33482.410,0.000
-36553.590,-36238.090,-151252.700,-151253.600,-35467.230,-38023.030,-40085.210,-33476.660,0.000
-36527.410,-36212.630,-151201.800,-151200.800,-35515.240,-37999.710,-40089.880,-33469.820,0.000
-36500.510,-36186.450,-151149.500,-151146.700,-35559.180,-37973.410,-40091.350,-33460.190,0.000
-36474.090,-36160.400,-151096.300,-151091.600,-35601.890,-37945.680,-40091.120,-33449.300,0.000
-36448.020,-36133.540,-151042.500,-151035.800,-35643.760,-37916.100,-40088.130,-33436.800,0.000
-36422.930,-36107.170,-150987.900,-150979.200,-35687.140,-37887.090,-40084.780,-33424.590,0.000
-36398.550,-36082.190,-150933.000,-150922.200,-35732.470,-37860.240,-40082.780,-33414.010,0.000
-36373.930,-36058.160,-150878.000,-150865.300,-35778.490,-37835.520,-40082.760,-33405.320,0.000
-36348.630,-36034.780,-150822.900,-150808.200,-35826.060,-37813.290,-40086.890,-33399.060,0.000
-36322.040,-36010.510,-150767.000,-150750.500,-35872.980,-37791.420,-40091.890,-33393.350,0.000
-36294.320,-35985.590,-150710.500,-150692.100,-35919.850,-37769.460,-40096.770,-33388.050,0.000
-36265.490,-35959.360,-150652.800,-150632.600,-35965.930,-37745.760,-40099.880,-33381.960,0.000
-36236.040,-35931.080,-150593.800,-150571.700,-36009.700,-37719.530,-40099.270,-33373.450,0.000
-36206.550,-35901.800,-150533.200,-150509.200,-36052.630,-37693.300,-40096.550,-33363.260,0.000
-36177.030,-35872.460,-150471.700,-150445.700,-36094.650,-37668.380,-40092.000,-33352.490,0.000
-36148.230,-35845.060,-150410.300,-150382.400,-36139.150,-37646.680,-40090.580,-33344.380,0.000
-36118.370,-35817.810,-150349.100,-150319.400,-36185.430,-37625.590,-40093.090,-33337.610,0.000
-36086.010,-35788.570,-150287.300,-150255.800,-36230.450,-37601.530,-40096.260,-33328.950,0.000
-36054.000,-35760.100,-150224.700,-150191.400,-36276.320,-37576.530,-40100.800,-33319.730,0.000
-36024.730,-35734.360,-150161.600,-150126.500,-36322.050,-37552.230,-40104.800,-33310.770,0.000
-35997.670,-35710.630,-150097.500,-150060.600,-36366.440,-37528.950,-40107.590,-33302.120,0.000
-35969.450,-35684.550,-150031.700,-149993.000,-36406.810,-37503.380,-40106.730,-33291.520,0.000
-35938.060,-35653.730,-149964.400,-149923.900,-36443.020,-37474.090,-40101.730,-33278.660,0.000
-35905.590,-35621.370,-149896.600,-149854.300,-36480.410,-37444.950,-40097.530,-33266.920,0.000
-35874.980,-35590.660,-149829.400,-149785.300,-36520.650,-37418.030,-40095.010,-33257.450,0.000
-35846.720,-35562.450,-149763.000,-149717.100,-36564.300,-37393.710,-40095.030,-33250.330,0.000
-35817.300,-35533.180,-149695.800,-149648.100,-36606.610,-37368.040,-40093.550,-33241.350,0.000
-35786.970,-35502.690,-149626.700,-149577.300,-36644.480,-37339.920,-40088.030,-33228.810,0.000
-35758.840,-35474.710,-149556.000,-149505.000,-36682.080,-37313.170,-40083.410,-33216.450,0.000
-35730.430,-35447.080,-149484.000,-149431.300,-36718.450,-37286.130,-40078.320,-33203.220,0.000
-35699.730,-35417.500,-149410.700,-149356.400,-36753.590,-37257.790,-40071.880,-33188.890,0.000
-35669.110,-35387.380,-149336.900,-149280.900,-36789.320,-37229.840,-40065.240,-33175.560,0.000
-35640.340,-35358.570,-149263.300,-149205.600,-36826.650,-37203.270,-40059.510,-33164.230,0.000
-35611.490,-35329.850,-149189.700,-149130.300,-36865.500,-37176.800,-40055.400,-33153.560,0.000
-35580.570,-35298.460,-149115.500,-149054.300,-36902.020,-37147.480,-40049.600,-33140.550,0.000
-35548.410,-35265.200,-149040.300,-148977.500,-36936.670,-37116.350,-40042.800,-33125.750,0.000
-35515.830,-35231.460,-148964.100,-148899.500,-36970.530,-37084.950,-40035.310,-33110.050,0.000
-35484.230,-35199.110,-148887.200,-148820.900,-37004.350,-37054.310,-40027.230,-33094.620,0.000
-35454.460,-35169.410,-148809.500,-148741.500,-37039.910,-37024.910,-40020.630,-33080.750,0.000
-35426.040,-35141.440,-148730.900,-148661.300,-37075.830,-36996.020,-40013.960,-33067.670,0.000
-35399.060,-35115.580,-148652.000,-148580.700,-37113.510,-36969.990,-40008.680,-33056.580,0.000
-35372.860,-35090.890,-148573.200,-148500.200,-37152.550,-36947.150,-40004.590,-33047.050,0.000
-35344.970,-35064.190,-148494.000,-148419.200,-37189.830,-36923.780,-39998.700,-33036.130,0.000
-35313.020,-35032.470,-148413.300,-148336.900,-37223.790,-36895.990,-39990.250,-33021.790,0.000
-35278.430,-34996.510,-148330.900,-148252.800,-37253.770,-36863.360,-39978.840,-33004.600,0.000
-35244.810,-34961.540,-148247.600,-148167.900,-37284.120,-36830.960,-39968.940,-32988.740,0.000
-35213.090,-34929.890,-148164.300,-148083.000,-37316.970,-36801.260,-39962.170,-32975.500,0.000
-35183.600,-34901.420,-148081.400,-147998.500,-37352.210,-36774.350,-39957.380,-32964.690,0.000
-35156.540,-34875.140,-147998.300,-147913.800,-37390.520,-36750.060,-39954.580,-32955.720,0.000
-35130.720,-34848.610,-147914.700,-147828.600,-37428.650,-36725.170,-39950.610,-32945.530,0.000
-35104.450,-34820.600,-147830.600,-147742.900,-37465.270,-36697.970,-39945.950,-32933.510,0.000
-35075.070,-34789.080,-147745.400,-147656.100,-37498.060,-36667.050,-39939.400,-32918.550,0.000
-35042.840,-34754.640,-147658.800,-147567.800,-37527.070,-36633.960,-39930.430,-32901.260,0.000
-35011.050,-34721.140,-147571.800,-147479.100,-37557.200,-36602.730,-39923.520,-32885.160,0.000
-34980.490,-34689.080,-147484.400,-147390.100,-37587.960,-36572.280,-39917.630,-32869.710,0.000
-34949.660,-34657.000,-147395.900,-147300.100,-37618.380,-36540.590,-39911.500,-32853.520,0.000
-34917.700,-34623.720,-147306.000,-147208.700,-37647.330,-36506.830,-39903.990,-32835.980,0.000
-34886.370,-34591.070,-147215.600,-147116.600,-37675.930,-36473.880,-39896.160,-32819.510,0.000
-34857.000,-34560.980,-147125.700,-147025.200,-37707.470,-36444.860,-39891.440,-32806.870,0.000
-34828.090,-34531.750,-147036.200,-146934.100,-37739.300,-36417.170,-39887.180,-32795.670,0.000
-34797.730,-34501.890,-146945.900,-146842.200,-37770.630,-36389.130,-39883.070,-32784.140,0.000
-34764.440,-34469.320,-146854.000,-146748.800,-37801.130,-36359.340,-39878.600,-32770.810,0.000
-34729.040,-34434.250,-146760.900,-146654.400,-37830.490,-36328.060,-39872.540,-32755.230,0.000
-34692.450,-34398.580,-146667.200,-146559.300,-37859.280,-36296.800,-39864.970,-32737.190,0.000
-34654.770,-34362.770,-146572.800,-146463.500,-37885.120,-36264.830,-39853.090,-32715.540,0.000
-34618.780,-34329.300,-146478.100,-146367.300,-37911.250,-36234.540,-39840.790,-32694.330,0.000
-34585.220,-34297.750,-146383.300,-146270.800,-37939.040,-36205.610,-39830.440,-32675.440,0.000
-34552.390,-34265.820,-146288.000,-146173.900,-37966.240,-36175.340,-39820.140,-32657.470,0.000
-34519.080,-34232.840,-146191.500,-146075.800,-37992.890,-36143.450,-39810.190,-32640.120,0.000
-34485.020,-34198.040,-146094.000,-145976.900,-38017.610,-36109.270,-39798.590,-32622.020,0.000
-34451.420,-34162.830,-145996.100,-145877.700,-38042.710,-36074.930,-39786.890,-32603.710,0.000
-34417.380,-34127.290,-145898.100,-145778.400,-38067.940,-36040.690,-39774.800,-32584.260,0.000
-34381.860,-34091.690,-145799.800,-145678.700,-38091.860,-36005.550,-39761.050,-32563.340,0.000
-34345.740,-34057.950,-145701.300,-145578.500,-38117.380,-35971.720,-39748.550,-32543.660,0.000
-34309.540,-34025.390,-145602.400,-145478.000,-38143.690,-35939.430,-39736.270,-32525.060,0.000
-34274.550,-33993.540,-145502.800,-145376.800,-38169.980,-35907.850,-39724.130,-32506.650,0.000
-34241.960,-33962.280,-145402.000,-145274.500,-38195.040,-35875.660,-39711.480,-32487.280,0.000
-34211.470,-33931.410,-145300.600,-145171.600,-38217.980,-35842.960,-39697.420,-32466.910,0.000
-34181.070,-33899.910,-145198.500,-145068.300,-38240.040,-35810.670,-39683.290,-32446.080,0.000
-34148.590,-33865.310,-145096.000,-144964.400,-38259.590,-35776.570,-39667.110,-32423.080,0.000
-34115.330,-33829.300,-144993.300,-144860.200,-38279.140,-35741.530,-39650.520,-32399.490,0.000
-34083.200,-33794.960,-144890.400,-144755.900,-38300.620,-35707.280,-39634.900,-32377.210,0.000
-34051.660,-33762.600,-144787.000,-144651.000,-38322.840,-35673.460,-39619.380,-32356.110,0.000
-34017.940,-33729.820,-144682.400,-144544.900,-38345.050,-35638.950,-39603.920,-32335.190,0.000
-33980.240,-33694.010,-144576.300,-144437.500,-38364.190,-35601.490,-39586.080,-32312.350,0.000
-33941.560,-33657.770,-144469.500,-144329.300,-38382.860,-35563.790,-39569.700,-32290.480,0.000
-33904.290,-33622.930,-144362.800,-144221.400,-38403.190,-35528.090,-39557.090,-32271.460,0.000
-33868.420,-33588.640,-144256.700,-144114.000,-38424.630,-35493.960,-39546.470,-32254.200,0.000
-33834.010,-33554.400,-144150.600,-144006.500,-38447.730,-35461.200,-39537.320,-32238.050,0.000
-33799.760,-33518.270,-144043.600,-143897.900,-38468.250,-35427.150,-39524.070,-32219.140,0.000
-33765.410,-33481.270,-143935.400,-143788.300,-38486.570,-35392.770,-39506.480,-32196.930,0.000
-33731.740,-33445.680,-143826.700,-143678.400,-38505.390,-35359.840,-39488.070,-32173.940,0.000
-33698.150,-33411.380,-143717.400,-143567.900,-38523.900,-35327.170,-39469.760,-32151.100,0.000
-33663.210,-33376.480,-143606.900,-143456.000,-38541.450,-35293.260,-39452.480,-32128.400,0.000
-33626.340,-33339.280,-143495.400,-143343.200,-38556.500,-35256.830,-39434.620,-32105.340,0.000
-33588.590,-33301.340,-143383.900,-143230.400,-38571.740,-35220.220,-39417.960,-32084.050,0.000
-33550.100,-33263.240,-143272.500,-143117.800,-38588.320,-35184.220,-39402.610,-32064.790,0.000
-33511.320,-33225.100,-143160.500,-143004.600,-38605.480,-35147.960,-39387.430,-32046.410,0.000
-33473.320,-33188.050,-143047.700,-142890.600,-38624.290,-35111.700,-39373.910,-32028.930,0.000
-33436.720,-33152.310,-142934.100,-142776.000,-38642.620,-35075.140,-39360.000,-32011.220,0.000
-33402.380,-33118.540,-142820.100,-142660.800,-38661.090,-35040.430,-39346.330,-31994.100,0.000
-33368.860,-33084.690,-142705.800,-142545.300,-38678.940,-35006.840,-39331.610,-31976.160,0.000
-33334.450,-33048.460,-142591.200,-142429.200,-38694.680,-34972.020,-39313.430,-31955.280,0.000
-33299.040,-33010.800,-142476.400,-142313.000,-38711.180,-34936.690,-39294.570,-31933.150,0.000
-33262.560,-32973.230,-142361.700,-142196.800,-38729.290,-34901.290,-39276.380,-31911.140,0.000
-33223.600,-32935.340,-142246.300,-142079.900,-38748.590,-34865.100,-39259.780,-31889.350,0.000
-33181.690,-32895.160,-142129.600,-141961.900,-38765.950,-34826.270,-39242.290,-31866.040,0.000
-33141.130,-32855.580,-142012.100,-141843.100,-38781.380,-34787.520,-39223.550,-31842.280,0.000
-33103.840,-32819.300,-141894.400,-141724.200,-38796.980,-34751.540,-39206.000,-31819.860,0.000
-33067.020,-32784.170,-141776.000,-141604.700,-38809.290,-34715.440,-39186.360,-31797.040,0.000
-33030.000,-32749.780,-141657.100,-141484.600,-38819.430,-34679.320,-39165.380,-31774.300,0.000
-32992.110,-32714.440,-141537.900,-141364.200,-38828.320,-34642.180,-39143.320,-31750.830,0.000
-32952.890,-32676.610,-141418.200,-141243.400,-38835.410,-34602.320,-39119.350,-31725.780,0.000
-32914.060,-32637.900,-141297.900,-141121.900,-38843.770,-34562.120,-39096.700,-31701.170,0.000
-32876.380,-32598.710,-141176.800,-140999.700,-38853.330,-34523.140,-39074.930,-31677.340,0.000
-32838.440,-32558.000,-141054.800,-140876.600,-38863.530,-34485.390,-39053.680,-31653.470,0.000
-32799.300,-32515.470,-140931.700,-140752.600,-38873.080,-34447.020,-39032.360,-31628.160,0.000
-32762.080,-32475.420,-140809.000,-140628.900,-38883.530,-34409.960,-39013.660,-31604.220,0.000
-32728.120,-32440.480,-140687.300,-140506.100,-38897.210,-34377.110,-39000.550,-31583.800,0.000
-32693.460,-32406.360,-140565.600,-140383.200,-38909.920,-34345.070,-38987.020,-31562.180,0.000
-32656.150,-32370.360,-140443.400,-140259.700,-38921.530,-34311.560,-38971.110,-31537.490,0.000
-32617.290,-32332.270,-140320.900,-140136.000,-38932.870,-34275.620,-38952.670,-31510.040,0.000
-32577.750,-32292.390,-140197.500,-140011.400,-38942.960,-34236.620,-38930.760,-31480.230,0.000
-32537.740,-32251.160,-140073.000,-139885.600,-38952.760,-34195.660,-38907.830,-31449.490,0.000
-32498.330,-32209.590,-139947.600,-139759.000,-38961.880,-34154.030,-38884.140,-31418.460,0.000
-32461.170,-32170.740,-139822.000,-139632.400,-38972.640,-34114.400,-38862.040,-31389.120,0.000
-32424.670,-32133.420,-139696.100,-139505.500,-38983.640,-34075.250,-38840.070,-31359.590,0.000
-32387.140,-32095.210,-139569.500,-139377.800,-38992.340,-34034.680,-38815.950,-31327.770,0.000
-32348.930,-32056.300,-139442.500,-139249.900,-39000.960,-33993.640,-38792.890,-31295.440,0.000
-32310.210,-32016.320,-139315.100,-139121.600,-39008.750,-33951.110,-38770.770,-31263.090,0.000
-32272.310,-31977.130,-139187.300,-138992.600,-39016.970,-33908.790,-38751.250,-31232.830,0.000
-32235.570,-31939.900,-139059.300,-138863.300,-39026.070,-33868.060,-38734.190,-31205.650,0.000
-32199.580,-31904.080,-138931.800,-138734.600,-39035.540,-33829.110,-38717.670,-31181.090,0.000
-32164.040,-31868.460,-138804.600,-138606.400,-39046.130,-33791.710,-38701.610,-31158.170,0.000
-32127.730,-31830.560,-138676.500,-138477.500,-39053.950,-33752.220,-38682.100,-31133.360,0.000
-32090.040,-31790.930,-138546.800,-138346.800,-39058.650,-33710.410,-38659.560,-31106.800,0.000
-32049.920,-31750.020,-138415.800,-138214.900,-39060.730,-33667.700,-38634.820,-31079.040,0.000
-32007.130,-31707.490,-138283.600,-138081.800,-39060.070,-33624.940,-38607.410,-31049.580,0.000
-31963.720,-31664.790,-138150.600,-137947.500,-39060.380,-33583.570,-38580.730,-31020.650,0.000
-31922.130,-31623.760,-138017.800,-137813.500,-39063.250,-33543.290,-38555.660,-30994.130,0.000
-31882.960,-31585.400,-137885.900,-137680.500,-39069.370,-33505.000,-38533.400,-30970.660,0.000
-31844.060,-31547.380,-137754.200,-137547.700,-39075.960,-33467.650,-38511.830,-30947.480,0.000
-31805.020,-31509.210,-137622.100,-137414.600,-39080.990,-33429.910,-38488.560,-30922.910,0.000
-31766.690,-31472.690,-137489.800,-137281.400,-39086.360,-33392.230,-38465.300,-30898.050,0.000
-31729.070,-31436.890,-137357.400,-137147.900,-39090.930,-33353.480,-38440.970,-30872.590,0.000
-31692.340,-31400.720,-137224.400,-137013.800,-39095.320,-33314.110,-38417.040,-30847.460,0.000
-31654.850,-31362.260,-137089.900,-136878.300,-39098.440,-33273.500,-38392.710,-30821.440,0.000
-31615.710,-31321.540,-136954.000,-136741.500,-39099.210,-33231.960,-38366.530,-30793.530,0.000
-31575.660,-31280.230,-136817.700,-136604.000,-39100.020,-33191.700,-38340.910,-30765.490,0.000
-31534.660,-31238.290,-136681.300,-136466.600,-39100.050,-33151.970,-38314.750,-30737.110,0.000
-31493.970,-31197.840,-136545.200,-136329.400,-39101.500,-33113.740,-38289.840,-30709.950,0.000
-31454.490,-31159.700,-136409.400,-136192.600,-39105.090,-33076.560,-38266.430,-30684.520,0.000
-31415.660,-31122.470,-136273.500,-136055.800,-39108.510,-33038.650,-38242.320,-30659.410,0.000
-31376.520,-31084.760,-136136.900,-135918.500,-39110.760,-32999.840,-38217.320,-30634.020,0.000
-31336.120,-31045.060,-135999.500,-135780.200,-39109.380,-32958.990,-38189.090,-30606.770,0.000
-31296.040,-31005.240,-135861.400,-135641.100,-39107.570,-32918.420,-38160.950,-30579.480,0.000
-31256.590,-30965.950,-135722.500,-135501.200,-39107.030,-32879.010,-38134.650,-30552.980,0.000
-31215.830,-30926.270,-135583.300,-135361.000,-39106.060,-32839.730,-38108.450,-30526.250,0.000
-31173.320,-30886.500,-135444.300,-135221.200,-39105.890,-32801.410,-38083.540,-30500.000,0.000
-31130.350,-30846.810,-135305.800,-135081.900,-39105.800,-32763.220,-38058.590,-30473.980,0.000
-31089.210,-30808.840,-135167.600,-134943.100,-39106.540,-32725.600,-38034.400,-30448.850,0.000
-31049.110,-30771.710,-135028.900,-134803.800,-39106.710,-32687.740,-38009.590,-30423.030,0.000
-31007.920,-30733.630,-134889.400,-134663.400,-39105.260,-32648.950,-37982.650,-30395.170,0.000
-30965.150,-30693.820,-134748.800,-134522.000,-39104.380,-32610.420,-37955.570,-30365.790,0.000
-30921.190,-30651.210,-134607.100,-134379.400,-39102.900,-32571.580,-37927.270,-30333.940,0.000
-30878.490,-30608.660,-134464.800,-134236.200,-39103.240,-32533.970,-37900.950,-30302.440,0.000
-30837.980,-30567.710,-134322.300,-134092.900,-39105.570,-32496.800,-37877.130,-30272.960,0.000
-30799.120,-30527.530,-134179.800,-133949.500,-39106.750,-32457.790,-37852.750,-30244.540,0.000
-30761.810,-30488.470,-134037.500,-133806.300,-39106.690,-32417.150,-37828.130,-30217.090,0.000
-30724.740,-30449.530,-133895.500,-133663.500,-39103.710,-32373.810,-37801.740,-30189.170,0.000
-30686.800,-30410.250,-133753.300,-133520.400,-39098.770,-32329.900,-37774.910,-30161.360,0.000
-30647.720,-30370.580,-133610.500,-133376.900,-39093.050,-32288.070,-37747.920,-30133.960,0.000
-30607.660,-30330.800,-133467.400,-133233.000,-39088.310,-32248.300,-37720.830,-30107.090,0.000
-30565.610,-30290.080,-133323.600,-133088.500,-39086.150,-32208.980,-37695.010,-30080.640,0.000
-30520.530,-30247.290,-133178.800,-132943.000,-39083.540,-32167.850,-37667.640,-30052.710,0.000
-30473.930,-30204.580,-133033.500,-132796.800,-39081.610,-32126.170,-37640.540,-30024.640,0.000
-30427.050,-30162.050,-132888.300,-132650.600,-39079.760,-32083.610,-37614.090,-29996.490,0.000
-30382.160,-30120.220,-132743.000,-132504.400,-39076.110,-32040.410,-37586.660,-29967.690,0.000
-30340.880,-30080.810,-132597.200,-132357.800,-39072.350,-31998.590,-37559.610,-29939.250,0.000
-30300.760,-30041.000,-132450.800,-132210.700,-39066.840,-31956.100,-37530.800,-29909.660,0.000
-30259.440,-29998.260,-132303.900,-132063.100,-39060.300,-31912.200,-37501.030,-29878.710,0.000
-30215.580,-29951.660,-132156.200,-131914.600,-39052.630,-31866.300,-37469.880,-29845.510,0.000
-30169.900,-29903.830,-132007.700,-131765.400,-39044.140,-31819.280,-37437.530,-29810.940,0.000
-30125.070,-29859.380,-131859.200,-131616.300,-39038.740,-31775.090,-37408.230,-29778.920,0.000
-30081.960,-29818.220,-131711.200,-131467.700,-39034.710,-31733.970,-37379.640,-29748.410,0.000
-30040.710,-29779.490,-131563.500,-131319.300,-39031.010,-31694.870,-37350.480,-29718.150,0.000
-30000.340,-29741.560,-131415.500,-131170.700,-39026.390,-31655.650,-37320.350,-29687.760,0.000
-29959.830,-29702.860,-131267.000,-131021.500,-39020.350,-31616.200,-37289.710,-29657.920,0.000
-29918.730,-29663.020,-131118.200,-130871.900,-39014.870,-31577.490,-37260.810,-29629.700,0.000
-29876.620,-29621.180,-130969.000,-130721.900,-39008.480,-31537.070,-37231.330,-29601.220,0.000
-29834.370,-29578.710,-130819.300,-130571.500,-39003.010,-31495.080,-37202.650,-29572.310,0.000
-29792.480,-29536.440,-130669.400,-130421.000,-38998.670,-31452.100,-37174.950,-29542.610,0.000
-29751.850,-29495.420,-130519.600,-130270.400,-38994.130,-31409.470,-37147.250,-29512.820,0.000
-29712.000,-29455.790,-130369.600,-130119.700,-38990.140,-31369.020,-37121.070,-29484.320,0.000
-29671.010,-29415.300,-130219.200,-129968.700,-38984.650,-31329.150,-37094.000,-29455.540,0.000
-29629.110,-29373.820,-130068.600,-129817.500,-38978.640,-31289.820,-37066.180,-29426.450,0.000
-29586.470,-29331.000,-129917.500,-129666.000,-38972.080,-31249.700,-37036.980,-29395.730,0.000
-29543.450,-29286.860,-129765.700,-129513.800,-38963.930,-31207.110,-37005.470,-29361.980,0.000
-29500.480,-29241.950,-129613.500,-129361.100,-38955.750,-31162.670,-36974.050,-29326.580,0.000
-29457.490,-29196.630,-129461.300,-129208.300,-38946.760,-31117.330,-36942.670,-29290.660,0.000
-29415.790,-29153.670,-129309.400,-129055.800,-38938.500,-31073.850,-36913.070,-29256.710,0.000
-29374.790,-29112.650,-129156.800,-128902.800,-38929.940,-31031.130,-36883.700,-29223.810,0.000
-29333.230,-29071.720,-129003.500,-128749.200,-38919.840,-30987.780,-36853.130,-29190.300,0.000
-29291.480,-29030.840,-128850.200,-128595.500,-38910.760,-30944.890,-36823.910,-29157.120,0.000
-29249.030,-28988.520,-128696.200,-128441.100,-38900.250,-30900.160,-36792.460,-29122.500,0.000
-29205.770,-28945.060,-128541.100,-128285.600,-38889.130,-30854.520,-36759.230,-29087.530,0.000
-29162.850,-28901.270,-128386.300,-128130.500,-38879.950,-30810.880,-36727.790,-29055.040,0.000
-29121.210,-28857.980,-128232.200,-127976.000,-38872.290,-30769.400,-36698.300,-29025.130,0.000
-29077.790,-28814.270,-128077.400,-127820.900,-38863.860,-30726.890,-36668.190,-28994.160,0.000
-29031.050,-28769.020,-127921.600,-127664.700,-38851.760,-30681.370,-36633.990,-28959.450,0.000
-28985.950,-28726.010,-127766.000,-127508.800,-38840.450,-30637.790,-36600.580,-28926.100,0.000
-28943.710,-28684.940,-127610.600,-127353.300,-38830.570,-30595.900,-36568.890,-28895.070,0.000
-28902.700,-28643.410,-127455.100,-127197.600,-38820.030,-30552.760,-36536.650,-28863.690,0.000
-28862.540,-28601.800,-127299.600,-127041.800,-38810.090,-30509.640,-36505.730,-28832.180,0.000
-28822.230,-28560.300,-127144.200,-126886.100,-38798.460,-30466.810,-36474.240,-28799.760,0.000
-28781.550,-28520.190,-126988.200,-126730.000,-38785.960,-30425.500,-36442.980,-28767.440,0.000
-28739.100,-28480.210,-126831.600,-126573.200,-38772.630,-30384.050,-36410.870,-28734.630,0.000
-28695.250,-28439.550,-126674.700,-126416.200,-38758.670,-30341.170,-36376.720,-28701.280,0.000
-28652.780,-28399.580,-126517.700,-126259.200,-38747.130,-30299.080,-36343.620,-28669.500,0.000
-28611.250,-28358.880,-126360.300,-126101.900,-38735.410,-30256.510,-36309.380,-28637.340,0.000
-28568.070,-28315.620,-126202.300,-125944.200,-38722.200,-30212.030,-36273.120,-28603.180,0.000
-28521.750,-28268.280,-126043.800,-125785.900,-38706.270,-30164.240,-36233.660,-28566.170,0.000
-28475.430,-28219.730,-125885.200,-125627.500,-38688.390,-30115.170,-36192.270,-28529.170,0.000
-28433.920,-28176.050,-125727.500,-125470.200,-38674.390,-30070.490,-36155.800,-28497.790,0.000
-28396.760,-28137.630,-125570.400,-125313.700,-38664.210,-30030.520,-36124.130,-28471.000,0.000
-28359.180,-28100.360,-125412.900,-125157.000,-38654.890,-29992.690,-36094.400,-28444.680,0.000
-28316.620,-28059.500,-125254.000,-124999.100,-38641.740,-29953.020,-36062.080,-28414.540,0.000
-28270.150,-28015.170,-125093.700,-124839.800,-38623.620,-29910.250,-36025.570,-28380.510,0.000
-28223.240,-27970.360,-124932.800,-124679.900,-38604.900,-29866.870,-35989.360,-28346.260,0.000
-28175.940,-27924.810,-124772.000,-124520.200,-38586.020,-29822.780,-35954.150,-28312.120,0.000
-28128.820,-27879.500,-124611.800,-124361.400,-38568.960,-29778.990,-35921.780,-28278.610,0.000
-28083.000,-27835.240,-124452.200,-124203.600,-38554.430,-29736.220,-35891.810,-28245.440,0.000
-28038.170,-27791.780,-124293.100,-124046.500,-38541.180,-29693.920,-35862.000,-28212.100,0.000
-27993.030,-27748.640,-124134.000,-123889.600,-38528.860,-29651.500,-35832.130,-28178.490,0.000
-27946.360,-27703.800,-123974.200,-123732.500,-38513.460,-29606.440,-35797.950,-28142.100,0.000
-27900.400,-27659.340,-123813.500,-123576.300,-38496.660,-29560.310,-35761.380,-28105.100,0.000
-27856.920,-27617.110,-123651.900,-123421.000,-38480.570,-29514.850,-35725.540,-28070.060,0.000
-27814.920,-27575.570,-123489.200,-123266.100,-38463.990,-29469.470,-35689.750,-28036.430,0.000
-27773.340,-27533.850,-123326.000,-123112.100,-38447.890,-29424.460,-35654.790,-28003.850,0.000
-27731.380,-27491.620,-123163.200,-122961.400,-38432.000,-29379.600,-35619.610,-27971.290,0.000
-27689.650,-27450.350,-123001.700,-122817.300,-38418.710,-29336.870,-35586.810,-27940.190,0.000
-27646.880,-27408.580,-122840.800,-122678.500,-38406.290,-29294.540,-35555.410,-27909.250,0.000
-27601.810,-27364.410,-122679.500,-122541.500,-38391.550,-29250.510,-35522.670,-27876.670,0.000
-27555.750,-27319.390,-122518.000,-122405.900,-38376.260,-29207.150,-35490.730,-27843.900,0.000
-27508.740,-27273.330,-122356.100,-122272.100,-38358.460,-29163.360,-35456.970,-27809.670,0.000
-27461.280,-27226.430,-122193.900,-122141.300,-38338.450,-29118.130,-35421.270,-27774.140,0.000
-27414.590,-27179.050,-122031.900,-122012.000,-38317.020,-29071.710,-35384.250,-27737.420,0.000
-27369.070,-27132.280,-121869.900,-121881.100,-38293.870,-29024.860,-35345.610,-27699.520,0.000
-27323.960,-27086.910,-121707.200,-121747.600,-38270.880,-28978.130,-35307.390,-27662.050,0.000
-27278.430,-27041.490,-121544.000,-121613.100,-38247.390,-28930.060,-35268.160,-27624.930,0.000
-27234.350,-26997.870,-121381.100,-121480.900,-38226.490,-28883.380,-35230.940,-27590.970,0.000
-27192.330,-26956.590,-121218.900,-121350.800,-38208.970,-28839.500,-35196.960,-27560.580,0.000
-27150.720,-26915.260,-121056.500,-121220.200,-38191.370,-28796.420,-35162.730,-27529.790,0.000
-27108.380,-26872.250,-120892.900,-121087.300,-38172.530,-28752.750,-35126.790,-27495.660,0.000
-27065.480,-26827.210,-120728.100,-120952.700,-38150.950,-28707.210,-35087.200,-27457.370,0.000
-27023.790,-26783.430,-120563.000,-120818.800,-38129.660,-28662.100,-35047.800,-27418.770,0.000
-26983.500,-26742.590,-120398.200,-120686.400,-38110.450,-28618.540,-35011.000,-27381.850,0.000
-26943.800,-26703.810,-120233.800,-120554.700,-38092.770,-28576.270,-34975.670,-27346.510,0.000
-26904.010,-26665.110,-120069.500,-120423.100,-38076.890,-28535.160,-34942.020,-27313.270,0.000
-26862.980,-26623.610,-119904.600,-120290.200,-38058.830,-28492.110,-34906.630,-27279.860,0.000
-26820.620,-26580.020,-119738.500,-120156.000,-38038.610,-28447.220,-34870.040,-27245.810,0.000
-26776.380,-26535.020,-119571.600,-120020.400,-38017.390,-28401.670,-34832.710,-27210.940,0.000
-26731.000,-26489.850,-119404.400,-119884.500,-37995.450,-28356.560,-34794.430,-27175.900,0.000
-26686.630,-26447.070,-119237.400,-119749.700,-37975.090,-28313.400,-34758.250,-27142.540,0.000
-26644.210,-26406.570,-119070.900,-119615.400,-37955.370,-28270.350,-34723.110,-27109.530,0.000
-26603.700,-26367.720,-118904.800,-119481.200,-37937.240,-28227.060,-34689.510,-27076.990,0.000
-26562.910,-26328.150,-118738.500,-119346.300,-37919.430,-28182.430,-34655.830,-27043.620,0.000
-26520.080,-26286.300,-118571.700,-119209.800,-37899.560,-28135.240,-34619.880,-27007.630,0.000
-26476.380,-26243.880,-118404.600,-119073.300,-37879.840,-28087.490,-34584.420,-26971.050,0.000
-26433.530,-26201.960,-118237.300,-118938.400,-37859.980,-28040.910,-34548.790,-26935.100,0.000
-26391.780,-26160.790,-118069.700,-118805.000,-37840.110,-27997.070,-34512.990,-26900.390,0.000
-26349.580,-26118.650,-117901.600,-118671.200,-37819.350,-27954.330,-34475.760,-26865.580,0.000
-26306.340,-26075.050,-117733.400,-118536.700,-37797.810,-27911.530,-34436.270,-26830.270,0.000
-26261.070,-26029.640,-117565.100,-118401.200,-37776.840,-27868.320,-34396.150,-26794.940,0.000
-26213.040,-25980.830,-117396.200,-118263.300,-37753.350,-27822.280,-34353.840,-26757.760,0.000
-26165.310,-25931.680,-117226.800,-118124.800,-37729.100,-27775.610,-34312.910,-26720.480,0.000
-26118.930,-25884.070,-117057.000,-117985.900,-37705.200,-27729.390,-34274.600,-26683.540,0.000
-26074.170,-25839.080,-116887.700,-117846.900,-37682.160,-27684.530,-34238.090,-26647.380,0.000
-26032.320,-25798.620,-116719.400,-117709.900,-37663.140,-27643.810,-34205.590,-26614.190,0.000
-25990.960,-25759.330,-116551.300,-117573.400,-37644.800,-27603.950,-34172.720,-26580.790,0.000
-25948.100,-25718.560,-116382.500,-117435.400,-37625.590,-27562.370,-34137.590,-26545.830,0.000
-25903.660,-25675.750,-116212.900,-117296.000,-37604.230,-27518.230,-34099.520,-26509.460,0.000
-25857.750,-25630.890,-116042.700,-117156.500,-37578.720,-27471.180,-34057.640,-26471.030,0.000
-25811.100,-25585.080,-115872.200,-117017.500,-37551.920,-27423.140,-34015.550,-26431.630,0.000
-25764.960,-25538.750,-115702.000,-116878.300,-37525.310,-27375.000,-33974.380,-26391.730,0.000
-25721.170,-25493.990,-115532.700,-116739.500,-37501.470,-27329.330,-33936.590,-26353.700,0.000
-25679.310,-25450.710,-115364.100,-116601.300,-37479.880,-27286.460,-33901.290,-26317.690,0.000
-25637.700,-25407.320,-115195.000,-116463.900,-37458.160,-27244.050,-33865.490,-26282.340,0.000
-25595.880,-25364.230,-115025.100,-116328.100,-37437.110,-27201.670,-33830.420,-26248.350,0.000
-25553.520,-25321.410,-114854.700,-116192.300,-37415.250,-27158.470,-33794.800,-26214.840,0.000
-25510.660,-25279.750,-114684.400,-116054.900,-37393.860,-27115.470,-33759.670,-26181.880,0.000
-25466.910,-25238.470,-114514.100,-115915.800,-37372.160,-27072.000,-33723.840,-26147.830,0.000
-25422.960,-25196.060,-114343.400,-115776.900,-37348.290,-27026.720,-33685.490,-26111.710,0.000
-25379.660,-25152.240,-114172.000,-115638.900,-37324.050,-26980.390,-33646.750,-26075.370,0.000
-25335.950,-25106.280,-114000.100,-115499.400,-37298.360,-26932.240,-33605.710,-26038.050,0.000
-25291.960,-25060.220,-113828.400,-115358.200,-37273.240,-26884.040,-33563.900,-26000.550,0.000
-25248.190,-25015.530,-113657.200,-115216.500,-37249.910,-26836.700,-33523.130,-25963.410,0.000
-25205.370,-24972.630,-113486.500,-115075.400,-37227.610,-26790.100,-33483.640,-25926.730,0.000
-25163.690,-24932.020,-113316.300,-114935.600,-37206.980,-26745.190,-33447.040,-25891.320,0.000
-25121.700,-24892.270,-113146.200,-114795.700,-37185.710,-26700.870,-33410.980,-25855.980,0.000
-25079.030,-24852.460,-112975.800,-114655.900,-37164.570,-26657.390,-33375.990,-25821.200,0.000
-25035.520,-24811.070,-112804.800,-114515.400,-37142.970,-26613.690,-33340.620,-25785.900,0.000
-24991.430,-24767.900,-112632.900,-114374.100,-37119.310,-26568.770,-33302.660,-25749.090,0.000
-24947.270,-24723.990,-112460.700,-114232.700,-37095.000,-26523.330,-33264.390,-25712.180,0.000
-24902.690,-24678.640,-112288.500,-114090.900,-37068.250,-26475.760,-33224.640,-25674.400,0.000
-24857.770,-24632.450,-112116.000,-113948.600,-37039.630,-26426.890,-33184.070,-25635.890,0.000
-24812.610,-24585.940,-111943.000,-113805.500,-37010.140,-26378.530,-33143.460,-25596.830,0.000
-24767.190,-24539.400,-111769.500,-113662.400,-36980.230,-26331.380,-33102.780,-25557.370,0.000
-24720.430,-24493.060,-111595.900,-113519.100,-36951.790,-26285.050,-33063.180,-25517.830,0.000
-24672.480,-24447.260,-111422.700,-113375.600,-36924.810,-26238.560,-33023.450,-25477.810,0.000
-24626.120,-24402.990,-111249.700,-113233.400,-36900.960,-26193.560,-32985.300,-25439.180,0.000
-24581.140,-24357.850,-111076.200,-113091.300,-36877.870,-26148.780,-32947.660,-25401.230,0.000
-24535.940,-24310.590,-110902.700,-112947.900,-36852.500,-26102.660,-32909.020,-25362.890,0.000
-24490.070,-24262.660,-110729.700,-112803.500,-36825.620,-26055.830,-32870.570,-25324.540,0.000
-24444.000,-24215.210,-110557.100,-112657.900,-36796.040,-26008.270,-32829.910,-25285.210,0.000
-24399.600,-24170.510,-110384.800,-112512.900,-36766.390,-25962.960,-32789.520,-25247.290,0.000
-24357.150,-24128.080,-110212.900,-112369.600,-36737.980,-25920.080,-32750.880,-25211.300,0.000
-24315.670,-24086.430,-110040.800,-112227.400,-36709.860,-25877.170,-32712.260,-25175.040,0.000
-24273.170,-24044.290,-109868.300,-112084.600,-36682.760,-25832.940,-32674.060,-25137.550,0.000
-24228.630,-23999.910,-109694.600,-111939.700,-36654.200,-25786.460,-32633.900,-25097.970,0.000
-24184.430,-23955.430,-109519.800,-111794.900,-36625.090,-25740.250,-32593.170,-25058.470,0.000
-24141.540,-23912.400,-109345.000,-111651.200,-36596.350,-25694.540,-32552.890,-25019.960,0.000
-24099.250,-23870.760,-109171.000,-111508.300,-36567.450,-25648.510,-32511.870,-24981.620,0.000
-24056.330,-23829.560,-108997.300,-111365.900,-36539.150,-25602.970,-32470.340,-24942.830,0.000
-24011.410,-23786.350,-108823.300,-111222.600,-36509.390,-25556.690,-32426.230,-24902.360,0.000
-23965.460,-23741.460,-108648.800,-111078.700,-36479.790,-25509.670,-32382.110,-24862.210,0.000
-23919.630,-23695.360,-108474.400,-110934.400,-36451.310,-25461.160,-32339.440,-24822.860,0.000
-23875.040,-23649.000,-108300.300,-110790.300,-36423.650,-25411.900,-32297.400,-24783.760,0.000
-23831.960,-23603.930,-108126.500,-110647.400,-36397.430,-25364.720,-32256.650,-24745.030,0.000
-23788.620,-23559.210,-107952.400,-110504.200,-36369.040,-25318.490,-32214.260,-24704.300,0.000
-23744.100,-23514.560,-107778.000,-110360.400,-36338.680,-25272.400,-32171.250,-24661.680,0.000
-23697.930,-23469.140,-107603.900,-110215.600,-36306.930,-25225.500,-32127.950,-24617.560,0.000
-23651.750,-23424.340,-107430.300,-110071.200,-36274.540,-25178.650,-32084.330,-24573.430,0.000
-23608.500,-23382.460,-107257.100,-109929.300,-36245.400,-25134.190,-32043.780,-24532.120,0.000
-23566.630,-23340.150,-107083.800,-109787.200,-36216.900,-25089.000,-32003.540,-24491.060,0.000
-23523.780,-23295.250,-106910.000,-109643.000,-36187.260,-25041.350,-31962.460,-24448.720,0.000
-23480.620,-23249.730,-106736.000,-109498.900,-36157.290,-24992.210,-31921.360,-24406.520,0.000
-23438.860,-23205.730,-106561.600,-109357.500,-36127.480,-24943.070,-31880.730,-24365.930,0.000
-23398.460,-23163.320,-106386.500,-109218.300,-36098.270,-24895.430,-31841.790,-24327.030,0.000
-23357.770,-23120.950,-106210.900,-109077.400,-36066.920,-24847.240,-31801.570,-24287.100,0.000
-23315.470,-23078.490,-106035.500,-108931.400,-36033.910,-24797.240,-31760.190,-24245.620,0.000
-23270.150,-23034.470,-105860.000,-108779.500,-35999.090,-24745.240,-31717.280,-24202.460,0.000
-23223.290,-22989.180,-105684.400,-108624.800,-35963.040,-24693.780,-31673.180,-24159.660,0.000
-23178.400,-22945.110,-105509.200,-108472.700,-35930.290,-24646.790,-31632.240,-24121.650,0.000
-23135.730,-22901.450,-105335.000,-108324.300,-35900.120,-24602.790,-31593.040,-24088.220,0.000
-23092.860,-22856.380,-105161.100,-108178.400,-35870.590,-24558.770,-31553.700,-24056.570,0.000
-23047.280,-22808.310,-104986.400,-108032.300,-35838.740,-24511.770,-31512.070,-24022.790,0.000
-22999.460,-22758.900,-104810.900,-107885.100,-35803.600,-24462.460,-31468.120,-23986.370,0.000
-22950.830,-22710.700,-104635.000,-107736.500,-35767.530,-24413.410,-31424.440,-23948.940,0.000
-22902.870,-22664.390,-104459.100,-107586.100,-35730.360,-24365.040,-31379.830,-23910.100,0.000
-22858.050,-22621.840,-104283.500,-107436.300,-35695.070,-24320.010,-31336.870,-23872.720,0.000
-22815.850,-22581.490,-104108.300,-107287.000,-35661.690,-24277.750,-31295.370,-23837.660,0.000
-22775.140,-22541.450,-103933.400,-107136.900,-35628.200,-24236.460,-31252.690,-23803.600,0.000
-22734.750,-22501.500,-103758.200,-106986.100,-35595.550,-24196.030,-31209.720,-23770.100,0.000
-22692.640,-22459.750,-103582.400,-106834.500,-35561.780,-24153.740,-31164.640,-23735.040,0.000
