EEG 1, EEG 2, EEG 3, EEG 4, EEG 5, EEG 6, EEG 7, EEG 8, TRIG
750000.100,750000.100,146764.800,714160.600,750000.100,750000.100,750000.100,750000.100,0.000
750000.100,750000.100,196770.600,607122.400,750000.100,688519.400,750000.100,750000.100,0.000
590619.400,750000.100,368634.100,653503.700,750000.100,315834.500,750000.100,750000.100,0.000
508285.700,750000.100,644791.800,744064.600,750000.100,219803.100,750000.100,741010.800,0.000
519579.100,750000.100,564873.100,750000.100,750000.100,328456.800,750000.100,730224.400,0.000
461980.400,488336.700,624052.900,750000.100,750000.100,439884.800,750000.100,750000.100,0.000
431186.900,217787.900,702906.300,750000.100,750000.100,535146.300,750000.100,750000.100,0.000
750000.100,582259.300,750000.100,750000.100,750000.100,494978.300,750000.100,750000.100,0.000
750000.100,750000.100,750000.100,750000.100,750000.100,750000.100,750000.100,750000.100,0.000
750000.100,750000.100,750000.100,750000.100,750000.100,750000.100,750000.100,750000.100,0.000
750000.100,750000.100,750000.100,750000.100,750000.100,750000.100,750000.100,750000.100,0.000
750000.100,750000.100,750000.100,750000.100,643800.900,750000.100,634427.400,750000.100,0.000
750000.100,750000.100,750000.100,750000.100,521392.200,750000.100,516295.200,750000.100,0.000
750000.100,750000.100,750000.100,750000.100,436193.900,750000.100,434449.600,733608.400,0.000
750000.100,750000.100,750000.100,750000.100,372185.800,750000.100,372883.000,625265.600,0.000
663224.100,653590.400,750000.100,750000.100,321686.800,650801.800,324110.900,539999.100,0.000
573603.600,565587.600,750000.100,750000.100,280479.600,565248.600,284168.800,470225.400,0.000
498980.200,492224.800,750000.100,750000.100,245793.000,493530.000,250475.500,411517.200,0.000
436171.600,430390.600,750000.100,750000.100,216740.900,432903.300,221914.700,361818.000,0.000
383152.600,378189.200,750000.100,750000.100,192024.200,381487.800,197238.600,319413.500,0.000
340545.200,336293.700,750000.100,750000.100,171851.300,340083.900,177090.000,285126.100,0.000
318824.800,314938.000,750000.100,750000.100,162001.300,319207.300,167534.100,268097.800,0.000
309579.400,305941.100,750000.100,750000.100,158337.300,310739.800,164302.000,261320.600,0.000
301628.000,298208.100,750000.100,750000.100,155276.800,303488.300,161664.300,255526.300,0.000
294244.600,290988.300,750000.100,750000.100,152298.600,296646.600,159053.400,250041.000,0.000
287448.700,284318.200,750000.100,750000.100,149541.900,290279.300,156615.100,244957.300,0.000
281173.900,278170.900,750000.100,750000.100,147094.700,284407.400,154471.100,240289.900,0.000
275332.500,272464.800,750000.100,750000.100,144854.300,278954.200,152523.700,235927.000,0.000
269886.900,267166.500,750000.100,750000.100,142818.400,273895.900,150778.900,231848.000,0.000
264777.800,262144.400,750000.100,750000.100,140786.100,269062.500,149009.600,227938.500,0.000
260033.500,257466.700,750000.100,750000.100,138893.800,264529.600,147357.100,224297.400,0.000
255617.800,253128.400,750000.100,750000.100,137234.600,260321.900,145928.200,220942.700,0.000
251461.200,249062.200,750000.100,750000.100,135712.100,256385.000,144630.300,217784.900,0.000
247560.900,245270.700,750000.100,750000.100,134331.600,252721.000,143485.400,214814.900,0.000
243880.200,241654.200,750000.100,750000.100,132921.700,249187.900,142295.100,211946.800,0.000
240442.400,238254.400,750000.100,750000.100,131592.100,245843.400,141165.300,209253.700,0.000
237227.700,235089.900,750000.100,750000.100,130458.200,242743.200,140219.300,206772.900,0.000
234184.800,232110.200,750000.100,750000.100,129417.900,239824.100,139364.800,204427.100,0.000
231300.300,229303.500,750000.100,750000.100,128471.800,237090.200,138616.700,202204.500,0.000
228555.000,226599.000,750000.100,750000.100,127469.000,234427.200,137794.300,200021.200,0.000
225985.500,224051.800,750000.100,750000.100,126527.100,231900.600,137018.800,197971.700,0.000
223576.200,221674.900,750000.100,750000.100,125742.200,229554.300,136396.100,196093.700,0.000
221297.100,219441.000,750000.100,750000.100,125040.600,227347.100,135856.600,194317.400,0.000
219134.800,217337.800,750000.100,750000.100,124415.900,225281.100,135403.100,192630.000,0.000
217044.300,215270.300,750000.100,750000.100,123708.000,223237.900,134852.800,190949.100,0.000
215086.100,213322.300,750000.100,750000.100,123045.900,221295.000,134339.100,189375.000,0.000
213254.500,211515.700,750000.100,750000.100,122520.600,219496.000,133959.500,187938.700,0.000
211500.900,209799.100,750000.100,750000.100,122053.300,217798.500,133638.300,186570.800,0.000
209829.600,208177.200,750000.100,750000.100,121642.000,216208.000,133386.500,185268.100,0.000
208215.000,206579.600,750000.100,750000.100,121143.600,214617.000,133035.900,183952.900,0.000
206705.700,205070.500,750000.100,750000.100,120682.300,213100.100,132705.700,182720.500,0.000
205289.900,203672.100,750000.100,750000.100,120337.200,211697.200,132483.500,181596.500,0.000
203929.200,202341.500,750000.100,750000.100,120037.200,210371.900,132313.000,180527.800,0.000
202629.700,201084.700,750000.100,750000.100,119792.400,209140.800,132213.900,179516.800,0.000
201369.600,199832.600,750000.100,750000.100,119458.900,207890.800,132016.200,178482.900,0.000
200186.200,198642.600,750000.100,750000.100,119140.900,206689.900,131824.500,177510.800,0.000
199072.500,197537.600,750000.100,750000.100,118926.800,205582.800,131732.500,176630.300,0.000
198006.900,196495.800,750000.100,750000.100,118758.900,204544.500,131694.300,175798.200,0.000
196984.300,195516.600,750000.100,750000.100,118633.300,203580.900,131711.700,175005.200,0.000
195986.400,194528.000,750000.100,750000.100,118417.800,202591.100,131624.700,174182.900,0.000
195058.200,193596.100,750000.100,750000.100,118225.600,201645.600,131550.400,173420.900,0.000
194176.200,192724.400,750000.100,750000.100,118120.700,200767.200,131564.500,172732.700,0.000
193333.400,191903.400,750000.100,750000.100,118053.700,199946.100,131618.200,172075.000,0.000
192526.800,191133.400,750000.100,750000.100,118026.300,199191.400,131723.300,171453.800,0.000
191729.600,190342.500,750000.100,750000.100,117902.100,198397.200,131722.800,170794.000,0.000
190985.500,189591.600,750000.100,750000.100,117785.500,197628.000,131715.500,170173.100,0.000
190297.200,188910.300,750000.100,750000.100,117771.800,196940.600,131807.500,169632.600,0.000
189632.800,188262.600,750000.100,750000.100,117792.200,196298.400,131937.300,169119.500,0.000
188988.100,187650.700,750000.100,750000.100,117834.200,195702.300,132103.100,168619.300,0.000
188350.900,187017.200,750000.100,750000.100,117784.500,195065.300,132170.000,168084.400,0.000
187766.100,186425.700,750000.100,750000.100,117750.100,194460.400,132242.700,167596.700,0.000
187214.500,185876.500,750000.100,750000.100,117795.400,193911.100,132393.600,167168.200,0.000
186685.600,185364.200,750000.100,750000.100,117869.200,193398.600,132578.000,166761.300,0.000
186170.800,184876.200,750000.100,750000.100,117966.200,192924.900,132795.100,166368.400,0.000
185653.800,184358.400,750000.100,750000.100,117972.700,192408.700,132910.500,165933.600,0.000
185180.700,183875.200,750000.100,750000.100,117991.900,191916.400,133028.800,165540.900,0.000
184742.600,183436.800,750000.100,750000.100,118084.600,191471.800,133223.500,165205.300,0.000
184323.900,183032.100,750000.100,750000.100,118214.800,191068.000,133458.500,164888.700,0.000
183913.400,182647.500,750000.100,750000.100,118363.800,190701.800,133728.000,164579.800,0.000
183498.500,182228.600,750000.100,750000.100,118415.700,190281.700,133887.500,164226.200,0.000
183125.100,181837.400,749722.100,750000.100,118472.300,189875.900,134039.200,163902.300,0.000
182778.800,181489.900,748226.800,748672.000,118613.900,189522.800,134273.700,163635.600,0.000
182436.600,181162.300,746793.600,747238.800,118779.900,189199.800,134539.200,163380.900,0.000
182102.200,180858.300,745420.700,745864.700,118965.900,188912.300,134840.200,163141.500,0.000
181761.600,180516.100,744102.400,744545.400,119052.600,188570.400,135027.900,162849.600,0.000
181449.600,180189.600,742839.700,743281.900,119137.900,188230.800,135204.600,162578.700,0.000
181167.700,179908.500,741633.900,742075.100,119306.700,187947.200,135464.300,162367.900,0.000
180894.500,179652.100,740476.900,740917.400,119499.900,187692.100,135751.500,162169.400,0.000
180621.100,179406.600,739365.100,739805.500,119708.600,187459.300,136068.800,161973.500,0.000
180347.400,179127.300,738299.900,738739.700,119821.700,187179.500,136280.400,161729.500,0.000
180105.700,178871.900,737279.800,737719.100,119940.400,186911.100,136485.500,161516.200,0.000
179890.700,178658.000,736302.800,736741.300,120144.800,186691.300,136778.600,161364.900,0.000
179668.100,178451.100,735366.500,735804.300,120362.700,186488.700,137090.300,161214.200,0.000
179446.300,178256.200,734467.800,734905.200,120599.200,186313.900,137433.400,161067.000,0.000
179220.500,178028.400,733605.100,734042.100,120741.000,186083.100,137668.800,160864.800,0.000
179025.400,177823.000,732775.900,733212.700,120882.600,185860.200,137891.300,160686.300,0.000
178850.400,177648.700,731984.000,732420.500,121103.000,185683.200,138193.200,160563.000,0.000
178675.300,177486.500,731224.200,731660.200,121342.900,185523.300,138522.500,160446.900,0.000
178494.600,177330.800,730491.500,730926.900,121593.300,185384.100,138874.300,160326.200,0.000
178308.200,177135.400,729791.000,730225.800,121752.700,185195.200,139127.000,160160.800,0.000
178146.500,176957.800,729118.300,729553.200,121912.700,185011.800,139374.800,160018.100,0.000
178002.400,176816.100,728472.900,728907.100,122145.800,184868.700,139690.800,159921.600,0.000
177859.000,176683.600,727852.600,728286.400,122399.100,184742.700,140026.500,159829.500,0.000
177721.800,176568.200,727258.400,727692.300,122672.900,184644.400,140395.800,159743.100,0.000
177564.600,176406.000,726686.400,727120.100,122843.900,184482.200,140655.200,159598.400,0.000
177433.900,176268.200,726137.700,726571.100,123021.000,184329.100,140913.800,159482.300,0.000
177319.900,176153.900,725612.600,726045.300,123267.900,184214.700,141240.400,159412.400,0.000
177195.300,176040.200,725106.600,725538.900,123525.200,184110.600,141579.800,159338.200,0.000
177074.400,175942.000,724618.800,725051.100,123802.000,184033.900,141954.000,159269.000,0.000
176942.900,175803.800,724152.400,724584.100,123985.500,183900.200,142221.600,159150.200,0.000
176839.100,175681.400,723702.900,724134.100,124165.800,183766.300,142478.300,159050.700,0.000
176753.600,175593.600,723274.600,723705.200,124423.600,183675.500,142810.600,158999.400,0.000
176661.000,175510.700,722860.000,723290.900,124700.600,183597.600,143162.900,158948.000,0.000
176565.700,175439.200,722461.700,722892.600,124995.300,183545.700,143546.500,158899.800,0.000
176456.700,175323.300,722078.100,722508.800,125187.900,183428.800,143817.900,158793.300,0.000
176368.500,175213.000,721710.900,722141.300,125377.500,183312.200,144078.800,158703.900,0.000
176298.000,175139.700,721356.900,721787.200,125641.800,183235.000,144411.600,158665.100,0.000
176227.700,175082.500,721019.600,721449.700,125927.900,183181.100,144769.700,158635.000,0.000
176147.100,175028.800,720694.900,721125.300,126225.400,183142.800,145150.800,158595.100,0.000
176049.100,174926.400,720378.500,720808.400,126420.900,183040.600,145423.000,158499.400,0.000
175982.200,174847.500,720076.400,720505.800,126625.000,182950.300,145696.000,158433.300,0.000
175923.100,174788.100,719786.600,720215.800,126896.000,182892.100,146032.500,158406.300,0.000
175857.400,174731.400,719506.200,719935.300,127174.200,182841.900,146379.500,158377.900,0.000
175790.100,174687.800,719234.800,719663.900,127471.900,182817.500,146755.400,158351.100,0.000
175709.700,174602.400,718973.300,719402.200,127675.200,182734.400,147029.000,158275.800,0.000
175649.500,174528.200,718724.500,719153.300,127878.800,182655.000,147293.400,158221.000,0.000
175605.100,174485.100,718488.200,718917.000,128153.800,182614.700,147630.000,158212.000,0.000
175553.600,174448.000,718258.400,718686.900,128441.500,182585.100,147981.700,158199.600,0.000
175502.000,174421.900,718032.800,718461.400,128743.300,182575.000,148360.400,158184.700,0.000
175439.800,174352.300,717817.200,718245.700,128950.400,182507.300,148638.800,158120.200,0.000
175395.000,174292.000,717611.200,718039.600,129158.000,182440.100,148906.700,158074.200,0.000
175354.100,174249.200,717412.200,717840.400,129426.400,182402.800,149232.700,158062.400,0.000
175313.100,174218.900,717220.200,717648.500,129711.900,182380.900,149577.000,158051.900,0.000
175270.700,174206.200,717036.800,717465.000,130021.700,182386.100,149960.300,158047.700,0.000
175211.800,174142.900,716857.600,717285.100,130231.600,182325.500,150234.300,157987.000,0.000
175168.600,174085.000,716684.800,717112.500,130440.500,182262.500,150496.100,157941.300,0.000
175145.300,174062.000,716522.100,716949.900,130722.700,182240.200,150830.300,157943.000,0.000
175114.100,174042.400,716363.700,716791.700,131013.500,182226.500,151176.800,157940.200,0.000
175082.400,174033.200,716212.800,716640.300,131324.400,182237.700,151556.700,157942.300,0.000
175028.300,173968.600,716063.500,716490.600,131528.400,182175.800,151820.800,157881.000,0.000
174985.900,173911.000,715919.100,716346.000,131729.900,182114.400,152074.800,157836.000,0.000
174966.800,173888.600,715783.700,716210.600,132009.900,182097.300,152408.700,157842.400,0.000
174945.700,173877.000,715650.900,716078.500,132303.900,182091.100,152759.300,157849.100,0.000
174915.400,173868.100,715522.200,715949.600,132607.800,182100.100,153132.800,157849.500,0.000
174867.900,173815.700,715397.600,715825.100,132818.400,182050.600,153402.400,157794.200,0.000
174837.200,173767.000,715277.700,715704.900,133022.800,181996.000,153656.500,157755.400,0.000
174828.100,173753.600,715162.300,715589.600,133299.400,181980.400,153984.200,157763.600,0.000
174805.900,173741.200,715051.600,715478.800,133588.400,181974.800,154329.800,157768.800,0.000
174782.500,173742.000,714942.800,715369.300,133892.100,181988.500,154701.300,157770.300,0.000
174744.300,173697.000,714838.500,715265.100,134097.400,181939.900,154964.100,157716.700,0.000
174722.000,173660.000,714738.800,715165.200,134307.100,181893.900,155222.000,157685.000,0.000
174714.500,173646.900,714643.300,715069.300,134583.500,181881.300,155547.700,157695.700,0.000
174702.000,173646.100,714550.300,714976.400,134877.900,181880.900,155894.800,157710.100,0.000
174672.900,173641.700,714457.200,714883.200,135175.700,181891.200,156258.300,157710.600,0.000
174630.900,173593.000,714366.900,714793.300,135377.100,181840.100,156513.900,157658.800,0.000
174611.600,173561.200,714283.000,714709.100,135587.800,181796.000,156769.700,157633.500,0.000
174602.700,173547.300,714200.400,714626.000,135860.900,181785.000,157086.800,157642.300,0.000
174587.200,173537.600,714120.600,714546.800,136146.300,181781.800,157418.600,157645.700,0.000
174563.800,173536.400,714042.900,714469.700,136450.200,181800.400,157779.500,157649.400,0.000
174530.500,173493.600,713967.500,714393.500,136657.500,181759.700,158032.500,157603.600,0.000
174524.000,173470.000,713898.500,714324.100,136869.300,181725.800,158286.700,157583.700,0.000
174525.800,173470.600,713830.600,714256.900,137146.300,181718.700,158608.200,157597.800,0.000
174509.400,173465.000,713761.100,714187.100,137429.500,181716.900,158938.200,157601.500,0.000
174487.500,173468.100,713696.000,714121.600,137732.200,181740.100,159300.100,157612.500,0.000
174451.300,173424.200,713630.800,714056.400,137933.200,181696.300,159551.900,157568.100,0.000
174439.500,173392.900,713568.500,713994.100,138136.900,181654.300,159794.800,157541.400,0.000
174445.900,173391.800,713510.400,713936.100,138415.200,181650.900,160110.800,157560.000,0.000
174440.300,173389.500,713450.800,713877.300,138699.600,181654.300,160437.900,157572.900,0.000
174428.000,173395.500,713392.300,713818.200,138995.800,181676.800,160790.900,157583.900,0.000
174393.100,173351.100,713334.600,713760.400,139186.000,181625.900,161024.300,157529.800,0.000
174387.600,173330.500,713284.600,713710.000,139395.300,181589.900,161267.500,157507.400,0.000
174393.300,173331.900,713234.900,713660.300,139670.100,181590.700,161578.600,157526.100,0.000
174391.300,173336.500,713184.800,713610.600,139955.800,181599.700,161905.600,157544.300,0.000
174381.900,173350.800,713135.500,713561.500,140257.900,181629.800,162260.100,157560.200,0.000
174349.700,173312.700,713087.300,713512.900,140457.000,181590.600,162500.700,157516.700,0.000
174330.000,173276.700,713041.100,713466.000,140650.300,181545.600,162727.500,157487.200,0.000
174331.800,173280.600,712997.800,713423.000,140918.900,181544.100,163032.600,157505.200,0.000
174332.800,173293.000,712955.300,713380.900,141203.900,181558.500,163355.600,157526.700,0.000
174331.300,173309.200,712915.200,713340.500,141503.900,181591.900,163706.500,157548.900,0.000
174299.500,173268.100,712875.500,713300.400,141698.800,181554.600,163944.000,157505.000,0.000
174288.700,173242.300,712834.100,713259.500,141895.400,181519.500,164176.200,157480.400,0.000
174303.000,173253.200,712798.800,713224.400,142172.500,181524.900,164486.900,157510.300,0.000
174299.500,173252.900,712762.800,713188.300,142452.400,181530.500,164801.500,157524.700,0.000
174285.000,173258.900,712723.500,713149.000,142741.600,181553.600,165133.700,157531.200,0.000
174258.600,173226.200,712685.300,713110.600,142938.300,181518.200,165367.200,157489.200,0.000
174252.800,173204.900,712651.200,713076.500,143136.900,181486.200,165596.800,157468.700,0.000
174264.800,173213.200,712620.900,713045.900,143409.400,181491.100,165897.000,157492.900,0.000
174262.000,173220.800,712586.900,713011.800,143689.200,181502.500,166207.800,157508.400,0.000
174246.300,173228.600,712554.100,712979.400,143981.300,181531.800,166543.100,157518.200,0.000
174221.400,173196.300,712523.900,712948.600,144178.200,181501.000,166776.100,157478.100,0.000
174218.500,173172.700,712492.900,712917.600,144377.400,181466.500,167001.000,157454.700,0.000
174227.600,173176.200,712464.800,712890.300,144647.400,181467.700,167295.800,157474.700,0.000
174229.600,173183.500,712438.400,712863.300,144927.400,181478.700,167607.200,157493.700,0.000
174220.800,173196.200,712410.300,712834.600,145216.000,181505.100,167941.300,157508.100,0.000
174193.200,173162.900,712382.300,712806.900,145405.200,181471.200,168164.900,157466.500,0.000
174190.000,173143.300,712355.900,712780.600,145600.000,181441.500,168384.500,157449.100,0.000
174200.700,173152.800,712329.500,712754.500,145862.300,181445.000,168672.800,157476.000,0.000
174198.500,173163.100,712303.800,712728.700,146139.100,181458.000,168974.500,157492.300,0.000
174187.700,173176.300,712278.400,712703.100,146432.500,181487.900,169305.400,157507.000,0.000
174163.500,173144.300,712253.600,712678.100,146625.300,181455.500,169527.100,157466.500,0.000
174165.200,173129.100,712233.400,712658.300,146826.100,181429.200,169748.600,157454.200,0.000
174170.400,173129.800,712209.900,712634.200,147083.100,181422.000,170024.600,157468.900,0.000
174172.200,173141.400,712188.500,712613.200,147356.600,181433.200,170319.900,157486.200,0.000
174168.500,173159.100,712167.600,712592.400,147646.200,181470.100,170649.000,157505.200,0.000
174141.400,173121.800,712143.900,712569.200,147829.300,181435.000,170862.500,157461.700,0.000
174139.600,173107.900,712124.000,712549.100,148021.200,181403.700,171076.300,157445.100,0.000
174148.600,173115.000,712103.100,712527.900,148282.000,181407.100,171355.500,157463.900,0.000
174151.800,173124.800,712083.700,712508.200,148554.300,181421.900,171650.800,157483.200,0.000
174148.600,173141.900,712064.800,712489.500,148840.000,181457.100,171973.000,157501.200,0.000
174125.200,173110.400,712043.300,712467.600,149023.600,181427.500,172182.700,157460.700,0.000
174118.100,173085.000,712023.600,712447.800,149207.600,181394.300,172386.800,157437.100,0.000
174125.400,173090.200,712008.000,712432.500,149466.900,181400.600,172663.300,157459.400,0.000
174128.200,173104.400,711991.800,712416.100,149743.300,181418.100,172959.600,157484.500,0.000
174125.500,173125.000,711972.800,712397.300,150027.700,181451.100,173276.300,157501.200,0.000
174104.900,173098.100,711953.400,712377.700,150213.000,181421.500,173484.800,157457.700,0.000
174106.200,173083.500,711937.300,712361.600,150406.100,181400.200,173695.700,157445.600,0.000
174114.100,173088.700,711923.100,712347.400,150664.700,181408.600,173970.000,157471.000,0.000
174115.700,173097.600,711909.300,712333.500,150930.700,181420.800,174252.500,157489.100,0.000
174110.200,173112.300,711892.400,712316.700,151211.100,181452.500,174563.800,157503.600,0.000
174090.100,173084.300,711876.200,712300.900,151391.600,181422.800,174768.700,157464.100,0.000
174088.900,173066.100,711862.900,712287.200,151577.000,181392.100,174968.900,157447.100,0.000
174101.200,173077.600,711850.500,712274.400,151833.700,181398.000,175238.200,157473.600,0.000
174108.100,173093.300,711836.100,712260.400,152102.900,181415.700,175527.500,157499.800,0.000
174106.500,173114.500,711821.600,712246.700,152385.700,181452.200,175841.900,157519.400,0.000
174084.700,173081.500,711805.400,712230.500,152565.100,181422.300,176044.100,157476.300,0.000
174085.500,173063.700,711792.600,712217.300,152753.500,181398.400,176249.200,157464.100,0.000
174093.200,173069.300,711778.400,712203.300,153003.300,181402.800,176515.700,157485.000,0.000
174097.400,173082.400,711766.700,712191.500,153267.300,181419.200,176800.600,157505.500,0.000
174091.600,173102.900,711754.500,712179.300,153545.700,181454.900,177110.900,157524.700,0.000
174064.200,173065.300,711738.900,712163.600,153715.100,181415.600,177301.100,157482.300,0.000
174066.400,173053.400,711728.500,712153.100,153897.700,181388.900,177499.100,157471.300,0.000
174087.100,173073.600,711719.800,712143.900,154162.600,181406.900,177775.100,157504.200,0.000
174087.600,173083.100,711706.700,712131.000,154425.400,181419.000,178050.700,157520.400,0.000
174083.700,173102.100,711696.100,712120.400,154704.300,181453.600,178356.100,157539.000,0.000
174058.400,173067.100,711683.300,712107.100,154880.700,181422.800,178551.700,157497.300,0.000
174054.700,173044.800,711671.800,712095.800,155063.400,181396.000,178747.200,157481.300,0.000
174073.500,173058.500,711663.300,712087.200,155317.800,181405.600,179010.500,157509.300,0.000
174075.600,173070.300,711650.200,712074.400,155577.700,181419.400,179280.300,157526.200,0.000
174071.200,173090.800,711639.400,712063.700,155854.200,181453.600,179581.400,157539.600,0.000
174050.000,173060.100,711628.000,712052.300,156029.100,181422.100,179772.500,157500.000,0.000
174053.800,173045.900,711617.400,712041.500,156207.300,181393.500,179960.000,157484.200,0.000
174069.700,173058.300,711608.800,712032.600,156455.600,181399.800,180215.100,157506.800,0.000
174073.900,173068.200,711599.800,712023.900,156714.800,181415.300,180482.900,157524.300,0.000
174069.400,173083.900,711589.400,712013.300,156984.700,181446.200,180775.300,157539.400,0.000
174048.100,173055.500,711577.300,712001.300,157156.800,181416.500,180959.700,157502.700,0.000
174041.800,173033.900,711567.900,711991.400,157334.000,181389.900,181145.800,157485.100,0.000
174049.800,173038.800,711558.300,711982.300,157580.400,181394.600,181398.700,157507.000,0.000
174052.700,173048.600,711549.600,711973.400,157840.300,181409.700,181668.700,157530.700,0.000
174046.200,173065.200,711540.900,711965.100,158111.100,181443.100,181960.100,157549.200,0.000
174030.700,173041.800,711532.800,711957.100,158285.900,181417.800,182147.600,157513.800,0.000
174026.000,173021.400,711522.500,711946.800,158458.800,181389.000,182324.100,157493.700,0.000
174040.200,173034.200,711517.400,711941.800,158706.600,181399.900,182576.800,157523.300,0.000
174045.300,173047.000,711509.600,711934.200,158962.400,181416.800,182840.200,157543.400,0.000
174048.400,173071.100,711500.100,711924.900,159233.000,181451.400,183130.400,157559.100,0.000
174027.400,173038.000,711488.300,711913.400,159398.900,181415.500,183306.200,157515.900,0.000
174025.000,173019.000,711480.800,711905.100,159570.800,181388.800,183481.500,157497.900,0.000
174041.700,173035.000,711476.600,711900.900,159820.400,181401.900,183732.700,157527.900,0.000
174043.400,173046.700,711467.800,711891.800,160077.000,181416.600,183995.400,157545.900,0.000
174040.000,173065.700,711460.400,711884.300,160346.600,181452.100,184284.200,157564.300,0.000
174018.600,173036.300,711449.600,711873.900,160510.400,181418.200,184456.600,157523.400,0.000
174015.500,173016.300,711440.900,711865.100,160677.800,181389.400,184627.100,157502.700,0.000
174026.400,173021.300,711433.600,711857.600,160914.600,181392.800,184863.700,157522.700,0.000
174031.400,173035.700,711426.600,711850.700,161170.000,181406.900,185123.700,157546.000,0.000
174025.500,173057.400,711420.800,711844.800,161438.300,181441.100,185412.700,157566.300,0.000
174000.800,173021.600,711412.900,711836.800,161599.900,181406.000,185585.200,157524.300,0.000
174005.500,173008.200,711406.500,711830.800,161773.800,181380.200,185755.900,157506.600,0.000
174025.100,173022.900,711400.300,711824.300,162017.900,181390.500,185995.700,157532.700,0.000
174030.000,173037.200,711394.900,711818.600,162267.100,181403.000,186247.500,157551.700,0.000
174017.700,173046.700,711387.600,711811.600,162523.200,181428.800,186523.600,157561.400,0.000
173998.100,173016.200,711379.000,711803.300,162684.700,181396.400,186694.300,157522.300,0.000
174013.800,173016.000,711375.100,711798.800,162867.900,181383.400,186875.600,157515.800,0.000
174028.000,173027.100,711369.400,711793.400,163106.500,181389.800,187112.100,157538.600,0.000
174033.700,173043.500,711364.100,711788.200,163359.300,181407.900,187364.900,157563.400,0.000
174027.500,173057.900,711357.800,711782.100,163619.000,181438.400,187639.200,157576.800,0.000
174010.300,173030.800,711349.200,711773.600,163778.300,181408.000,187804.800,157538.100,0.000
174017.900,173018.300,711344.600,711768.900,163950.200,181385.200,187975.400,157527.000,0.000
174032.300,173027.900,711341.000,711765.300,164188.600,181392.400,188213.100,157551.500,0.000
174032.800,173041.200,711336.300,711760.400,164437.700,181410.000,188465.500,157571.600,0.000
174024.300,173057.300,711329.800,711753.600,164697.500,181446.000,188742.300,157587.000,0.000
174000.900,173023.500,711322.100,711746.000,164852.900,181408.800,188902.200,157541.500,0.000
174006.500,173009.600,711316.400,711740.800,165021.000,181386.700,189064.000,157525.800,0.000
174022.400,173019.600,711311.100,711735.300,165249.900,181393.700,189284.500,157548.400,0.000
174024.700,173036.000,711307.000,711731.100,165495.500,181412.400,189528.300,157569.300,0.000
174022.000,173056.400,711302.600,711726.300,165755.500,181450.900,189798.600,157588.700,0.000
174004.500,173028.900,711296.800,711721.100,165917.700,181420.500,189959.400,157551.800,0.000
174008.900,173015.100,711292.100,711716.600,166086.700,181396.900,190122.300,157535.900,0.000
174020.800,173022.300,711286.600,711710.900,166317.800,181401.000,190349.100,157555.300,0.000
174021.700,173035.000,711281.400,711705.700,166559.000,181413.700,190593.300,157574.100,0.000
174011.600,173050.400,711275.600,711700.100,166813.000,181445.400,190860.800,157593.600,0.000
173994.300,173024.700,711271.400,711696.000,166974.100,181420.000,191021.300,157563.000,0.000
173995.600,173008.000,711268.100,711692.900,167137.800,181395.400,191180.100,157550.500,0.000
174005.300,173017.200,711261.900,711686.800,167369.100,181402.400,191406.200,157574.400,0.000
174002.900,173024.800,711254.600,711678.900,167608.800,181417.600,191643.700,157590.600,0.000
173999.500,173044.100,711252.900,711677.200,167861.500,181453.300,191909.000,157609.000,0.000
173983.500,173019.700,711248.800,711672.900,168015.900,181422.800,192070.000,157573.200,0.000
173982.200,173002.200,711242.300,711666.200,168172.800,181390.500,192220.300,157549.900,0.000
174000.400,173013.600,711238.200,711662.100,168404.000,181399.000,192443.600,157576.100,0.000
174006.800,173029.600,711235.900,711659.900,168650.200,181420.300,192688.000,157603.700,0.000
174000.600,173043.700,711232.000,711656.400,168897.800,181450.000,192946.200,157617.500,0.000
173973.000,173006.400,711225.200,711649.300,169040.800,181410.900,193089.000,157566.200,0.000
173973.400,172991.300,711220.600,711644.700,169199.200,181383.600,193239.400,157546.700,0.000
173986.400,172999.400,711215.800,711639.900,169419.600,181385.500,193453.700,157569.000,0.000
173994.500,173018.400,711212.600,711636.500,169658.700,181405.300,193687.500,157590.200,0.000
174000.200,173043.900,711210.600,711634.700,169914.400,181449.100,193950.800,157614.500,0.000
173980.900,173013.500,711205.400,711629.300,170061.700,181417.900,194099.400,157576.900,0.000
173979.200,172995.800,711201.300,711625.100,170214.700,181388.800,194246.500,157559.300,0.000
173985.700,172998.400,711196.500,711620.200,170430.800,181391.400,194456.800,157578.900,0.000
173982.900,173005.500,711192.300,711616.400,170662.300,181405.600,194686.700,157597.500,0.000
173979.000,173026.300,711189.600,711613.900,170909.600,181439.500,194938.300,157613.000,0.000
173963.800,173006.600,711184.100,711608.300,171057.500,181413.600,195083.000,157575.200,0.000
173968.200,172992.300,711178.800,711602.700,171207.500,181386.200,195222.200,157559.100,0.000
173976.900,172998.400,711174.200,711597.900,171420.400,181384.600,195424.500,157572.900,0.000
173984.200,173013.600,711172.400,711596.400,171649.300,181400.900,195648.900,157592.000,0.000
173978.800,173031.800,711165.900,711589.900,171885.800,181430.500,195892.000,157604.400,0.000
173957.700,173000.100,711159.100,711583.300,172027.000,181398.900,196028.500,157565.100,0.000
173965.200,172988.700,711157.700,711581.500,172183.900,181378.400,196171.300,157552.500,0.000
173974.300,172993.400,711154.400,711578.600,172396.200,181381.200,196372.700,157570.300,0.000
173975.800,173005.300,711150.100,711574.900,172622.900,181393.600,196591.100,157588.900,0.000
173975.000,173026.300,711148.300,711572.600,172865.700,181429.200,196839.900,157611.400,0.000
173956.800,172997.900,711143.900,711568.000,173003.300,181400.600,196978.100,157570.600,0.000
173959.300,172985.400,711138.100,711562.400,173149.500,181373.300,197115.000,157552.000,0.000
173975.500,172998.500,711135.800,711559.700,173365.500,181378.000,197317.000,157572.900,0.000
173982.000,173011.300,711131.300,711555.400,173593.100,181396.000,197536.900,157590.900,0.000
173987.400,173033.900,711130.000,711554.500,173836.800,181437.700,197786.600,157612.500,0.000
173969.400,173003.200,711125.800,711550.000,173971.500,181406.400,197917.500,157574.300,0.000
173973.100,172985.900,711122.200,711546.600,174114.600,181376.600,198050.700,157558.000,0.000
173987.600,172994.300,711119.000,711543.300,174325.200,181381.500,198250.000,157581.200,0.000
173991.200,173008.000,711114.400,711538.700,174547.800,181398.400,198468.400,157603.500,0.000
173987.200,173024.800,711110.800,711535.000,174776.900,181428.900,198705.800,157617.600,0.000
173972.000,172999.200,711106.100,711530.600,174910.000,181397.900,198836.000,157578.300,0.000
173975.500,172986.800,711104.100,711528.400,175056.200,181369.000,198969.800,157562.600,0.000
173983.300,172989.500,711101.800,711525.600,175258.100,181365.900,199157.900,157578.300,0.000
173983.000,172996.200,711098.700,711522.100,175475.600,181380.000,199367.100,157592.000,0.000
173976.200,173013.100,711094.100,711517.800,175703.000,181409.600,199600.800,157602.700,0.000
173961.800,172991.200,711091.400,711515.000,175838.400,181380.200,199729.900,157568.600,0.000
173962.600,172976.300,711090.500,711514.000,175977.100,181352.300,199853.500,157553.800,0.000
173976.900,172988.900,711087.200,711510.900,176186.400,181358.600,200048.800,157581.100,0.000
173977.200,173001.500,711083.500,711507.100,176408.300,181376.300,200260.900,157601.300,0.000
173970.300,173015.800,711082.300,711505.900,176638.100,181410.700,200494.300,157615.500,0.000
173954.600,172991.900,711080.200,711504.200,176769.300,181384.100,200618.100,157577.600,0.000
173949.300,172971.600,711074.900,711498.900,176900.200,181349.500,200731.900,157555.500,0.000
173954.100,172972.200,711072.900,711497.000,177101.500,181352.100,200917.500,157577.200,0.000
173962.900,172991.200,711073.900,711497.600,177324.100,181377.200,201131.900,157606.600,0.000
173961.800,173013.100,711073.300,711496.800,177553.600,181412.400,201366.000,157625.800,0.000
173942.500,172984.000,711068.100,711491.100,177678.100,181378.100,201483.000,157583.900,0.000
173943.900,172969.300,711064.000,711487.400,177815.800,181351.400,201602.800,157562.200,0.000
173953.200,172974.600,711060.800,711484.700,178019.900,181357.400,201789.500,157581.600,0.000
173956.800,172990.100,711058.600,711482.400,178238.500,181374.500,201997.700,157604.500,0.000
173948.800,173005.300,711056.300,711480.200,178459.600,181407.300,202221.900,157617.300,0.000
173929.300,172975.600,711051.100,711475.100,178578.600,181372.300,202331.000,157573.500,0.000
173936.700,172965.800,711049.300,711472.900,178716.400,181350.500,202454.200,157562.300,0.000
173946.000,172969.600,711047.300,711471.100,178913.700,181354.900,202636.800,157582.000,0.000
173946.600,172978.900,711044.300,711468.100,179121.900,181370.500,202835.500,157598.900,0.000
173943.200,173000.500,711038.600,711462.500,179343.200,181403.900,203059.700,157616.500,0.000
173928.100,172977.000,711036.100,711460.000,179468.800,181375.800,203176.800,157579.900,0.000
173928.400,172959.600,711031.900,711455.700,179601.700,181347.400,203285.500,157559.900,0.000
173945.500,172971.300,711030.300,711454.000,179803.100,181357.400,203463.700,157581.600,0.000
173951.000,172987.600,711029.800,711453.600,180021.600,181380.500,203668.200,157609.000,0.000
173944.100,173002.800,711028.000,711452.100,180244.800,181411.000,203894.200,157623.900,0.000
173924.600,172974.600,711025.500,711449.300,180365.200,181377.100,204002.900,157579.000,0.000
173921.000,172954.600,711023.700,711447.000,180492.800,181346.400,204111.000,157560.000,0.000
173926.300,172961.700,711022.900,711446.500,180690.000,181350.300,204287.900,157581.900,0.000
173935.700,172982.500,711022.100,711445.700,180906.000,181374.300,204489.800,157609.400,0.000
173933.200,172999.900,711019.200,711443.000,181125.200,181408.200,204709.400,157629.500,0.000
173915.200,172971.600,711014.900,711438.300,181241.000,181373.500,204813.900,157588.700,0.000
173917.000,172954.700,711012.700,711435.900,181370.700,181345.600,204921.600,157571.600,0.000
173927.300,172957.100,711012.900,711436.800,181565.500,181351.700,205095.000,157596.200,0.000
173930.000,172968.300,711009.500,711433.100,181774.200,181372.600,205287.700,157621.300,0.000
173931.400,172992.100,711011.500,711434.900,182000.700,181416.100,205510.800,157646.100,0.000
173908.500,172958.300,711009.400,711433.200,182111.300,181381.200,205608.300,157606.800,0.000
173911.000,172947.500,711006.100,711429.900,182234.900,181356.100,205708.800,157593.900,0.000
173917.700,172957.700,711002.900,711426.800,182418.000,181362.000,205869.800,157614.100,0.000
173920.700,172975.800,710999.400,711423.900,182621.000,181386.600,206058.200,157636.000,0.000
173920.300,172996.900,710997.300,711422.200,182834.300,181425.100,206265.100,157652.100,0.000
173902.900,172970.400,710994.600,711418.600,182944.200,181393.900,206363.700,157616.500,0.000
173911.500,172962.700,710993.600,711417.500,183071.500,181376.600,206469.800,157607.000,0.000
173924.000,172974.600,710992.400,711415.900,183260.400,181384.200,206633.800,157629.300,0.000
173930.500,172988.300,710991.100,711414.300,183459.600,181405.300,206817.900,157650.100,0.000
173933.100,173008.200,710989.700,711413.700,183667.700,181445.400,207024.900,157670.600,0.000
173910.800,172976.200,710984.300,711407.900,183769.300,181411.800,207112.100,157628.400,0.000
173915.200,172967.300,710982.600,711405.900,183891.800,181390.500,207208.600,157608.800,0.000
173931.500,172984.200,710982.600,711405.800,184085.000,181405.600,207377.100,157633.500,0.000
173934.400,173001.300,710981.400,711404.900,184286.500,181431.400,207561.300,157654.900,0.000
173932.300,173020.200,710979.200,711402.900,184496.500,181469.900,207764.800,157672.800,0.000
173912.400,172988.200,710974.700,711398.500,184600.200,181435.600,207851.000,157632.500,0.000
173908.500,172967.500,710972.900,711396.900,184715.200,181404.600,207943.100,157612.100,0.000
173925.300,172982.800,710973.800,711397.400,184904.800,181412.800,208110.300,157636.700,0.000
173929.600,172996.100,710970.400,711394.000,185101.300,181427.600,208289.900,157657.400,0.000
173922.800,173008.400,710967.800,711391.300,185304.400,181459.000,208488.200,157665.000,0.000
173909.500,172983.900,710966.400,711390.200,185411.600,181431.300,208582.600,157624.600,0.000
173913.300,172970.600,710963.600,711387.100,185523.400,181403.000,208679.100,157608.600,0.000
173922.200,172976.000,710959.400,711383.100,185702.100,181405.600,208838.500,157631.200,0.000
173927.200,172991.300,710958.600,711382.700,185899.600,181425.200,209019.500,157656.800,0.000
173922.200,173005.600,710957.200,711381.100,186097.900,181455.100,209214.000,157671.300,0.000
173902.700,172976.500,710954.100,711377.500,186195.800,181417.900,209294.100,157624.400,0.000
173907.600,172967.700,710951.400,711374.600,186310.500,181391.000,209384.400,157605.800,0.000
173930.300,172983.200,710951.600,711374.900,186498.300,181400.500,209549.600,157631.500,0.000
173937.800,172997.300,710950.800,711374.700,186693.500,181420.000,209729.000,157650.500,0.000
173931.500,173009.600,710948.600,711372.300,186890.000,181446.900,209924.300,157661.300,0.000
173910.100,172978.000,710945.400,711368.800,186989.200,181410.000,210007.700,157621.500,0.000
173912.600,172967.100,710946.400,711370.300,187108.100,181384.100,210101.800,157608.700,0.000
173926.400,172980.100,710943.400,711367.100,187283.900,181387.400,210254.900,157627.200,0.000
173931.300,172994.500,710942.800,711366.300,187478.100,181408.600,210430.300,157648.900,0.000
173922.200,173004.800,710938.700,711362.400,187674.000,181437.100,210620.000,157659.800,0.000
173898.900,172973.800,710934.600,711358.300,187768.800,181399.500,210700.000,157618.300,0.000
173901.600,172961.800,710934.600,711358.300,187882.900,181373.800,210793.700,157607.200,0.000
173917.400,172973.500,710934.600,711358.300,188065.200,181381.800,210952.000,157632.800,0.000
173920.500,172984.100,710932.300,711355.800,188256.800,181397.100,211125.100,157650.100,0.000
173916.500,172998.100,710930.000,711353.100,188452.300,181425.300,211314.600,157660.800,0.000
173897.000,172967.300,710925.300,711348.300,188544.500,181388.000,211387.600,157613.700,0.000
173908.500,172963.400,710927.500,711350.600,188664.300,181370.800,211480.300,157604.300,0.000
173931.100,172982.500,710929.600,711352.800,188852.300,181383.600,211640.900,157631.600,0.000
173932.900,172997.000,710925.300,711348.400,189040.600,181399.400,211812.900,157650.300,0.000
173923.300,173008.600,710920.800,711344.100,189229.800,181424.500,211998.900,157663.800,0.000
173908.200,172979.100,710917.600,711341.200,189323.700,181390.900,212075.600,157625.100,0.000
173915.700,172966.600,710916.600,711340.200,189439.000,181367.600,212170.100,157617.800,0.000
173934.700,172982.300,710916.400,711339.600,189622.400,181379.800,212332.600,157649.200,0.000
173931.400,172992.000,710914.900,711338.500,189810.100,181395.000,212502.700,157662.100,0.000
173927.300,173010.300,710915.700,711339.400,190009.600,181429.900,212698.100,157674.400,0.000
173906.100,172976.600,710912.300,711335.800,190100.000,181393.400,212775.800,157629.800,0.000
173915.300,172968.800,710913.300,711336.500,190215.600,181374.800,212866.200,157619.600,0.000
173926.900,172975.200,710911.400,711334.600,190389.600,181376.700,213011.200,157636.900,0.000
173928.200,172989.200,710909.100,711332.300,190577.400,181391.900,213180.600,157657.200,0.000
173920.100,173002.200,710908.600,711332.100,190774.200,181425.100,213371.700,157675.600,0.000
173903.800,172969.300,710905.400,711329.000,190869.900,181393.900,213448.300,157635.300,0.000
173908.100,172958.500,710902.800,711326.600,190981.900,181372.300,213536.400,157618.300,0.000
173917.500,172963.000,710901.300,711325.300,191157.000,181376.400,213686.500,157633.700,0.000
173920.700,172975.100,710902.600,711325.800,191351.300,181396.000,213857.800,157655.600,0.000
173913.500,172987.800,710899.500,711322.600,191543.100,181426.100,214040.000,157666.400,0.000
173895.700,172962.700,710897.400,711320.900,191637.900,181387.800,214111.900,157619.400,0.000
173900.300,172956.000,710898.900,711322.700,191753.000,181365.700,214199.600,157608.100,0.000
173917.800,172971.100,710899.600,711322.900,191932.600,181375.800,214353.400,157636.800,0.000
173924.500,172990.600,710898.300,711321.900,192123.600,181393.700,214524.500,157659.700,0.000
173910.700,172997.000,710893.100,711316.500,192308.300,181414.000,214701.800,157663.200,0.000
173894.300,172968.600,710890.900,711313.800,192403.100,181382.900,214777.800,157621.600,0.000
173900.900,172959.100,710890.500,711313.800,192520.000,181362.800,214868.600,157609.400,0.000
173909.700,172964.400,710888.900,711312.000,192692.400,181365.900,215015.900,157630.200,0.000
173914.700,172978.500,710888.600,711311.800,192881.600,181382.900,215184.000,157650.600,0.000
173914.100,172994.900,710887.200,711310.400,193074.600,181415.000,215371.000,157666.400,0.000
173901.900,172971.500,710885.000,711308.400,193168.300,181386.000,215447.500,157630.200,0.000
173907.200,172962.200,710884.200,711307.300,193277.800,181363.000,215532.300,157620.600,0.000
173919.200,172971.900,710884.800,711307.800,193452.500,181368.500,215681.700,157644.500,0.000
173918.700,172979.400,710879.900,711303.100,193634.400,181380.200,215841.500,157654.700,0.000
173912.000,172990.000,710877.600,711300.800,193820.800,181405.000,216020.500,157661.400,0.000
173894.900,172963.000,710875.400,711298.900,193911.900,181370.800,216093.200,157623.300,0.000
173903.500,172953.700,710877.300,711300.600,194027.700,181353.400,216184.100,157620.800,0.000
173919.900,172963.100,710877.600,711301.000,194201.700,181362.500,216332.600,157650.300,0.000
173920.500,172973.700,710873.600,711297.300,194381.700,181377.500,216488.200,157660.500,0.000
173921.200,172997.200,710873.900,711297.600,194579.600,181412.400,216672.100,157676.700,0.000
173902.200,172971.100,710872.300,711296.000,194668.300,181380.800,216740.200,157636.200,0.000
173908.300,172964.200,710870.800,711294.300,194778.600,181365.200,216828.300,157631.200,0.000
173922.300,172973.300,710870.000,711293.600,194950.300,181373.100,216975.000,157654.900,0.000
173926.700,172988.100,710869.100,711292.800,195137.100,181395.400,217141.300,157678.100,0.000
173918.300,173001.500,710865.100,711288.700,195321.300,181425.000,217319.000,157687.400,0.000
173899.600,172972.500,710861.400,711284.900,195405.600,181391.800,217389.900,157648.100,0.000
173904.200,172966.200,710861.300,711285.300,195514.000,181369.200,217474.200,157638.700,0.000
173913.300,172970.600,710860.300,711284.100,195680.500,181369.100,217608.500,157655.400,0.000
173920.200,172986.800,710860.900,711284.700,195869.200,181390.800,217772.100,157676.300,0.000
173917.200,173004.400,710860.500,711283.900,196059.600,181423.400,217952.700,157689.500,0.000
173906.300,172984.300,710858.900,711282.300,196154.500,181396.600,218027.900,157655.300,0.000
173907.800,172973.200,710856.900,711280.400,196262.500,181374.900,218110.400,157638.000,0.000
173917.500,172979.900,710856.900,711280.900,196430.200,181379.800,218253.700,157658.300,0.000
173923.300,172994.700,710857.200,711281.400,196612.900,181403.400,218420.000,157682.400,0.000
173920.400,173013.600,710855.100,711278.900,196799.100,181435.300,218600.300,157698.200,0.000
173898.700,172980.600,710850.800,711274.200,196878.000,181393.600,218658.500,157648.500,0.000
173904.900,172969.800,710850.900,711274.000,196982.300,181369.000,218731.800,157631.100,0.000
173923.200,172984.500,710850.400,711273.900,197156.600,181379.600,218877.800,157658.900,0.000
173924.400,172997.600,710849.800,711273.400,197337.400,181398.400,219037.200,157681.100,0.000
173918.000,173012.700,710851.500,711274.800,197525.600,181432.800,219214.100,157695.700,0.000
173911.000,172994.600,710853.800,711277.300,197619.200,181408.500,219285.200,157663.400,0.000
173915.300,172985.000,710852.900,711276.600,197721.700,181385.500,219363.000,157649.200,0.000
173923.000,172984.100,710849.500,711273.500,197877.500,181384.200,219493.900,157662.400,0.000
173928.500,172996.600,710848.600,711272.400,198054.100,181403.700,219651.600,157680.500,0.000
173928.200,173016.000,710846.100,711269.800,198237.100,181437.200,219826.400,157694.100,0.000
173911.300,172984.900,710842.300,711265.600,198315.300,181401.100,219884.200,157652.300,0.000
173916.700,172972.200,710841.500,711264.800,198418.600,181380.000,219959.400,157640.500,0.000
173926.200,172978.900,710841.600,711265.400,198585.800,181385.300,220095.800,157660.100,0.000
173936.300,172999.200,710841.800,711265.700,198771.100,181409.100,220258.000,157686.100,0.000
173925.500,173011.000,710839.900,711263.600,198945.600,181434.300,220423.800,157690.800,0.000
173901.900,172980.400,710835.800,711259.600,199022.300,181397.600,220477.100,157643.600,0.000
173905.300,172966.700,710836.800,711260.300,199126.300,181375.900,220553.400,157637.400,0.000
173922.600,172979.900,710837.400,711260.600,199296.900,181386.200,220694.500,157666.800,0.000
173928.200,172998.000,710835.500,711258.900,199476.500,181406.200,220847.100,157685.300,0.000
173920.100,173010.700,710833.000,711256.300,199654.500,181433.900,221015.200,157695.000,0.000
173900.300,172977.900,710830.500,711253.800,199733.100,181398.200,221070.900,157647.200,0.000
173905.900,172968.500,710831.200,711254.800,199836.100,181376.800,221144.100,157635.200,0.000
173924.100,172984.200,710831.900,711255.400,200004.300,181388.000,221284.200,157663.500,0.000
173926.100,172996.100,710828.900,711252.300,200176.100,181401.300,221434.800,157680.800,0.000
173920.200,173010.300,710827.300,711250.500,200354.900,181429.100,221605.300,157693.100,0.000
173905.900,172980.300,710828.700,711252.100,200441.300,181398.600,221671.600,157661.000,0.000
173908.600,172967.700,710828.300,711251.900,200543.800,181375.300,221744.100,157651.600,0.000
173914.700,172973.400,710824.500,711248.300,200699.100,181375.800,221867.900,157667.700,0.000
173920.800,172995.100,710825.600,711249.200,200882.200,181402.500,222026.100,157690.500,0.000
173916.600,173013.000,710824.900,711248.100,201065.700,181438.900,222196.800,157702.400,0.000
173901.500,172981.900,710822.200,711245.600,201142.400,181405.500,222252.800,157663.200,0.000
173904.500,172967.100,710820.400,711243.800,201236.300,181374.900,222317.700,157647.100,0.000
173918.300,172976.800,710821.000,711244.200,201400.300,181378.900,222450.200,157668.100,0.000
173920.100,172991.200,710820.400,711244.100,201577.500,181396.800,222603.000,157685.000,0.000
173915.700,173007.500,710819.400,711242.900,201757.800,181424.600,222768.600,157697.400,0.000
173896.800,172978.000,710815.800,711239.300,201831.900,181384.700,222815.300,157655.100,0.000
173900.000,172961.200,710812.000,711235.600,201920.400,181355.500,222871.700,157638.900,0.000
173917.400,172973.700,710811.700,711234.900,202080.600,181366.000,223004.300,157664.100,0.000
173923.000,172991.600,710813.600,711236.800,202259.900,181389.000,223162.400,157686.000,0.000
173913.700,173004.200,710812.000,711235.300,202433.000,181416.100,223324.200,157692.400,0.000
173894.000,172975.700,710810.600,711234.000,202506.100,181381.500,223372.900,157648.100,0.000
173894.400,172960.500,710808.100,711231.500,202595.000,181356.800,223435.900,157632.100,0.000
173908.800,172975.200,710809.600,711233.200,202751.400,181365.400,223566.500,157659.300,0.000
173915.400,172993.700,710811.100,711234.600,202926.800,181388.100,223717.700,157682.700,0.000
173901.600,172997.000,710808.400,711231.600,203094.500,181412.100,223876.500,157686.000,0.000
173883.500,172965.500,710806.100,711229.300,203166.300,181379.400,223929.700,157641.500,0.000
173891.800,172958.900,710805.400,711228.600,203264.500,181360.900,223998.600,157630.700,0.000
173904.300,172966.600,710804.600,711227.900,203421.100,181366.200,224121.900,157650.800,0.000
173914.200,172985.600,710805.800,711228.900,203594.800,181390.900,224271.700,157677.100,0.000
173917.000,173009.000,710806.300,711229.500,203772.000,181423.800,224438.300,157696.600,0.000
173899.700,172977.400,710803.600,711226.800,203839.500,181387.200,224483.500,157655.700,0.000
173892.900,172954.200,710801.800,711225.100,203921.000,181358.500,224537.000,157632.000,0.000
173907.200,172966.500,710800.700,711223.800,204075.100,181368.400,224666.700,157655.500,0.000
173920.500,172991.300,710801.500,711224.800,204249.800,181398.100,224820.000,157685.200,0.000
173912.300,172999.100,710798.800,711222.500,204411.600,181421.200,224971.700,157691.200,0.000
173901.500,172978.300,710798.500,711222.200,204489.800,181394.600,225030.000,157656.300,0.000
173900.500,172960.900,710796.300,711220.300,204575.300,181355.000,225087.300,157635.500,0.000
173910.000,172963.000,710794.100,711217.700,204724.500,181311.000,225204.200,157655.900,0.000
173918.000,172980.100,710796.900,711220.100,204893.400,181320.800,225350.400,157679.000,0.000
173911.400,172994.100,710796.800,711220.200,205057.700,181360.800,225505.300,157685.000,0.000
173888.000,172962.300,710793.300,711216.400,205123.000,181329.300,225547.900,157638.700,0.000
173887.900,172949.000,710790.900,711214.500,205209.900,181307.400,225606.400,157625.100,0.000
173903.200,172961.200,710791.100,711214.500,205360.200,181316.700,225727.500,157650.800,0.000
173905.800,172974.000,710791.400,711214.700,205519.300,181337.000,225864.900,157672.400,0.000
173900.300,172988.000,710790.200,711213.100,205682.400,181369.100,226016.400,157681.400,0.000
173874.900,172953.200,710786.700,711209.600,205739.900,181330.600,226048.300,157631.100,0.000
173881.800,172942.000,710787.600,711211.300,205829.100,181313.300,226107.000,157623.000,0.000
173896.000,172950.000,710786.300,711210.000,205978.800,181322.800,226225.200,157647.200,0.000
173901.700,172968.800,710787.100,711210.300,206141.000,181343.800,226363.400,157666.800,0.000
173897.800,172983.400,710785.300,711208.100,206301.800,181372.300,226509.500,157674.500,0.000
173882.500,172954.800,710784.700,711207.900,206363.300,181338.500,226546.100,157630.700,0.000
173882.400,172938.900,710782.100,711205.400,206443.500,181314.200,226595.200,157613.600,0.000
173891.300,172946.500,710782.800,711206.400,206587.500,181318.300,226709.400,157633.100,0.000
173899.200,172963.400,710784.100,711207.500,206752.000,181342.700,226849.800,157656.300,0.000
173892.100,172970.200,710782.800,711205.900,206908.300,181369.000,226994.300,157663.500,0.000
173875.900,172943.800,710779.800,711203.100,206967.300,181332.000,227029.200,157617.900,0.000
173884.200,172940.900,710780.500,711203.800,207059.200,181316.000,227088.000,157610.300,0.000
173893.400,172946.000,710780.300,711203.800,207201.800,181321.300,227198.100,157630.000,0.000
173898.400,172963.100,710778.600,711201.900,207357.000,181342.900,227328.500,157646.700,0.000
173891.700,172979.000,710778.200,711201.500,207515.000,181375.900,227475.000,157656.100,0.000
173871.200,172943.100,710776.400,711199.400,207566.900,181336.000,227502.200,157608.700,0.000
173873.200,172929.500,710774.900,711198.100,207645.900,181311.200,227552.600,157593.000,0.000
173885.000,172935.500,710774.400,711197.100,207783.300,181316.100,227661.100,157609.200,0.000
173888.800,172949.700,710774.000,711197.100,207937.200,181335.800,227791.700,157629.500,0.000
173886.800,172967.200,710773.700,711196.400,208096.100,181367.800,227940.700,157644.900,0.000
173872.500,172938.000,710772.600,711195.300,208154.600,181332.400,227973.900,157605.500,0.000
173885.200,172931.800,710775.100,711198.400,208243.500,181319.500,228029.100,157604.100,0.000
173896.900,172942.700,710774.900,711198.500,208383.700,181327.400,228136.300,157630.000,0.000
173891.900,172955.900,710772.400,711195.600,208533.400,181344.000,228260.000,157642.900,0.000
173890.000,172972.400,710773.200,711196.600,208693.400,181377.200,228403.900,157654.400,0.000
173867.600,172936.800,710769.300,711192.400,208740.800,181337.100,228423.100,157603.900,0.000
173869.500,172926.700,710768.000,711191.300,208819.500,181314.600,228463.300,157582.800,0.000
173879.800,172937.300,710767.400,711190.900,208960.300,181317.500,228566.800,157599.800,0.000
173887.600,172957.200,710769.300,711192.600,209119.000,181340.000,228694.700,157626.800,0.000
173887.500,172973.900,710769.300,711192.700,209277.900,181370.200,228831.500,157642.200,0.000
173870.200,172942.300,710767.000,711190.000,209333.300,181333.100,228854.700,157596.300,0.000
173877.800,172932.100,710767.300,711190.200,209415.400,181315.500,228899.100,157585.300,0.000
173884.600,172936.700,710765.200,711188.400,209547.200,181315.500,228989.900,157599.100,0.000
173896.000,172958.700,710764.400,711187.900,209702.200,181340.500,229114.200,157625.500,0.000
173892.000,172975.200,710766.400,711189.600,209859.000,181370.300,229253.100,157642.700,0.000
173871.000,172940.600,710764.500,711187.500,209906.900,181331.900,229271.300,157596.600,0.000
173873.200,172929.100,710760.300,711183.600,209977.800,181306.300,229310.300,157583.700,0.000
173881.900,172936.200,710759.100,711182.300,210110.300,181306.800,229407.800,157602.400,0.000
173883.400,172947.300,710759.100,711182.000,210257.800,181327.100,229524.100,157618.500,0.000
173881.600,172966.700,710759.900,711182.600,210413.600,181360.800,229661.900,157638.100,0.000
173872.700,172947.600,710759.700,711182.800,210470.500,181329.600,229690.500,157602.900,0.000
173881.200,172940.900,710759.700,711182.900,210543.000,181308.200,229727.900,157591.700,0.000
173892.900,172948.500,710760.900,711183.600,210674.000,181310.400,229826.500,157613.600,0.000
173894.300,172959.900,710762.200,711184.700,210817.500,181323.300,229945.700,157634.300,0.000
173880.900,172967.500,710760.600,711182.600,210955.500,181341.300,230070.000,157637.700,0.000
173862.900,172937.300,710757.900,711180.100,210999.400,181307.600,230092.400,157590.200,0.000
173867.300,172923.300,710754.600,711177.000,211065.700,181284.500,230126.300,157572.000,0.000
173882.800,172931.100,710754.500,711177.400,211194.700,181293.300,230223.300,157593.600,0.000
173887.500,172947.600,710754.300,711177.800,211339.000,181316.300,230343.700,157614.900,0.000
173873.500,172953.300,710754.100,711177.200,211484.000,181342.800,230473.000,157620.700,0.000
173845.900,172913.200,710751.400,711174.400,211526.700,181295.800,230477.600,157567.200,0.000
173847.900,172900.200,710751.200,711174.500,211597.200,181270.200,230508.200,157555.600,0.000
173882.100,172932.200,710754.100,711177.400,211748.500,181297.200,230624.800,157600.700,0.000
173906.800,172965.200,710759.800,711182.800,211915.400,181340.000,230758.200,157637.700,0.000
173901.300,172977.400,710761.300,711184.600,212069.200,181374.100,230888.200,157651.300,0.000
173886.700,172954.700,710759.100,711181.900,212119.900,181344.500,230912.900,157616.700,0.000
173884.000,172938.800,710755.400,711178.600,212179.100,181314.800,230936.700,157594.500,0.000
173899.000,172949.200,710756.800,711179.900,212308.400,181320.000,231025.200,157612.500,0.000
173908.500,172967.500,710756.100,711179.600,212450.000,181339.100,231134.800,157635.100,0.000
173899.000,172971.000,710751.400,711174.800,212579.700,181359.000,231248.600,157636.800,0.000
173879.500,172941.500,710747.100,711170.300,212616.200,181319.700,231260.100,157583.800,0.000
173890.400,172936.000,710746.500,711170.100,212687.000,181300.600,231295.400,157574.400,0.000
173903.200,172941.800,710746.800,711170.300,212812.100,181303.900,231384.300,157596.800,0.000
173907.400,172953.700,710746.700,711169.900,212952.600,181322.200,231493.200,157611.800,0.000
173905.900,172965.400,710743.600,711166.600,213088.400,181351.300,231611.500,157599.800,0.000
173896.900,172943.800,710744.800,711167.600,213137.500,181327.500,231635.500,157548.000,0.000
173900.100,172928.200,710742.600,711165.500,213200.700,181301.300,231659.300,157537.300,0.000
173908.000,172930.500,710737.100,711160.400,213312.400,181297.500,231727.400,157553.800,0.000
173913.600,172950.100,710735.300,711158.600,213448.700,181324.100,231838.800,157578.700,0.000
173913.000,172973.800,710738.900,711162.300,213597.000,181366.900,231982.000,157601.500,0.000
173898.500,172942.300,710738.300,711161.800,213608.800,181326.600,231994.800,157555.900,0.000
173914.100,172939.000,710740.600,711164.100,213624.000,181315.000,232030.200,157542.100,0.000
173934.000,172954.200,710740.700,711164.300,213649.200,181338.200,232120.100,157563.600,0.000
173941.100,172974.400,710738.200,711161.600,213706.600,181367.100,232233.700,157586.300,0.000
173941.500,172993.800,710738.100,711160.400,213806.800,181404.000,232358.100,157604.500,0.000
173931.800,172967.500,710739.900,711162.400,213833.900,181361.500,232363.500,157566.000,0.000
173939.100,172955.100,710739.400,711162.100,213877.800,181330.600,232369.500,157545.500,0.000
173937.500,172946.500,710734.900,711157.300,213962.600,181318.700,232418.500,157541.700,0.000
173957.700,172977.600,710740.300,711162.700,214087.600,181351.400,232546.100,157565.800,0.000
173944.800,172983.300,710738.500,711161.400,214116.400,181376.100,232659.200,157570.000,0.000
173917.400,172938.900,710733.800,711157.200,214059.600,181331.900,232634.600,157515.400,0.000
173929.600,172935.100,710735.100,711158.400,214176.300,181314.500,232568.000,157517.900,0.000
173935.200,172935.400,710733.800,711156.600,214337.900,181307.300,232567.000,157521.000,0.000
173943.200,172952.800,710733.900,711156.600,214504.600,181333.900,232669.900,157546.000,0.000
173946.000,172969.700,710734.400,711157.300,214673.700,181365.500,232745.800,157568.900,0.000
173933.900,172938.800,710734.000,711156.600,214719.100,181333.100,232694.200,157518.500,0.000
173941.800,172933.100,710734.600,711157.700,214802.500,181315.000,232672.800,157478.400,0.000
173944.400,172927.500,710732.300,711155.100,214914.600,181304.400,232685.900,157470.600,0.000
173953.300,172946.600,710733.300,711156.400,215035.800,181335.200,232780.700,157490.100,0.000
173954.200,172967.500,710734.000,711156.900,215192.300,181371.400,232912.000,157513.000,0.000
173937.400,172935.000,710730.700,711153.700,215238.200,181320.700,232879.500,157466.800,0.000
173938.100,172917.300,710728.600,711151.600,215258.300,181290.500,232847.900,157439.100,0.000
173949.200,172930.600,710728.800,711151.700,215353.600,181301.100,232892.600,157454.600,0.000
173951.800,172952.700,710727.600,711150.400,215514.600,181317.800,232950.400,157473.300,0.000
173953.600,172971.300,710729.400,711152.400,215682.700,181340.500,232999.000,157481.500,0.000
173933.300,172935.800,710726.300,711149.800,215702.300,181302.900,232921.300,157430.900,0.000
173935.600,172926.400,710725.900,711148.900,215764.300,181286.300,232892.000,157419.600,0.000
173946.100,172937.300,710726.100,711148.900,215918.900,181286.300,232922.400,157436.000,0.000
173953.700,172958.000,710726.400,711149.800,216081.900,181311.200,232964.300,157458.200,0.000
173953.700,172980.300,710727.300,711150.200,216231.000,181351.100,233016.600,157471.400,0.000
173942.800,172965.000,710728.400,711151.600,216259.800,181323.700,233031.500,157447.400,0.000
173941.100,172962.900,710728.600,711151.600,216266.600,181294.200,233186.800,157474.600,0.000
173950.000,172962.500,710729.900,711153.000,216286.800,181275.300,233217.500,157501.900,0.000
173957.300,172989.000,710731.100,711154.100,216310.200,181297.300,233306.900,157508.800,0.000
173956.300,173022.900,710730.600,711153.700,216506.400,181336.300,233404.100,157536.700,0.000
173934.700,172984.900,710725.800,711148.400,216517.900,181280.100,233344.700,157483.400,0.000
173945.600,172974.600,710727.200,711149.700,216571.700,181252.000,233269.800,157460.800,0.000
173952.600,172986.500,710726.300,711149.200,216735.500,181254.200,233305.100,157478.600,0.000
173958.400,173008.600,710727.700,711150.600,216917.100,181281.200,233386.700,157507.900,0.000
173958.700,173027.000,710727.800,711150.300,217061.000,181311.600,233447.600,157513.600,0.000
173942.900,172996.900,710728.900,711152.200,217110.600,181274.800,233387.800,157460.800,0.000
173942.300,172983.700,710728.800,711151.600,217213.900,181251.700,233364.400,157430.600,0.000
173963.300,173000.100,710730.400,711153.000,217360.500,181265.300,233415.300,157450.700,0.000
173977.600,173023.100,710732.100,711155.000,217513.400,181292.000,233466.900,157476.500,0.000
173969.200,173032.200,710731.100,711154.300,217667.800,181312.100,233528.400,157476.500,0.000
173954.600,173008.000,710730.300,711153.300,217734.400,181278.400,233500.800,157435.100,0.000
173961.100,172998.400,710730.900,711153.700,217825.700,181254.000,233494.400,157428.300,0.000
173961.600,172994.800,710726.600,711148.900,217938.300,181245.700,233529.600,157434.900,0.000
173974.300,173020.300,710730.600,711153.100,218094.500,181283.200,233610.600,157464.700,0.000
173976.200,173042.200,710731.500,711154.600,218239.800,181325.300,233710.200,157486.900,0.000
173967.800,173021.000,710731.300,711154.100,218269.100,181304.000,233698.900,157464.300,0.000
173973.000,173012.100,710732.700,711155.200,218308.600,181289.900,233723.300,157458.800,0.000
173975.500,173014.000,710729.200,711151.600,218391.000,181289.000,233861.200,157473.300,0.000
173972.400,173025.800,710724.600,711146.900,218494.300,181306.900,234052.000,157488.700,0.000
173970.000,173044.900,710726.400,711148.600,218555.400,181346.300,234247.900,157512.000,0.000
173953.600,173019.800,710726.100,711148.500,218445.400,181327.500,234261.800,157472.700,0.000
173959.000,173008.400,710727.900,711150.900,218426.400,181317.600,234294.300,157457.900,0.000
173970.900,173009.400,710728.300,711150.800,218527.800,181310.900,234335.300,157466.100,0.000
173975.400,173020.800,710726.300,711148.500,218645.800,181321.000,234384.800,157475.300,0.000
173968.400,173034.200,710725.900,711148.500,218785.600,181352.800,234472.800,157485.800,0.000
173953.600,173007.100,710728.600,711151.100,218842.300,181326.100,234468.800,157451.600,0.000
173967.700,173000.500,710729.300,711151.800,218907.900,181303.500,234458.400,157436.800,0.000
173990.700,173017.400,710729.600,711152.400,219013.600,181310.700,234498.300,157463.200,0.000
173989.000,173030.100,710728.800,711151.600,219117.100,181335.400,234581.000,157490.800,0.000
173981.300,173045.900,710727.700,711150.200,219233.400,181368.700,234685.700,157505.000,0.000
173964.400,173023.100,710725.900,711148.900,219282.300,181336.400,234667.500,157461.000,0.000
173979.600,173035.500,710727.700,711150.800,219372.100,181314.100,234670.700,157458.500,0.000
173990.200,173075.700,710728.100,711151.100,219561.200,181304.000,234766.000,157500.100,0.000
173996.900,173112.500,710727.800,711150.600,219850.300,181328.900,234911.800,157562.200,0.000
173985.600,173117.900,710723.400,711146.100,220074.800,181367.300,235044.500,157593.800,0.000
173970.000,173081.100,710724.200,711147.000,220106.200,181357.500,235087.100,157557.000,0.000
173984.100,173070.900,710727.700,711150.400,220152.500,181365.400,235150.700,157548.800,0.000
173991.300,173061.200,710727.800,711150.600,220273.500,181359.900,235186.200,157547.400,0.000
173995.500,173071.200,710727.800,711150.400,220450.400,181367.500,235231.200,157553.600,0.000
173979.800,173081.700,710725.200,711148.100,220636.100,181402.600,235344.800,157556.300,0.000
173962.700,173056.300,710725.300,711147.900,220699.700,181382.800,235372.700,157504.300,0.000
173972.900,173041.400,710724.300,711146.600,220761.400,181351.600,235345.600,157476.400,0.000
173986.800,173045.000,710722.600,711145.200,220870.500,181341.300,235344.800,157481.200,0.000
174007.700,173082.300,710726.300,711149.100,221030.700,181388.800,235441.100,157526.500,0.000
174003.500,173101.000,710727.700,711150.200,221185.600,181426.100,235552.200,157546.200,0.000
173986.300,173058.800,710725.900,711148.300,221222.700,181381.400,235515.000,157481.500,0.000
173998.100,173048.100,710725.900,711148.300,221299.400,181358.800,235500.500,157457.200,0.000
174012.000,173059.400,710726.100,711149.100,221442.000,181365.600,235559.900,157475.600,0.000
174011.400,173072.800,710722.800,711145.600,221590.600,181383.900,235630.200,157484.700,0.000
174000.400,173082.000,710721.100,711143.700,221732.700,181410.000,235712.000,157484.700,0.000
173995.800,173062.100,710721.900,711144.400,221780.800,181386.800,235698.400,157450.500,0.000
174004.600,173054.300,710722.800,711145.800,221846.200,181367.300,235701.700,157436.100,0.000
174010.800,173057.200,710722.600,711145.400,221957.600,181364.400,235746.500,157442.200,0.000
174012.600,173070.700,710722.100,711144.900,222090.000,181388.100,235822.800,157456.300,0.000
174016.800,173094.400,710724.600,711147.000,222232.800,181437.700,235942.500,157476.900,0.000
173992.300,173061.900,710720.300,711142.500,222245.800,181400.000,236019.000,157434.300,0.000
174003.300,173060.900,710719.800,711141.800,222266.200,181373.800,236279.300,157440.900,0.000
174019.000,173066.300,710719.000,711141.300,222370.700,181355.700,236454.300,157465.800,0.000
174023.700,173080.500,710720.300,711142.600,222488.700,181370.100,236533.000,157470.000,0.000
174016.800,173105.900,710719.400,711141.900,222635.400,181427.000,236689.100,157491.800,0.000
173985.800,173065.400,710716.100,711138.800,222698.800,181387.900,236689.200,157437.600,0.000
173996.500,173045.300,710716.600,711138.900,222746.400,181350.300,236636.500,157401.300,0.000
174015.200,173060.700,710717.400,711140.000,222868.500,181356.200,236650.100,157413.600,0.000
174013.900,173085.600,710717.200,711139.800,223037.700,181387.900,236769.500,157448.900,0.000
174015.500,173107.800,710720.900,711143.700,223198.600,181430.300,236875.000,157472.400,0.000
174011.700,173085.800,710721.400,711144.200,223231.700,181395.900,236821.300,157425.800,0.000
174014.500,173069.800,710719.400,711142.000,223302.300,181371.800,236813.700,157418.500,0.000
174022.000,173072.300,710720.100,711143.100,223426.800,181380.100,236881.400,157441.800,0.000
174023.200,173082.100,710719.600,711142.800,223558.000,181396.800,236952.800,157455.300,0.000
174025.400,173102.400,710721.300,711144.300,223709.100,181430.200,237043.800,157474.400,0.000
174011.400,173078.200,710719.400,711142.100,223748.700,181400.600,237043.800,157441.600,0.000
174016.500,173065.200,710714.600,711136.900,223804.500,181379.100,237051.000,157432.400,0.000
174025.100,173067.700,710713.200,711135.800,223914.700,181376.700,237092.800,157441.800,0.000
174042.400,173100.900,710720.100,711142.800,224064.900,181416.000,237189.900,157471.300,0.000
174040.700,173122.100,710722.100,711145.100,224216.300,181456.700,237315.500,157495.400,0.000
174018.500,173085.900,710718.300,711141.200,224243.600,181411.500,237305.400,157450.300,0.000
174029.000,173082.700,710717.400,711140.300,224308.400,181396.000,237318.300,157441.700,0.000
174030.500,173078.400,710716.300,711139.000,224414.100,181393.000,237371.300,157447.100,0.000
174023.200,173087.100,710716.500,711139.000,224550.700,181412.200,237468.800,157468.100,0.000
174012.600,173100.500,710717.100,711139.800,224693.600,181442.200,237581.900,157485.400,0.000
173998.900,173078.800,710716.700,711139.800,224736.900,181411.400,237582.400,157450.800,0.000
173996.200,173060.500,710712.900,711135.700,224788.600,181381.800,237604.200,157437.600,0.000
174026.700,173087.600,710717.200,711139.800,224916.200,181403.700,237713.100,157476.500,0.000
174047.800,173121.300,710721.100,711143.900,225054.700,181444.500,237877.800,157515.100,0.000
174029.700,173119.500,710718.600,711141.300,225189.300,181462.300,238011.600,157522.100,0.000
174009.300,173085.000,710717.600,711140.600,225221.300,181429.600,238035.200,157487.700,0.000
174021.700,173078.800,710717.200,711140.000,225287.400,181417.200,238074.600,157485.400,0.000
174031.900,173081.700,710713.300,711136.300,225393.200,181409.700,238141.000,157493.300,0.000
174030.500,173094.900,710712.600,711136.200,225522.900,181424.000,238230.200,157506.000,0.000
174021.200,173111.300,710712.300,711135.600,225669.100,181457.500,238357.000,157525.600,0.000
173994.800,173077.200,710709.000,711131.700,225702.800,181421.200,238365.500,157483.500,0.000
173995.200,173061.900,710708.400,711131.400,225759.000,181400.300,238382.100,157466.300,0.000
174003.600,173060.500,710709.100,711132.300,225866.300,181396.100,238447.800,157478.700,0.000
174021.900,173088.400,710709.400,711132.300,226019.900,181432.000,238569.600,157517.800,0.000
174015.700,173102.400,710709.600,711132.500,226162.000,181466.000,238702.600,157536.700,0.000
173996.100,173069.500,710708.000,711130.700,226190.900,181429.500,238705.800,157491.700,0.000
173996.200,173053.400,710705.500,711128.400,226242.800,181401.900,238721.600,157466.800,0.000
174006.900,173059.500,710707.600,711130.600,226354.900,181404.300,238802.800,157479.300,0.000
174013.200,173077.600,710708.800,711131.800,226489.700,181426.600,238912.300,157499.200,0.000
174012.700,173099.900,710708.300,711131.100,226637.200,181460.400,239042.600,157515.300,0.000
174005.300,173082.300,710709.900,711132.900,226688.600,181438.700,239069.200,157486.600,0.000
174015.600,173079.500,710709.800,711132.700,226759.800,181425.500,239109.200,157482.800,0.000
174017.800,173080.000,710709.100,711132.300,226869.600,181417.900,239180.900,157492.100,0.000
174035.000,173110.100,710713.700,711136.600,227021.400,181456.100,239308.000,157530.000,0.000
174021.800,173116.500,710709.800,711132.600,227158.500,181483.600,239441.200,157541.200,0.000
174007.900,173092.400,710706.900,711129.600,227200.600,181452.300,239463.900,157502.600,0.000
174017.200,173086.500,710709.100,711131.800,227269.300,181437.200,239504.300,157493.000,0.000
174020.100,173084.000,710707.800,711130.400,227374.500,181431.100,239578.900,157500.100,0.000
174026.500,173103.800,710707.200,711129.800,227515.800,181457.400,239697.300,157520.900,0.000
174014.900,173118.200,710706.000,711128.900,227661.400,181488.200,239834.000,157529.600,0.000
173993.900,173089.800,710705.300,711128.000,227703.200,181453.200,239859.400,157484.900,0.000
174004.600,173085.600,710705.900,711128.800,227776.500,181440.000,239905.800,157479.900,0.000
174012.200,173083.300,710703.900,711127.100,227883.500,181436.300,239983.100,157495.900,0.000
174012.000,173098.300,710702.600,711125.500,228019.100,181458.500,240100.000,157523.300,0.000
174010.800,173127.200,710707.800,711130.800,228181.700,181505.300,240254.400,157554.600,0.000
173991.400,173100.700,710706.800,711129.800,228226.600,181475.100,240277.700,157518.400,0.000
173987.000,173077.300,710703.900,711126.700,228279.800,181442.700,240303.700,157500.300,0.000
174000.200,173081.200,710705.300,711127.800,228390.000,181440.800,240383.900,157517.000,0.000
174008.200,173106.500,710706.300,711128.500,228532.800,181466.500,240504.600,157545.400,0.000
174002.500,173127.300,710706.800,711129.400,228685.000,181499.000,240646.800,157565.700,0.000
173985.100,173097.300,710705.400,711128.600,228729.400,181463.900,240670.500,157526.100,0.000
173991.900,173080.200,710704.700,711127.600,228787.200,181433.900,240700.800,157515.800,0.000
174004.300,173079.500,710705.900,711128.800,228891.500,181430.200,240777.000,157532.100,0.000
174005.900,173090.200,710704.600,711126.900,229018.100,181446.400,240880.300,157547.700,0.000
174007.400,173112.100,710703.300,711126.100,229162.300,181481.700,241014.900,157567.700,0.000
173999.300,173090.100,710705.500,711128.200,229208.900,181452.900,241043.500,157539.600,0.000
174000.000,173074.300,710702.000,711124.600,229258.500,181422.800,241063.800,157525.100,0.000
174014.000,173084.500,710702.400,711125.500,229367.000,181425.300,241131.800,157543.000,0.000
174013.800,173093.300,710703.800,711126.900,229499.800,181439.000,241231.600,157559.300,0.000
173995.700,173093.800,710700.100,711123.100,229636.100,181454.300,241346.800,157570.600,0.000
173978.800,173065.500,710698.400,711121.600,229677.800,181419.000,241354.900,157533.000,0.000
173991.700,173056.000,710698.300,711121.300,229741.700,181395.200,241374.700,157524.100,0.000
173997.600,173051.600,710694.400,711117.600,229839.300,181378.300,241423.100,157525.200,0.000
174006.700,173076.100,710695.400,711118.400,229982.700,181401.700,241522.300,157547.700,0.000
174011.800,173103.500,710698.200,711121.100,230143.900,181444.600,241648.200,157573.600,0.000
174018.700,173100.500,710701.300,711124.300,230209.800,181434.900,241675.600,157557.200,0.000
174044.800,173113.700,710705.300,711128.000,230297.300,181434.800,241715.900,157567.100,0.000
174049.600,173112.000,710703.900,711126.400,230407.200,181426.800,241762.700,157577.400,0.000
174053.800,173129.400,710702.900,711125.800,230552.800,181455.800,241860.400,157603.800,0.000
174040.500,173142.400,710702.200,711124.900,230699.100,181484.700,241980.400,157616.500,0.000
174019.900,173114.600,710700.600,711123.300,230743.200,181453.200,241992.700,157578.500,0.000
174026.100,173107.100,710699.100,711121.900,230806.100,181435.300,242020.400,157569.000,0.000
174031.900,173108.300,710697.800,711120.300,230909.300,181433.100,242085.900,157577.400,0.000
174042.700,173135.500,710699.100,711122.100,231057.400,181467.100,242203.100,157607.000,0.000
174034.200,173147.300,710698.300,711121.100,231208.900,181501.900,242337.100,157621.600,0.000
174013.100,173111.500,710697.300,711119.700,231252.400,181465.900,242353.500,157577.600,0.000
174020.000,173099.900,710697.700,711120.100,231317.400,181446.500,242382.400,157563.500,0.000
174037.700,173112.100,710701.400,711123.400,231437.500,181457.700,242464.900,157589.100,0.000
174042.000,173131.000,710702.200,711124.700,231580.700,181482.000,242580.800,157616.300,0.000
174028.000,173141.000,710699.600,711122.100,231723.700,181505.500,242712.300,157623.500,0.000
174014.100,173114.600,710697.400,711119.300,231769.300,181475.200,242738.600,157586.900,0.000
174021.800,173105.000,710695.500,711117.300,231829.900,181455.300,242771.500,157575.400,0.000
174036.500,173115.600,710695.800,711118.000,231939.400,181462.900,242854.500,157595.200,0.000
174037.200,173131.800,710695.800,711118.200,232074.300,181484.900,242973.300,157620.600,0.000
174024.300,173139.600,710694.700,711117.400,232215.800,181510.900,243110.400,157632.200,0.000
174004.200,173110.200,710693.900,711116.300,232259.800,181479.100,243134.100,157589.500,0.000
174012.300,173098.700,710696.400,711118.600,232328.000,181462.800,243173.400,157578.300,0.000
174031.000,173110.300,710695.400,711117.900,232437.800,181465.300,243252.400,157592.500,0.000
174041.800,173133.100,710696.200,711118.800,232578.900,181495.000,243372.600,157623.300,0.000
174036.000,173144.400,710696.200,711118.600,232727.500,181524.600,243511.900,157642.500,0.000
174024.300,173120.400,710697.100,711119.300,232771.300,181494.600,243534.900,157603.300,0.000
174036.400,173115.100,710697.500,711119.700,232835.700,181480.200,243571.200,157597.300,0.000
174042.400,173112.000,710694.100,711116.700,232930.500,181474.600,243634.800,157603.700,0.000
174040.900,173127.000,710691.400,711113.400,233056.500,181492.500,243740.200,157620.000,0.000
174029.400,173138.200,710690.600,711112.600,233195.800,181516.600,243871.900,157632.000,0.000
174007.400,173104.300,710688.100,711110.300,233224.700,181476.200,243886.900,157587.000,0.000
174025.200,173104.200,710688.500,711111.100,233286.800,181463.400,243930.000,157584.400,0.000
174061.500,173130.500,710693.600,711115.900,233407.100,181486.900,244028.300,157618.200,0.000
174063.300,173146.300,710693.300,711115.600,233542.000,181512.800,244144.900,157638.400,0.000
174047.300,173155.300,710689.300,711111.700,233682.200,181538.000,244274.700,157646.000,0.000
174039.300,173135.100,710691.100,711113.100,233730.700,181510.800,244304.500,157614.800,0.000
174040.800,173114.100,710689.200,711111.300,233784.500,181483.300,244337.000,157597.200,0.000
174053.600,173116.300,710689.100,711111.500,233887.000,181483.500,244416.400,157611.400,0.000
174058.900,173136.200,710688.900,711111.200,234030.000,181510.100,244534.400,157637.800,0.000
174046.600,173149.700,710688.900,711111.100,234176.000,181537.200,244667.900,157652.000,0.000
174028.700,173122.500,710687.100,711109.400,234222.700,181503.600,244694.300,157614.900,0.000
174045.400,173120.300,710689.200,711111.700,234298.700,181491.300,244740.900,157614.600,0.000
174060.200,173125.400,710689.700,711111.900,234411.500,181491.000,244818.800,157632.000,0.000
174056.500,173138.900,710685.900,711107.900,234546.400,181506.500,244925.300,157643.400,0.000
174056.700,173165.400,710686.600,711108.200,234704.100,181545.400,245070.700,157666.200,0.000
174048.800,173146.300,710688.100,711110.300,234760.500,181522.000,245109.100,157640.700,0.000
174040.900,173120.000,710685.900,711107.800,234809.700,181480.500,245135.000,157617.200,0.000
174056.300,173128.000,710684.800,711106.800,234915.100,181474.500,245214.800,157632.800,0.000
174056.900,173142.300,710681.900,711103.900,235046.900,181487.600,245322.800,157650.600,0.000
174042.900,173152.500,710681.800,711103.900,235196.200,181512.200,245459.000,157666.400,0.000
174025.300,173129.800,710680.400,711102.900,235242.700,181477.800,245481.600,157629.000,0.000
174028.400,173119.300,710679.800,711102.600,235306.100,181456.000,245510.600,157615.000,0.000
174049.800,173130.700,710683.100,711105.400,235424.400,181464.300,245590.500,157636.200,0.000
174056.600,173156.200,710686.200,711107.900,235582.700,181496.900,245714.300,157669.800,0.000
174043.200,173170.100,710686.800,711108.400,235749.400,181527.600,245851.000,157689.800,0.000
174022.000,173137.500,710685.900,711108.200,235815.300,181494.000,245874.400,157654.500,0.000
174024.700,173119.700,710682.900,711105.500,235899.900,181466.600,245904.900,157638.700,0.000
174031.900,173123.200,710681.000,711103.600,236030.000,181459.000,245980.600,157645.300,0.000
174036.500,173143.100,710681.600,711104.500,236185.400,181480.700,246095.200,157666.400,0.000
174027.200,173159.200,710680.600,711103.300,236346.000,181513.300,246229.500,157683.400,0.000
174008.500,173133.000,710678.300,711100.900,236405.300,181479.700,246252.800,157646.900,0.000
174015.100,173123.800,710678.700,711101.500,236490.400,181458.700,246290.200,157640.000,0.000
174027.300,173127.800,710678.700,711101.600,236628.900,181455.500,246368.600,157659.600,0.000
174028.700,173143.800,710679.000,711101.400,236793.500,181481.200,246484.700,157685.800,0.000
174016.600,173155.300,710679.800,711102.300,236957.000,181510.800,246622.600,157705.100,0.000
173992.400,173122.900,710677.900,711100.300,237011.600,181477.400,246645.100,157664.700,0.000
173999.000,173116.800,710678.100,711100.500,237100.600,181459.500,246687.500,157655.500,0.000
174016.600,173127.500,710680.600,711102.800,237237.500,181461.600,246775.100,157676.500,0.000
174032.800,173152.400,710682.100,711104.300,237408.800,181493.000,246907.300,157715.800,0.000
174021.900,173167.700,710682.900,711105.100,237597.100,181530.200,247050.500,157737.400,0.000
173995.900,173132.000,710683.100,711104.600,237670.400,181496.300,247066.000,157692.600,0.000
173988.800,173103.000,710679.000,711100.900,237743.300,181457.500,247083.400,157664.800,0.000
173996.700,173100.900,710676.200,711097.900,237866.200,181451.600,247148.600,157669.600,0.000
174020.000,173140.000,710680.600,711102.300,238061.800,181492.200,247279.000,157711.800,0.000
174009.300,173150.800,710678.300,711099.800,238304.000,181517.500,247411.600,157728.100,0.000
173981.300,173110.500,710673.600,711094.900,238483.400,181464.700,247415.000,157678.600,0.000
173988.000,173101.700,710674.400,711096.400,238652.600,181446.800,247442.000,157668.700,0.000
174011.600,173120.300,710680.600,711102.600,238812.800,181465.200,247524.900,157690.300,0.000
174024.100,173149.800,710683.100,711105.100,239024.000,181496.000,247648.700,157718.800,0.000
174023.500,173169.600,710683.900,711106.200,239280.000,181527.800,247787.600,157742.700,0.000
174004.300,173131.800,710679.800,711102.200,239376.400,181487.500,247787.300,157701.800,0.000
174019.300,173128.400,710680.900,711103.300,239464.900,181471.700,247814.200,157704.700,0.000
174037.200,173133.800,710680.800,711102.800,239632.500,181464.300,247878.900,157718.600,0.000
174039.700,173149.000,710677.900,711099.800,239864.500,181476.300,247977.200,157739.400,0.000
174020.600,173151.500,710675.000,711096.600,240026.900,181495.100,248093.800,157747.300,0.000
174006.000,173128.000,710676.500,711098.300,240077.100,181464.800,248120.400,157712.000,0.000
174020.000,173128.400,710677.100,711099.100,240159.800,181459.700,248174.200,157708.600,0.000
174038.900,173141.200,710677.100,711099.300,240267.200,181468.800,248261.800,157726.300,0.000
174054.500,173169.300,710680.200,711102.600,240411.200,181511.700,248397.700,157762.700,0.000
174042.100,173179.700,710678.900,711100.900,240544.000,181543.700,248539.300,157775.400,0.000
174016.200,173145.200,710676.300,711098.400,240572.800,181507.200,248568.300,157730.300,0.000
174015.100,173124.500,710674.400,711096.600,240631.400,181481.700,248604.300,157710.600,0.000
174019.200,173118.000,710674.000,711096.300,240771.000,181470.500,248671.500,157718.300,0.000
174033.800,173149.700,710676.200,711098.300,240972.700,181501.900,248802.100,157755.700,0.000
174033.500,173177.200,710678.100,711100.400,241132.900,181547.500,248952.800,157785.400,0.000
174020.900,173155.300,710679.800,711101.800,241178.900,181524.800,248986.600,157757.400,0.000
174023.000,173140.500,710679.400,711101.100,241234.800,181499.700,249014.500,157746.400,0.000
174035.000,173147.400,710679.900,711101.900,241332.400,181499.100,249085.200,157761.700,0.000
174039.400,173172.700,710680.800,711102.900,241475.100,181532.000,249211.500,157797.400,0.000
174026.100,173183.900,710678.100,711100.600,241624.100,181561.100,249344.400,157817.000,0.000
174008.200,173152.600,710675.400,711097.800,241714.800,181523.600,249358.900,157781.700,0.000
174011.800,173136.200,710675.700,711097.600,241846.400,181496.800,249381.400,157771.400,0.000
174025.900,173141.300,710676.500,711098.300,241978.800,181497.400,249446.300,157791.600,0.000
174031.700,173165.700,710678.300,711099.900,242142.900,181526.400,249563.900,157828.300,0.000
174022.500,173181.400,710679.200,711101.400,242314.400,181556.900,249693.900,157850.200,0.000
174011.100,173162.300,710680.000,711102.400,242419.200,181529.800,249715.600,157818.900,0.000
174016.400,173149.900,710677.400,711099.600,242527.800,181507.900,249735.500,157807.800,0.000
174025.200,173149.600,710678.300,711100.600,242638.000,181507.600,249793.500,157818.200,0.000
174023.500,173165.300,710676.500,711098.800,242772.900,181533.900,249899.100,157837.800,0.000
174016.500,173185.700,710676.400,711098.900,242936.700,181572.400,250027.900,157858.100,0.000
174000.400,173154.100,710675.600,711098.000,243008.600,181539.500,250034.900,157821.100,0.000
174010.400,173144.000,710674.100,711096.600,243111.400,181520.400,250051.500,157810.300,0.000
174021.400,173148.000,710674.600,711096.400,243263.300,181520.800,250107.600,157823.400,0.000
174026.800,173166.000,710675.600,711097.000,243417.500,181544.300,250207.500,157847.200,0.000
174021.400,173185.300,710675.600,711097.800,243566.600,181578.500,250337.800,157866.700,0.000
174013.000,173161.600,710676.100,711098.200,243617.600,181555.100,250359.000,157835.000,0.000
174012.900,173140.100,710674.400,711096.600,243687.300,181526.000,250376.200,157816.200,0.000
174022.600,173139.600,710674.400,711096.300,243809.500,181517.900,250427.700,157823.900,0.000
174032.100,173164.500,710675.400,711097.400,243973.300,181547.500,250532.900,157850.600,0.000
174019.500,173175.200,710671.900,711094.300,244119.300,181572.000,250645.200,157856.600,0.000
173999.200,173141.300,710670.500,711092.500,244150.700,181534.700,250650.800,157813.200,0.000
174012.000,173138.600,710672.400,711094.100,244215.000,181518.700,250684.700,157809.600,0.000
174025.000,173141.400,710673.200,711095.200,244312.300,181521.800,250746.400,157823.300,0.000
174040.500,173169.500,710674.300,711096.800,244448.300,181555.900,250855.000,157853.000,0.000
174031.900,173180.700,710673.100,711095.200,244585.100,181585.900,250975.300,157867.500,0.000
174016.000,173153.300,710671.900,711093.700,244623.200,181551.300,250984.500,157827.900,0.000
174031.000,173148.800,710676.300,711098.000,244695.600,181535.600,251013.500,157822.100,0.000
174040.400,173151.700,710677.400,711099.700,244796.600,181531.300,251069.600,157828.900,0.000
174043.200,173171.200,710674.400,711096.800,244928.100,181549.600,251168.700,157845.200,0.000
174038.800,173189.500,710674.900,711096.900,245092.500,181580.800,251298.300,157864.900,0.000
174028.600,173165.500,710675.300,711097.400,245154.300,181553.000,251311.800,157833.300,0.000
174032.800,173147.700,710672.100,711094.500,245215.600,181528.700,251319.100,157815.200,0.000
174049.800,173153.900,710671.100,711093.300,245318.100,181529.300,251372.100,157826.800,0.000
174059.500,173176.700,710671.300,711093.800,245455.200,181560.800,251480.800,157853.700,0.000
174045.200,173182.100,710668.300,711090.800,245583.200,181583.700,251598.000,157861.400,0.000
174027.400,173149.300,710669.400,711091.800,245609.800,181552.800,251605.300,157821.900,0.000
174030.600,173134.400,710667.600,711089.800,245651.900,181526.500,251624.200,157809.900,0.000
174034.800,173130.600,710666.400,711088.100,245730.400,181516.100,251682.300,157819.100,0.000
174043.900,173157.100,710668.600,711090.500,245854.700,181547.200,251792.800,157845.000,0.000
174045.200,173184.500,710669.800,711091.800,245996.300,181588.800,251928.800,157868.200,0.000
174025.400,173151.500,710667.300,711089.300,246024.500,181554.600,251940.300,157828.500,0.000
174042.000,173146.100,710670.700,711093.000,246083.300,181542.700,251975.200,157827.800,0.000
174059.100,173154.200,710671.300,711093.300,246177.000,181542.800,252044.200,157843.200,0.000
174056.000,173164.300,710668.500,711090.600,246293.300,181560.400,252146.700,157859.400,0.000
174043.500,173174.300,710669.400,711091.200,246426.600,181588.300,252277.400,157875.600,0.000
174028.500,173148.800,710668.800,711090.600,246458.600,181556.900,252291.700,157837.900,0.000
174040.900,173144.400,710668.300,711090.500,246512.900,181543.200,252318.300,157829.100,0.000
174049.600,173144.100,710666.900,711088.700,246595.500,181535.300,252371.700,157836.300,0.000
174055.500,173169.500,710667.800,711089.600,246718.500,181563.900,252477.600,157860.200,0.000
174048.500,173184.400,710669.800,711092.300,246849.200,181598.600,252604.100,157878.000,0.000
174028.400,173149.500,710667.500,711089.400,246868.300,181561.300,252606.200,157834.300,0.000
174039.700,173145.800,710667.400,711089.300,246918.300,181545.300,252632.700,157827.500,0.000
174045.400,173147.300,710666.900,711088.700,246999.600,181536.000,252689.000,157835.400,0.000
174051.800,173168.200,710667.400,711089.300,247124.100,181561.800,252799.800,157863.100,0.000
174043.800,173181.700,710665.000,711087.000,247247.800,181589.300,252923.400,157879.100,0.000
174020.900,173145.800,710664.300,711086.600,247262.600,181548.700,252926.500,157836.600,0.000
174023.400,173130.500,710664.600,711086.300,247307.400,181527.400,252950.100,157825.300,0.000
174025.600,173125.400,710660.900,711082.300,247377.300,181514.100,252995.700,157824.900,0.000
174032.000,173145.400,710660.000,711081.700,247496.200,181542.300,253101.700,157849.400,0.000
174032.600,173163.300,710662.200,711083.800,247631.200,181580.300,253232.600,157871.700,0.000
174012.500,173126.900,710660.700,711082.500,247648.300,181542.400,253234.800,157824.800,0.000
174029.900,173126.400,710661.900,711083.900,247700.700,181531.800,253264.900,157822.000,0.000
174059.000,173149.600,710667.400,711089.100,247803.600,181548.300,253344.200,157852.800,0.000
174067.300,173172.700,710669.600,711091.600,247929.900,181578.100,253455.800,157878.700,0.000
174056.900,173180.500,710667.400,711088.900,248051.300,181600.000,253573.900,157890.300,0.000
174040.200,173149.000,710664.100,711085.600,248068.300,181562.200,253581.700,157850.600,0.000
174051.400,173142.300,710665.200,711086.600,248111.800,181546.800,253603.300,157838.200,0.000
174058.300,173140.800,710664.600,711085.800,248190.900,181542.600,253654.800,157842.900,0.000
174063.100,173158.000,710664.400,711086.000,248312.300,181568.900,253759.600,157864.400,0.000
174049.600,173166.000,710663.100,711084.500,248433.800,181593.100,253875.400,157873.300,0.000
174030.800,173141.200,710662.100,711083.300,248450.900,181558.100,253878.100,157830.900,0.000
174044.400,173139.800,710662.100,711083.800,248502.700,181541.100,253904.200,157826.400,0.000
174059.800,173145.000,710661.900,711083.800,248591.700,181538.500,253959.300,157838.700,0.000
174066.000,173166.200,710662.800,711084.400,248718.500,181562.700,254056.900,157859.900,0.000
174055.600,173180.300,710662.400,711084.300,248856.400,181591.100,254177.000,157875.400,0.000
174029.000,173140.500,710659.600,711081.900,248881.000,181547.800,254176.200,157828.700,0.000
174032.100,173122.700,710658.900,711080.800,248933.400,181524.700,254194.600,157811.500,0.000
174045.400,173131.500,710658.800,711081.100,249051.100,181525.200,254259.900,157828.400,0.000
174051.300,173157.800,710661.300,711083.300,249217.800,181557.200,254375.900,157863.600,0.000
174043.900,173171.800,710661.400,711083.600,249368.600,181591.800,254498.300,157887.700,0.000
174024.500,173141.200,710661.300,711083.100,249398.900,181558.200,254501.700,157849.800,0.000
174026.600,173126.600,710659.400,711080.900,249439.100,181535.000,254512.200,157832.700,0.000
174034.800,173127.000,710659.300,711081.100,249516.900,181531.200,254560.400,157840.300,0.000
174045.800,173154.400,710660.000,711081.600,249643.100,181564.700,254670.300,157876.100,0.000
174037.300,173171.400,710660.600,711082.200,249771.900,181599.500,254800.600,157895.300,0.000
174016.900,173139.000,710660.200,711081.700,249791.200,181566.300,254812.400,157853.900,0.000
174031.300,173132.100,710661.300,711083.100,249838.300,181553.300,254837.100,157847.900,0.000
174042.400,173139.600,710660.200,711081.600,249913.700,181548.800,254883.800,157855.600,0.000
174043.400,173158.400,710658.800,711080.400,250034.600,181572.100,254987.600,157879.400,0.000
174022.500,173156.200,710656.300,711078.100,250156.100,181590.400,255098.400,157886.700,0.000
173997.300,173118.200,710654.900,711076.600,250183.200,181548.600,255096.800,157844.200,0.000
174006.900,173115.100,710654.200,711076.400,250246.200,181533.400,255116.600,157836.000,0.000
174018.300,173120.600,710655.600,711077.800,250343.500,181533.400,255173.300,157851.700,0.000
174022.700,173143.100,710657.800,711079.800,250478.000,181563.100,255278.800,157878.400,0.000
174035.100,173176.900,710664.200,711085.800,250627.300,181611.100,255407.000,157909.200,0.000
174026.500,173159.100,710664.100,711085.800,250664.600,181589.400,255413.700,157879.000,0.000
174034.200,173150.000,710662.500,711084.100,250714.800,181569.500,255428.100,157868.000,0.000
174048.400,173149.000,710661.600,711083.500,250805.400,181562.300,255479.100,157880.800,0.000
174048.000,173161.000,710659.700,711081.300,250938.200,181580.200,255576.700,157900.100,0.000
174042.400,173177.100,710659.700,711081.700,251096.000,181611.000,255696.300,157916.500,0.000
174016.500,173144.600,710657.000,711079.100,251131.800,181571.900,255694.000,157871.500,0.000
174020.100,173135.500,710654.800,711076.600,251185.200,181553.000,255717.000,157861.500,0.000
174029.400,173137.000,710656.400,711077.900,251275.500,181555.100,255774.700,157873.800,0.000
174037.200,173155.500,710658.900,711080.200,251400.200,181582.500,255880.400,157899.300,0.000
174030.800,173169.200,710658.300,711079.600,251525.200,181612.800,255999.500,157911.300,0.000
174014.100,173140.400,710656.100,711077.700,251541.700,181579.500,256002.000,157867.800,0.000
174028.900,173134.300,710657.900,711079.300,251584.400,181564.900,256023.700,157858.000,0.000
174042.500,173141.600,710658.200,711079.000,251664.900,181564.200,256078.900,157869.800,0.000
174039.800,173159.900,710655.700,711076.600,251778.000,181582.400,256179.300,157891.000,0.000
174023.500,173165.500,710652.100,711073.500,251888.300,181604.600,256293.000,157900.200,0.000
174008.600,173134.300,710649.500,711070.800,251897.700,181571.200,256297.500,157863.800,0.000
174022.900,173129.300,710651.800,711072.900,251938.500,181555.500,256322.700,157858.500,0.000
174035.800,173132.700,710651.500,711072.700,252018.400,181551.900,256380.300,157870.700,0.000
174049.400,173158.100,710654.900,711076.200,252146.100,181586.100,256493.300,157904.700,0.000
174043.000,173170.200,710654.800,711076.400,252265.500,181611.600,256605.300,157916.800,0.000
174031.700,173150.200,710655.500,711077.100,252290.000,181581.700,256613.000,157883.600,0.000
174039.800,173141.800,710655.300,711077.000,252333.700,181565.400,256635.000,157872.400,0.000
174047.900,173142.300,710655.500,711077.100,252411.000,181564.000,256686.800,157879.600,0.000
174049.300,173160.000,710653.300,711074.600,252523.800,181591.000,256784.800,157900.200,0.000
174042.000,173173.200,710655.300,711077.100,252645.300,181620.300,256899.700,157913.200,0.000
174028.200,173146.800,710655.300,711076.900,252666.200,181584.400,256902.600,157874.600,0.000
174035.100,173135.600,710654.200,711075.900,252707.900,181564.500,256918.900,157866.000,0.000
174042.800,173135.800,710654.400,711076.300,252783.000,181561.200,256966.000,157875.600,0.000
174043.400,173155.800,710653.900,711075.400,252901.000,181582.700,257067.200,157900.200,0.000
174034.500,173168.600,710653.300,711075.000,253023.900,181607.600,257182.600,157915.000,0.000
174029.700,173150.400,710654.000,711075.600,253046.000,181580.100,257185.400,157882.800,0.000
174042.900,173148.000,710653.800,711075.400,253088.200,181564.900,257200.100,157877.500,0.000
174058.500,173158.900,710657.600,711079.300,253175.500,181571.400,257255.200,157895.100,0.000
174069.000,173184.400,710659.400,711081.600,253305.600,181605.600,257363.100,157929.500,0.000
174050.700,173184.700,710655.900,711077.700,253420.300,181624.200,257470.400,157936.600,0.000
174030.800,173157.000,710655.300,711076.900,253438.800,181589.300,257474.400,157898.800,0.000
174029.400,173143.900,710655.800,711077.600,253483.400,181567.500,257496.100,157888.300,0.000
174035.500,173145.100,710656.100,711077.600,253560.300,181562.300,257546.400,157895.600,0.000
174044.100,173175.700,710656.900,711078.100,253686.300,181596.800,257656.000,157925.000,0.000
174032.700,173187.300,710656.700,711078.100,253811.600,181623.800,257775.900,157939.900,0.000
174012.500,173155.000,710657.100,711078.900,253834.300,181588.400,257781.400,157901.600,0.000
174012.500,173137.600,710655.500,711077.100,253876.500,181561.100,257795.900,157886.700,0.000
174017.900,173136.400,710655.500,711077.000,253962.700,181553.100,257847.600,157892.900,0.000
174016.500,173153.100,710654.500,711075.900,254085.000,181577.800,257949.500,157909.600,0.000
174005.500,173165.000,710655.100,711076.300,254212.800,181606.100,258068.000,157924.700,0.000
173991.500,173140.500,710654.600,711076.100,254235.400,181575.200,258071.400,157894.400,0.000
174011.800,173145.800,710659.900,711080.800,254302.200,181572.600,258107.900,157929.900,0.000
174028.300,173154.100,710661.800,711083.100,254403.500,181571.200,258162.600,157966.900,0.000
174032.200,173175.700,710662.800,711083.500,254564.300,181598.900,258257.300,157981.700,0.000
174022.500,173182.900,710661.300,711082.600,254754.300,181620.700,258361.400,157982.900,0.000
174005.800,173150.800,710658.400,711080.800,254850.900,181578.200,258333.000,157926.800,0.000
174007.700,173135.300,710659.600,711080.900,254980.300,181550.800,258285.100,157900.800,0.000
174010.300,173136.700,710661.100,711082.200,255137.800,181548.500,258304.200,157905.800,0.000
174018.200,173168.300,710660.200,711081.700,255341.400,181586.900,258410.700,157940.200,0.000
174001.500,173169.200,710659.700,711081.400,255505.000,181601.900,258502.800,157941.100,0.000
173981.300,173134.800,710658.300,711080.000,255541.600,181560.800,258485.400,157892.200,0.000
174001.300,173145.400,710662.300,711084.100,255636.800,181558.800,258533.300,157900.200,0.000
174016.000,173152.800,710665.200,711086.800,255775.900,181556.800,258590.200,157912.400,0.000
174018.200,173167.100,710663.600,711085.300,255956.400,181576.700,258668.500,157930.400,0.000
174003.100,173178.700,710661.700,711083.300,256127.800,181601.700,258771.700,157942.300,0.000
173987.800,173154.600,710659.200,711081.000,256179.900,181573.800,258776.300,157904.900,0.000
173996.200,173147.000,710658.400,711080.400,256258.100,181555.900,258789.000,157891.000,0.000
174005.800,173149.000,710657.500,711079.200,256380.200,181551.400,258825.900,157896.100,0.000
174009.600,173168.900,710657.500,711078.900,256542.900,181581.400,258932.400,157921.900,0.000
173993.000,173170.700,710655.900,711077.100,256694.500,181598.500,259042.200,157923.700,0.000
173977.800,173140.400,710653.600,711074.600,256731.300,181566.500,259031.100,157877.400,0.000
173997.300,173131.200,710657.400,711079.000,256763.700,181561.500,259044.600,157866.400,0.000
174031.800,173143.900,710666.300,711087.400,256826.400,181584.500,259115.600,157883.200,0.000
174030.400,173154.600,710663.400,711084.500,256943.400,181599.700,259190.200,157889.700,0.000
174015.200,173166.700,710660.300,711081.300,257088.300,181609.200,259256.500,157886.400,0.000
173995.600,173146.400,710660.300,711081.300,257130.600,181576.000,259253.700,157856.800,0.000
174006.500,173147.300,710659.700,711080.900,257194.700,181565.400,259291.800,157865.200,0.000
174023.300,173159.800,710659.200,711080.600,257297.000,181562.100,259333.700,157884.300,0.000
174035.700,173186.400,710660.400,711081.700,257449.100,181589.300,259410.400,157914.500,0.000
174020.500,173189.500,710658.600,711079.900,257581.400,181612.000,259512.300,157929.700,0.000
173997.300,173154.600,710656.100,711077.600,257608.600,181582.000,259520.700,157897.300,0.000
174013.100,173151.600,710659.800,711080.800,257671.600,181579.000,259555.500,157903.100,0.000
174024.800,173158.100,710658.400,711079.800,257773.800,181578.800,259617.000,157917.100,0.000
174028.700,173182.500,710655.900,711077.100,257925.900,181611.400,259732.700,157946.100,0.000
174018.400,173192.900,710653.900,711075.400,258065.300,181637.800,259840.100,157957.600,0.000
174006.000,173166.800,710653.800,711074.900,258099.500,181601.300,259826.500,157917.100,0.000
174012.900,173158.900,710655.500,711076.800,258173.100,181585.400,259839.000,157912.200,0.000
174020.800,173162.900,710656.800,711077.900,258281.400,181581.500,259891.300,157926.000,0.000
174026.800,173190.400,710656.900,711078.100,258415.100,181615.700,259998.400,157952.700,0.000
174013.600,173198.200,710652.900,711074.500,258529.300,181640.100,260102.300,157959.300,0.000
173994.300,173168.300,710653.300,711074.900,258554.200,181607.300,260109.900,157924.400,0.000
174004.000,173162.100,710654.600,711075.900,258608.000,181596.800,260133.100,157915.800,0.000
174018.800,173170.700,710656.500,711077.700,258703.500,181597.500,260182.200,157924.100,0.000
174031.300,173199.800,710658.800,711080.200,258860.000,181625.900,260289.800,157953.500,0.000
174030.400,173218.200,710661.300,711082.600,259006.000,181659.700,260409.400,157976.400,0.000
174004.100,173174.500,710656.500,711077.900,259024.500,181612.900,260392.700,157928.500,0.000
174003.700,173153.900,710653.100,711074.600,259088.700,181578.400,260390.400,157908.300,0.000
174007.600,173147.600,710651.500,711072.800,259198.800,181569.300,260421.300,157911.100,0.000
174015.800,173174.800,710651.100,711071.900,259346.000,181604.700,260518.400,157942.300,0.000
173994.700,173174.800,710648.100,711069.100,259478.500,181621.300,260614.200,157949.600,0.000
173965.200,173131.300,710644.100,711065.600,259504.100,181570.900,260597.500,157904.400,0.000
173977.800,173128.400,710642.800,711064.300,259565.700,181561.000,260618.000,157906.000,0.000
174007.600,173151.100,710648.000,711069.300,259679.700,181585.800,260694.000,157945.200,0.000
174030.800,173192.000,710656.600,711077.900,259838.700,181632.300,260815.400,157990.700,0.000
174035.900,173214.300,710662.800,711084.400,259980.800,181672.400,260929.100,158017.700,0.000
174019.300,173185.600,710662.500,711083.800,260020.300,181636.200,260922.600,157982.600,0.000
174024.800,173178.600,710660.000,711081.400,260090.500,181616.500,260934.800,157972.400,0.000
174035.500,173186.000,710660.300,711081.400,260191.900,181614.500,260984.300,157988.600,0.000
174042.000,173204.800,710660.200,711081.400,260381.800,181637.500,261077.900,158033.000,0.000
174026.300,173200.500,710657.500,711078.700,260587.600,181639.900,261154.100,158041.100,0.000
174005.100,173164.900,710653.900,711075.000,260633.400,181590.400,261121.700,157981.400,0.000
174014.200,173157.800,710652.000,711073.300,260681.500,181576.400,261132.800,157966.800,0.000
174027.200,173163.500,710652.800,711074.200,260765.500,181574.900,261177.300,157974.000,0.000
174031.200,173179.900,710652.300,711073.700,260881.400,181598.400,261258.500,157989.100,0.000
174020.400,173187.200,710649.600,711071.000,260980.700,181619.600,261343.700,157989.000,0.000
174008.700,173162.200,710647.900,711069.600,260986.200,181590.500,261333.700,157950.000,0.000
174022.900,173158.800,710649.500,711071.000,261023.400,181576.800,261341.600,157942.000,0.000
174036.600,173169.100,710651.100,711072.600,261093.200,181574.100,261378.100,157952.300,0.000
174042.200,173190.500,710649.900,711071.800,261195.700,181596.600,261467.200,157975.700,0.000
174033.900,173202.600,710648.400,711069.900,261284.800,181618.800,261557.500,157980.600,0.000
174019.300,173172.700,710648.800,711070.100,261280.700,181586.600,261534.300,157937.400,0.000
174033.200,173170.700,710649.300,711070.200,261311.800,181567.200,261537.100,157932.900,0.000
174039.500,173171.800,710650.900,711071.800,261371.100,181556.900,261570.900,157938.300,0.000
174034.800,173187.700,710650.300,711071.500,261467.500,181581.800,261656.300,157957.300,0.000
174021.700,173191.700,710647.900,711069.100,261556.500,181601.300,261742.600,157963.200,0.000
174004.500,173158.600,710646.100,711067.300,261546.700,181561.900,261720.300,157920.400,0.000
174019.400,173156.600,710647.200,711068.600,261580.800,181546.000,261736.300,157921.300,0.000
174046.200,173177.700,710653.400,711074.500,261659.400,181561.100,261794.300,157950.200,0.000
174048.300,173196.600,710654.000,711075.100,261763.400,181590.800,261886.900,157977.800,0.000
174036.900,173205.100,710652.000,711073.400,261855.700,181613.200,261979.100,157990.900,0.000
174017.400,173173.800,710651.800,711073.100,261848.500,181576.200,261962.300,157952.200,0.000
174017.100,173155.700,710649.900,711071.100,261862.900,181548.800,261957.200,157934.200,0.000
174024.400,173155.200,710647.800,711069.200,261919.900,181542.900,261992.300,157938.600,0.000
174036.300,173187.000,710649.900,711071.500,262037.700,181581.000,262103.400,157971.000,0.000
174026.100,173201.900,710649.700,711071.000,262138.700,181610.300,262204.500,157979.900,0.000
174013.800,173181.000,710650.400,711071.900,262144.000,181585.200,262201.000,157947.100,0.000
174019.900,173170.100,710651.700,711073.300,262170.600,181566.000,262211.500,157936.800,0.000
174026.000,173169.100,710653.100,711074.400,262236.800,181563.900,262261.300,157951.800,0.000
174024.700,173183.500,710649.900,711071.100,262328.000,181584.800,262351.300,157970.700,0.000
174016.900,173198.700,710650.400,711071.800,262427.300,181615.000,262457.700,157986.600,0.000
174019.300,173189.600,710654.500,711076.000,262443.300,181599.800,262468.100,157968.500,0.000
174026.600,173179.600,710654.200,711075.800,262469.000,181578.700,262480.700,157959.600,0.000
174036.600,173180.700,710653.900,711075.100,262529.200,181575.800,262524.000,157967.500,0.000
174039.100,173198.700,710654.200,711075.600,262635.600,181611.400,262623.000,157994.300,0.000
174024.600,173201.500,710652.300,711073.900,262727.300,181628.400,262716.400,157999.300,0.000
174003.900,173166.800,710652.100,711073.300,262724.600,181584.200,262704.300,157956.800,0.000
174009.100,173155.400,710650.100,711071.600,262751.100,181567.900,262713.800,157948.400,0.000
174024.000,173169.600,710649.900,711071.200,262820.700,181575.300,262763.500,157970.500,0.000
174028.000,173195.000,710650.600,711071.500,262929.300,181609.100,262862.700,158004.300,0.000
174017.400,173204.500,710652.200,711072.800,263021.800,181637.500,262955.600,158015.800,0.000
174002.400,173177.500,710650.300,711071.300,263015.800,181607.800,262938.100,157976.700,0.000
174021.600,173182.700,710653.100,711074.100,263059.800,181602.400,262961.100,157980.500,0.000
174031.000,173188.300,710653.800,711075.100,263126.700,181600.200,263005.200,157993.100,0.000
174037.300,173211.900,710654.400,711075.900,263230.000,181633.700,263096.700,158019.100,0.000
174029.800,173220.400,710654.000,711075.400,263323.800,181658.900,263187.900,158026.300,0.000
174019.400,173196.600,710654.600,711075.600,263326.000,181626.300,263176.600,157991.600,0.000
174040.600,173206.500,710658.300,711079.000,263367.900,181626.200,263198.700,157999.000,0.000
174054.700,173215.500,710660.900,711081.300,263442.200,181634.300,263249.500,158015.800,0.000
174050.700,173228.900,710657.400,711078.700,263541.500,181656.300,263332.300,158029.900,0.000
174036.100,173234.100,710658.400,711080.000,263636.000,181680.700,263421.400,158037.700,0.000
174025.200,173207.300,710658.000,711079.000,263634.500,181649.200,263409.100,158004.000,0.000
174042.000,173207.900,710659.400,711080.400,263671.300,181643.800,263427.900,158003.100,0.000
174046.700,173208.900,710657.500,711078.800,263735.200,181642.400,263467.300,158010.600,0.000
174047.800,173227.600,710656.400,711077.100,263841.400,181671.600,263560.600,158034.400,0.000
174029.400,173227.300,710653.600,711074.500,263935.000,181689.400,263646.800,158036.500,0.000
174010.600,173196.900,710653.400,711073.900,263935.600,181649.100,263624.800,157992.800,0.000
174019.600,173189.500,710653.100,711074.000,263967.600,181627.400,263631.000,157981.000,0.000
174041.000,173207.800,710656.800,711078.400,264050.800,181640.700,263687.900,158002.900,0.000
174054.500,173240.300,710661.500,711082.900,264174.300,181682.500,263798.400,158040.300,0.000
174041.300,173245.300,710659.600,711080.400,264269.000,181700.600,263889.000,158044.600,0.000
174027.200,173219.100,710657.400,711078.700,264266.600,181663.600,263872.700,158004.800,0.000
174036.300,173214.000,710661.100,711082.100,264303.800,181649.000,263890.000,158001.900,0.000
174038.100,173207.200,710660.700,711081.900,264366.700,181638.700,263928.800,158011.900,0.000
174042.800,173230.400,710660.100,711081.600,264482.800,181666.700,264023.800,158038.900,0.000
174033.500,173238.800,710657.500,711078.800,264591.000,181686.900,264116.500,158043.200,0.000
174022.300,173208.600,710655.300,711076.000,264592.100,181652.300,264100.300,158000.600,0.000
174030.400,173201.800,710655.500,711076.100,264620.800,181636.400,264108.600,157993.600,0.000
174038.200,173203.300,710652.800,711074.200,264680.600,181632.600,264147.800,158004.600,0.000
174041.600,173222.500,710653.600,711074.800,264790.900,181661.800,264247.500,158032.700,0.000
174031.200,173229.100,710652.800,711073.900,264887.800,181684.700,264339.600,158038.500,0.000
174016.300,173198.700,710650.900,711071.700,264883.000,181647.200,264321.900,157995.600,0.000
174035.400,173202.600,710651.100,711072.100,264919.900,181637.600,264344.300,157997.900,0.000
174069.600,173234.100,710660.700,711081.400,265010.800,181657.600,264415.100,158035.000,0.000
174074.200,173258.600,710660.200,711080.600,265116.900,181690.400,264511.700,158063.600,0.000
174044.000,173246.000,710653.400,711074.600,265193.300,181693.900,264584.200,158056.200,0.000
174011.000,173193.900,710646.300,711067.400,265168.700,181639.000,264548.100,157999.700,0.000
174011.800,173180.100,710644.900,711066.100,265188.100,181619.500,264554.000,157984.900,0.000
174032.100,173197.500,710650.900,711071.900,265269.000,181628.000,264617.300,158008.000,0.000
174064.500,173249.400,710659.800,711080.600,265405.600,181688.900,264747.100,158067.700,0.000
174049.400,173254.500,710658.300,711079.500,265494.200,181708.800,264835.800,158075.400,0.000
174026.000,173217.800,710655.100,711076.400,265484.600,181667.000,264812.400,158029.900,0.000
174034.300,173210.600,710655.100,711076.400,265518.400,181650.700,264823.100,158025.900,0.000
174043.300,173212.100,710655.500,711076.800,265582.600,181647.800,264861.700,158037.700,0.000
174052.300,173239.300,710655.900,711077.300,265693.500,181684.300,264962.700,158067.300,0.000
174039.700,173246.600,710655.300,711076.200,265785.200,181707.000,265051.800,158071.000,0.000
174020.300,173215.700,710653.600,711074.500,265777.400,181666.400,265030.700,158026.600,0.000
174025.500,173206.300,710652.600,711073.800,265810.200,181647.700,265044.000,158019.800,0.000
174034.600,173208.200,710650.100,711071.500,265873.200,181644.500,265083.800,158027.900,0.000
174045.400,173237.900,710650.900,711071.700,265985.400,181681.800,265184.200,158062.800,0.000
174032.800,173243.800,710648.400,711069.200,266074.100,181701.900,265272.400,158069.800,0.000
174022.100,173215.100,710648.100,711068.800,266067.100,181667.300,265253.500,158031.400,0.000
174042.700,173219.000,710651.300,711072.100,266107.900,181661.000,265276.700,158036.900,0.000
174055.300,173225.300,710652.500,711073.300,266177.000,181661.100,265322.500,158050.400,0.000
174058.100,173244.900,710651.300,711072.600,266282.500,181690.300,265417.000,158071.500,0.000
174041.000,173243.400,710647.600,711068.800,266369.300,181704.100,265505.000,158072.300,0.000
174015.000,173201.800,710644.000,711064.800,266356.200,181660.300,265486.300,158025.500,0.000
174020.900,173191.500,710644.900,711065.600,266385.300,181643.300,265496.800,158013.200,0.000
174036.000,173201.700,710648.600,711069.900,266457.800,181643.300,265543.500,158025.000,0.000
174049.500,173236.800,710652.800,711074.000,266575.800,181685.200,265653.900,158064.300,0.000
174043.500,173250.100,710655.100,711076.400,266668.500,181715.400,265771.500,158084.600,0.000
174037.200,173230.200,710655.800,711076.700,266659.700,181688.600,265779.000,158054.400,0.000
174050.800,173228.600,710656.100,711076.600,266691.000,181678.400,265789.400,158052.700,0.000
174056.300,173227.500,710655.100,711075.900,266752.500,181674.200,265829.000,158063.300,0.000
174060.500,173251.800,710656.600,711077.700,266869.700,181707.400,265933.800,158093.700,0.000
174045.100,173251.200,710654.800,711076.200,266957.800,181725.800,266018.000,158094.900,0.000
174038.800,173227.200,710655.100,711076.000,266959.400,181695.800,266004.600,158060.500,0.000
174047.000,173219.800,710656.400,711077.100,266989.000,181677.700,266014.500,158050.800,0.000
174053.500,173218.200,710653.600,711074.300,267044.400,181669.400,266047.400,158053.000,0.000
174061.000,173243.700,710654.000,711074.800,267156.600,181700.000,266143.700,158081.900,0.000
174043.700,173243.800,710651.600,711072.800,267244.800,181711.400,266225.500,158083.600,0.000
174019.900,173205.600,710648.600,711069.600,267228.000,181664.800,266197.100,158034.300,0.000
174029.100,173194.800,710647.200,711068.200,267255.300,181646.000,266206.300,158028.800,0.000
174050.700,173208.300,710650.300,711071.300,267332.500,181654.500,266259.100,158052.600,0.000
174066.700,173239.300,710651.300,711072.100,267452.700,181696.500,266366.700,158090.700,0.000
174056.400,173244.500,710652.600,711073.900,267547.600,181715.700,266453.500,158100.000,0.000
174036.100,173206.200,710651.900,711073.100,267539.600,181672.000,266424.700,158053.700,0.000
174045.600,173198.200,710650.600,711071.500,267571.000,181654.200,266431.200,158047.200,0.000
174064.900,173209.900,710652.800,711073.900,267647.300,181656.800,266477.900,158067.300,0.000
174071.100,173236.100,710652.800,711073.800,267761.300,181689.100,266572.700,158094.100,0.000
174054.400,173238.400,710650.300,711071.100,267851.300,181702.600,266649.500,158089.300,0.000
174031.000,173200.200,710645.300,711066.000,267847.400,181656.000,266618.300,158040.300,0.000
174041.300,173194.100,710645.700,711066.800,267913.500,181638.500,266630.900,158034.700,0.000
174062.000,173205.500,710646.700,711067.800,268018.300,181643.200,266676.000,158053.500,0.000
174065.400,173227.500,710646.500,711067.700,268132.800,181675.100,266762.400,158078.500,0.000
174044.400,173229.100,710643.200,711064.800,268213.100,181691.300,266834.300,158076.500,0.000
174022.800,173197.800,710644.100,711065.600,268209.400,181653.400,266816.100,158036.300,0.000
174048.900,173208.600,710650.500,711071.900,268258.400,181651.700,266841.800,158040.800,0.000
174083.700,173237.000,710656.900,711077.600,268343.300,181672.700,266902.700,158070.700,0.000
174085.000,173253.900,710652.800,711073.900,268444.100,181698.300,266993.300,158092.300,0.000
174064.300,173255.500,710649.700,711071.000,268526.300,181712.300,267072.800,158092.600,0.000
174045.800,173226.800,710650.700,711071.500,268519.700,181674.400,267050.700,158051.800,0.000
174056.300,173219.600,710649.100,711069.800,268548.500,181655.500,267057.400,158043.500,0.000
174067.200,173225.000,710647.400,711068.700,268609.300,181656.800,267092.300,158052.000,0.000
174070.800,173250.600,710648.200,711069.600,268715.500,181690.200,267185.900,158080.800,0.000
174056.100,173252.800,710649.100,711069.900,268799.400,181706.500,267264.400,158084.200,0.000
174043.600,173222.500,710648.600,711069.800,268793.700,181669.700,267241.800,158045.400,0.000
174053.700,173213.300,710647.400,711068.900,268821.800,181651.500,267244.200,158036.800,0.000
174059.800,173209.300,710646.800,711067.900,268872.700,181643.900,267269.700,158038.200,0.000
174065.700,173234.600,710645.900,711066.800,268976.300,181679.800,267361.100,158065.600,0.000
174059.200,173248.300,710646.800,711067.600,269068.100,181708.400,267447.800,158077.800,0.000
174045.700,173217.200,710646.900,711067.400,269062.300,181672.800,267428.900,158039.700,0.000
174055.400,173209.100,710650.100,711070.600,269092.500,181652.700,267439.900,158036.100,0.000
174067.300,173215.600,710649.900,711071.100,269157.000,181653.100,267478.700,158048.200,0.000
174071.000,173242.800,710650.500,711071.300,269264.300,181687.700,267571.800,158074.100,0.000
174053.400,173243.400,710647.900,711068.700,269343.800,181701.500,267644.800,158070.900,0.000
174034.700,173209.700,710644.100,711065.100,269327.600,181658.700,267611.500,158025.100,0.000
174039.700,173197.400,710642.400,711063.400,269352.700,181638.200,267615.000,158016.300,0.000
174050.700,173203.900,710643.900,711064.800,269418.900,181640.600,267657.500,158030.800,0.000
174066.000,173238.200,710648.200,711068.900,269536.800,181687.600,267761.300,158070.500,0.000
174067.200,173252.300,710651.300,711071.500,269634.000,181715.600,267852.000,158088.100,0.000
174055.600,173225.000,710650.800,711071.800,269630.700,181679.100,267831.400,158051.900,0.000
174073.900,173230.800,710653.800,711074.900,269668.100,181673.200,267844.400,158056.000,0.000
174076.300,173226.800,710651.100,711072.100,269719.100,181661.800,267870.400,158058.300,0.000
174074.000,173243.800,710648.600,711069.800,269824.700,181688.500,267960.400,158080.200,0.000
174058.300,173244.900,710648.600,711069.800,269918.600,181705.100,268041.000,158084.000,0.000
174044.800,173218.000,710648.700,711069.600,269926.500,181667.800,268016.000,158043.700,0.000
174058.200,173216.300,710649.200,711070.700,269981.600,181656.400,268025.500,158045.400,0.000
174065.800,173216.500,710648.400,711069.800,270061.000,181653.100,268058.800,158058.800,0.000
174072.400,173240.600,710648.100,711069.300,270183.800,181685.200,268154.600,158086.800,0.000
174066.700,173255.000,710646.600,711067.700,270273.200,181710.100,268234.300,158093.400,0.000
174055.000,173229.500,710648.600,711069.800,270272.000,181679.500,268213.900,158054.900,0.000
174057.800,173214.500,710647.900,711068.600,270295.900,181658.100,268214.900,158042.000,0.000
174063.200,173212.400,710646.500,711067.400,270350.300,181653.200,268245.900,158046.900,0.000
174068.600,173231.100,710646.600,711067.300,270454.600,181682.000,268335.800,158070.100,0.000
174057.000,173237.100,710644.500,711064.800,270537.400,181699.500,268407.400,158068.700,0.000
174045.500,173214.300,710643.500,711064.100,270529.800,181666.400,268381.800,158025.600,0.000
174057.800,173212.800,710645.500,711066.100,270569.500,181653.800,268399.000,158024.700,0.000
174068.100,173217.300,710644.900,711065.700,270640.100,181652.500,268448.400,158041.000,0.000
174077.800,173246.100,710647.800,711068.800,270756.800,181687.700,268553.200,158073.000,0.000
174068.300,173252.200,710648.700,711069.600,270840.800,181703.100,268628.000,158074.800,0.000
174051.100,173215.000,710642.200,711063.000,270822.900,181655.500,268590.000,158023.800,0.000
174066.800,173215.400,710644.100,711064.800,270859.700,181647.300,268616.400,158025.000,0.000
174085.100,173229.300,710647.400,711067.900,270936.500,181659.600,268678.300,158051.500,0.000
174088.500,173245.600,710648.000,711069.000,271080.400,181689.100,268629.300,158069.200,0.000
174073.700,173246.300,710647.600,711068.600,271167.300,181715.500,268531.500,158051.100,0.000
174061.200,173229.500,710645.900,711066.700,271197.500,181696.400,268420.900,158018.500,0.000
174074.000,173225.900,710647.900,711068.800,271240.500,181671.600,268405.900,158020.500,0.000
174082.000,173221.500,710647.600,711068.100,271289.500,181657.000,268407.400,158024.200,0.000
174080.700,173247.700,710644.900,711066.100,271395.600,181698.000,268527.500,158056.300,0.000
174073.700,173255.200,710645.100,711066.100,271475.000,181719.300,268637.800,158068.100,0.000
174078.300,173236.000,710649.900,711070.600,271456.400,181688.300,268598.500,158032.000,0.000
174088.800,173232.400,710649.900,711070.600,271482.600,181673.100,268596.600,158030.000,0.000
174102.700,173250.800,710650.300,711071.100,271578.500,181696.300,268687.900,158070.700,0.000
174107.500,173276.000,710651.700,711072.900,271685.000,181736.600,268802.300,158103.700,0.000
174078.600,173257.000,710646.800,711067.500,271727.600,181723.500,268833.500,158078.800,0.000
174055.800,173222.100,710641.500,711061.600,271698.600,181673.500,268793.400,158025.900,0.000
174070.500,173227.300,710643.600,711063.900,271738.600,181675.700,268834.500,158033.400,0.000
174084.200,173233.500,710645.100,711065.700,271809.800,181682.400,268891.800,158051.300,0.000
174081.700,173243.300,710643.600,711063.600,271898.700,181700.400,268969.600,158065.000,0.000
174074.000,173250.300,710646.200,711066.300,271969.400,181715.900,269049.800,158068.800,0.000
174070.300,173232.000,710646.200,711066.700,271963.100,181690.800,269041.200,158044.600,0.000
174090.300,173235.700,710647.000,711067.700,271992.600,181681.500,269053.900,158051.500,0.000
174099.900,173240.000,710648.300,711068.800,272056.800,181680.800,269102.600,158068.200,0.000
174103.200,173260.200,710648.600,711069.300,272157.500,181715.100,269205.800,158096.900,0.000
174095.600,173263.000,710650.800,711071.600,272227.500,181731.100,269279.900,158101.200,0.000
174082.800,173234.400,710650.400,711071.000,272205.900,181693.000,269246.800,158059.700,0.000
174082.900,173222.300,710647.400,711067.900,272226.900,181670.000,269254.100,158049.100,0.000
174095.600,173236.700,710647.400,711068.200,272300.500,181680.700,269313.800,158067.400,0.000
174111.100,173271.900,710652.200,711073.100,272417.200,181727.800,269423.600,158106.100,0.000
174099.100,173273.500,710651.300,711071.700,272479.900,181735.200,269484.400,158101.200,0.000
174089.800,173246.100,710650.300,711070.900,272463.100,181698.200,269457.500,158064.200,0.000
174102.900,173243.100,710652.200,711072.400,272493.100,181689.600,269472.100,158065.900,0.000
174110.600,173244.500,710653.100,711073.300,272554.800,181684.200,269517.700,158078.700,0.000
174113.300,173263.500,710653.200,711073.300,272653.300,181708.300,269611.300,158105.000,0.000
174100.300,173263.400,710653.100,711073.400,272718.000,181718.000,269677.700,158104.500,0.000
174094.300,173242.700,710651.800,711072.300,272700.900,181687.400,269650.000,158068.200,0.000
