EEG 1, EEG 2, EEG 3, EEG 4, EEG 5, EEG 6, EEG 7, EEG 8, TRIG
750000.100,750000.100,162213.800,701159.700,-750000.100,-592977.900,750000.100,-750000.100,0.000
750000.100,750000.100,226419.500,576762.200,-214153.300,561919.600,750000.100,-293549.800,0.000
577697.100,750000.100,351238.400,652729.900,496004.600,750000.100,750000.100,-1013.249,0.000
495709.400,750000.100,630791.200,737423.900,262638.500,750000.100,750000.100,9237.619,0.000
517867.000,750000.100,550101.900,750000.100,-194685.000,750000.100,750000.100,-43116.700,0.000
467996.200,476502.700,587871.800,750000.100,-257121.700,750000.100,750000.100,-620150.900,0.000
468594.900,172336.500,683240.400,750000.100,-750000.100,750000.100,750000.100,-433367.200,0.000
750000.100,568193.500,750000.100,750000.100,-562728.500,750000.100,750000.100,-52936.000,0.000
750000.100,750000.100,750000.100,750000.100,-712725.800,750000.100,750000.100,162684.000,0.000
750000.100,750000.100,750000.100,750000.100,-750000.100,750000.100,750000.100,263873.300,0.000
750000.100,750000.100,750000.100,750000.100,-446157.800,750000.100,750000.100,295569.800,0.000
750000.100,750000.100,750000.100,750000.100,-691631.800,750000.100,750000.100,299685.100,0.000
750000.100,750000.100,750000.100,750000.100,-679014.400,750000.100,639116.800,293906.400,0.000
750000.100,750000.100,750000.100,750000.100,-538803.300,669708.000,540668.500,282695.600,0.000
710404.400,698855.400,750000.100,750000.100,-434777.600,582361.700,465241.900,268335.000,0.000
609690.400,600193.400,750000.100,750000.100,-354841.000,510014.800,404069.400,251780.100,0.000
526907.100,518919.700,750000.100,750000.100,-291352.900,448483.400,353032.200,234322.500,0.000
457695.200,450877.900,750000.100,750000.100,-240335.300,395583.100,310051.300,216919.700,0.000
399615.200,393726.500,750000.100,750000.100,-199392.700,350302.100,273478.400,200177.600,0.000
351958.900,347056.800,750000.100,750000.100,-166202.200,312535.200,243261.000,184809.800,0.000
324898.500,320477.600,750000.100,750000.100,-145013.800,291726.000,226546.700,177741.000,0.000
314264.000,310060.200,750000.100,750000.100,-132602.900,284958.400,220897.700,178161.400,0.000
305768.400,301767.700,750000.100,750000.100,-121713.700,279713.700,216625.900,178924.000,0.000
297938.800,294131.500,750000.100,750000.100,-111652.700,274764.700,212710.300,179360.200,0.000
290728.900,287135.500,750000.100,750000.100,-102246.500,270161.400,209233.900,179594.900,0.000
284006.200,280562.500,750000.100,750000.100,-93711.750,265675.600,205826.900,179495.200,0.000
277808.000,274475.200,750000.100,750000.100,-85796.020,261417.900,202636.400,179245.400,0.000
272071.100,268850.300,750000.100,750000.100,-78343.490,257431.200,199762.600,178923.500,0.000
266720.700,263618.000,750000.100,750000.100,-71376.630,253670.900,197117.200,178490.200,0.000
261745.900,258786.500,750000.100,750000.100,-64748.270,250182.300,194794.300,178024.200,0.000
257057.400,254192.400,750000.100,750000.100,-58676.820,246774.900,192480.700,177394.000,0.000
252708.800,249905.200,750000.100,750000.100,-52990.090,243542.500,190293.200,176736.000,0.000
248663.900,245930.100,750000.100,750000.100,-47546.540,240522.800,188335.200,176101.600,0.000
244863.500,242217.900,750000.100,750000.100,-42383.290,237671.800,186545.300,175447.600,0.000
241284.100,238741.800,750000.100,750000.100,-37433.540,235004.100,184966.900,174796.900,0.000
237896.200,235417.200,750000.100,750000.100,-32864.750,232396.100,183360.200,174061.900,0.000
234739.800,232299.100,750000.100,750000.100,-28544.970,229913.300,181829.300,173336.400,0.000
231763.100,229368.500,750000.100,750000.100,-24389.690,227568.900,180445.700,172636.500,0.000
228961.400,226627.500,750000.100,750000.100,-20389.530,225369.200,179199.000,171960.400,0.000
226315.500,224060.500,750000.100,750000.100,-16498.090,223328.500,178132.600,171321.300,0.000
223798.500,221579.800,750000.100,750000.100,-12896.870,221309.500,177010.000,170615.100,0.000
221442.200,219241.800,750000.100,750000.100,-9465.070,219378.200,175935.600,169934.000,0.000
219216.900,217046.300,750000.100,750000.100,-6125.451,217562.800,174978.400,169291.900,0.000
217112.700,214988.900,750000.100,750000.100,-2883.554,215863.900,174127.500,168686.800,0.000
215110.800,213051.100,750000.100,750000.100,298.530,214283.400,173424.300,168119.500,0.000
213178.800,211142.400,750000.100,750000.100,3232.510,212692.100,172634.400,167477.700,0.000
211392.200,209357.500,750000.100,750000.100,6054.015,211187.100,171879.200,166874.500,0.000
209718.300,207707.700,750000.100,750000.100,8848.251,209793.800,171244.200,166338.000,0.000
208105.800,206134.400,750000.100,750000.100,11560.320,208473.800,170677.100,165817.900,0.000
206579.400,204664.100,750000.100,750000.100,14240.650,207258.600,170234.100,165340.000,0.000
205097.300,203202.500,750000.100,750000.100,16706.230,206012.700,169690.700,164793.600,0.000
203712.900,201817.800,750000.100,750000.100,19086.330,204820.500,169162.800,164284.900,0.000
202418.200,200534.800,750000.100,750000.100,21459.460,203724.000,168736.900,163837.700,0.000
201168.700,199313.900,750000.100,750000.100,23772.060,202681.100,168358.200,163405.400,0.000
199985.000,198175.500,750000.100,750000.100,26087.080,201733.500,168105.200,163025.300,0.000
198835.100,197041.600,750000.100,750000.100,28223.640,200754.300,167759.100,162588.700,0.000
197756.100,195957.300,750000.100,750000.100,30276.870,199807.300,167404.800,162170.900,0.000
196734.800,194941.500,750000.100,750000.100,32329.030,198924.600,167131.400,161801.300,0.000
195770.500,193999.000,750000.100,750000.100,34358.660,198110.800,166916.800,161461.800,0.000
194844.500,193119.200,750000.100,750000.100,36396.330,197374.800,166808.000,161157.800,0.000
193938.900,192228.900,750000.100,750000.100,38270.120,196599.600,166601.000,160794.200,0.000
193100.100,191387.100,750000.100,750000.100,40083.650,195854.400,166386.300,160454.200,0.000
192308.100,190600.900,750000.100,750000.100,41912.470,195171.800,166249.600,160167.500,0.000
191552.000,189864.600,750000.100,750000.100,43721.890,194538.200,166157.300,159904.600,0.000
190811.400,189163.000,750000.100,750000.100,45527.550,193955.300,166140.000,159659.400,0.000
190076.200,188436.300,750000.100,750000.100,47179.530,193323.000,166016.100,159348.200,0.000
189416.000,187769.100,750000.100,750000.100,48799.670,192728.700,165898.100,159073.300,0.000
188808.400,187164.400,750000.100,750000.100,50451.200,192195.800,165864.700,158860.000,0.000
188206.900,186582.000,750000.100,750000.100,52081.540,191693.000,165864.900,158658.300,0.000
187625.100,186034.600,750000.100,750000.100,53726.530,191241.400,165943.900,158479.200,0.000
187046.500,185455.900,750000.100,750000.100,55227.050,190738.900,165914.700,158235.300,0.000
186526.900,184924.600,750000.100,750000.100,56690.380,190261.900,165876.200,158016.000,0.000
186032.100,184427.700,750000.100,750000.100,58177.210,189828.500,165898.900,157841.300,0.000
185557.300,183967.200,750000.100,750000.100,59663.430,189437.100,165966.400,157690.100,0.000
185096.500,183541.000,750000.100,750000.100,61172.350,189093.800,166112.400,157563.400,0.000
184631.000,183077.400,750000.100,750000.100,62539.110,188687.500,166142.200,157371.100,0.000
184210.300,182644.300,750000.100,750000.100,63871.810,188298.300,166162.800,157201.900,0.000
183816.400,182247.700,750000.100,750000.100,65235.000,187953.300,166242.400,157073.100,0.000
183438.800,181883.300,748900.900,749343.300,66596.220,187643.700,166356.400,156960.100,0.000
183079.500,181555.300,747380.600,747821.800,67990.520,187384.300,166552.000,156877.500,0.000
182718.500,181196.800,745929.900,746370.300,69269.310,187078.800,166652.200,156743.000,0.000
182383.000,180847.200,744539.100,744978.700,70495.980,186762.900,166714.300,156606.000,0.000
182064.000,180528.400,743208.800,743647.600,71753.400,186482.800,166829.300,156504.800,0.000
181757.200,180229.400,741937.500,742375.800,73008.040,186228.300,166972.000,156418.600,0.000
181468.800,179973.100,740720.200,741158.300,74302.120,186027.400,167201.800,156365.800,0.000
181160.300,179665.800,739551.800,739989.100,75465.390,185765.500,167319.700,156242.700,0.000
180891.200,179384.400,738437.900,738874.100,76599.340,185517.700,167418.500,156140.000,0.000
180656.500,179147.400,737377.200,737812.400,77779.700,185314.600,167583.200,156084.200,0.000
180418.500,178922.600,736362.700,736797.200,78957.810,185131.500,167773.800,156036.700,0.000
180177.600,178710.300,735385.800,735820.200,80151.930,184976.700,168019.200,155996.700,0.000
179937.700,178470.100,734450.400,734884.400,81235.540,184769.500,168159.600,155903.500,0.000
179724.600,178237.600,733555.900,733989.500,82284.020,184560.500,168279.200,155821.400,0.000
179528.400,178033.800,732701.100,733133.400,83370.310,184386.800,168455.600,155776.300,0.000
179338.400,177855.000,731883.300,732315.100,84466.170,184238.700,168659.200,155743.400,0.000
179150.900,177696.600,731099.900,731531.300,85595.020,184129.000,168932.900,155732.900,0.000
178944.600,177488.000,730345.000,730776.000,86597.280,183953.400,169087.900,155655.500,0.000
178780.700,177312.300,729628.800,730059.000,87582.550,183797.800,169231.000,155601.100,0.000
178633.900,177163.800,728944.000,729373.800,88614.120,183668.600,169438.700,155589.200,0.000
178477.300,177014.000,728283.900,728713.300,89631.210,183545.600,169652.900,155569.800,0.000
178333.500,176895.600,727653.300,728082.400,90693.190,183474.000,169940.400,155578.700,0.000
178171.000,176730.700,727047.600,727476.400,91638.050,183336.900,170117.900,155522.900,0.000
178024.900,176570.400,726463.800,726892.100,92542.480,183190.100,170258.900,155466.700,0.000
177906.100,176446.800,725909.400,726337.300,93499.230,183084.300,170465.400,155459.000,0.000
177780.100,176325.700,725376.600,725803.900,94457.230,182992.800,170687.300,155451.900,0.000
177664.800,176234.900,724866.700,725293.300,95457.780,182945.900,170982.700,155469.600,0.000
177533.000,176106.000,724377.200,724803.600,96347.910,182841.700,171175.800,155428.600,0.000
177431.200,175991.300,723911.300,724337.600,97217.660,182737.500,171351.300,155405.400,0.000
177335.500,175884.900,723462.000,723888.400,98110.570,182649.300,171559.700,155402.300,0.000
177229.800,175778.500,723028.300,723454.500,98997.940,182570.000,171778.800,155394.800,0.000
177139.200,175717.000,722618.800,723044.800,99947.260,182548.600,172089.300,155427.700,0.000
177018.800,175602.400,722223.300,722648.900,100777.900,182456.200,172282.400,155385.800,0.000
176925.800,175494.400,721841.300,722266.600,101576.000,182357.500,172441.800,155352.900,0.000
176855.200,175415.300,721478.100,721903.200,102425.000,182296.300,172659.500,155362.600,0.000
176776.400,175340.900,721129.300,721554.300,103272.200,182245.200,172889.800,155369.000,0.000
176705.400,175298.200,720796.800,721221.400,104171.300,182239.400,173201.700,155408.800,0.000
176605.800,175200.800,720471.300,720895.600,104954.700,182162.800,173398.400,155382.000,0.000
176526.100,175104.500,720160.800,720585.300,105704.000,182075.300,173560.000,155356.500,0.000
176469.800,175042.200,719867.800,720291.600,106505.500,182024.200,173780.500,155374.000,0.000
176406.300,174987.900,719587.700,720011.500,107313.700,181987.500,174019.400,155394.600,0.000
176342.200,174951.100,719315.600,719739.300,108159.500,181987.700,174321.500,155432.400,0.000
176262.200,174876.800,719055.000,719478.400,108902.300,181928.400,174525.100,155412.600,0.000
176199.200,174799.000,718801.400,719224.800,109607.500,181854.400,174689.900,155393.700,0.000
176154.900,174746.300,718559.900,718983.100,110360.000,181812.900,174911.300,155418.300,0.000
176106.700,174704.600,718330.200,718753.300,111121.600,181788.400,175150.500,155445.800,0.000
176058.600,174683.800,718108.900,718531.600,111927.400,181801.000,175458.700,155492.300,0.000
175986.200,174609.600,717892.800,718315.300,112618.400,181747.200,175654.100,155474.400,0.000
175941.600,174544.300,717685.600,718108.000,113282.500,181688.600,175818.700,155466.000,0.000
175909.000,174501.100,717488.600,717911.000,113990.000,181653.100,176032.900,155490.100,0.000
175871.200,174469.000,717300.900,717722.900,114709.400,181638.400,176268.700,155521.300,0.000
175842.100,174463.800,717123.100,717544.900,115481.500,181664.600,176580.200,155577.300,0.000
175775.100,174394.000,716942.400,717364.300,116124.100,181607.400,176764.000,155551.100,0.000
175724.900,174329.800,716769.800,717191.900,116745.000,181546.200,176918.600,155531.400,0.000
175712.800,174311.600,716611.600,717033.100,117436.700,181536.300,177148.700,155569.800,0.000
175686.200,174288.300,716457.800,716879.600,118118.700,181521.700,177384.400,155598.900,0.000
175652.800,174282.200,716308.100,716730.000,118844.500,181546.200,177686.900,155646.300,0.000
175604.400,174233.100,716165.300,716586.900,119469.600,181515.300,177887.500,155641.100,0.000
175582.400,174199.500,716032.400,716453.600,120075.600,181487.000,178063.800,155649.700,0.000
175556.400,174169.200,715897.000,716318.000,120710.000,181461.500,178269.700,155672.700,0.000
175514.300,174129.800,715761.600,716182.900,121339.000,181433.700,178480.200,155687.200,0.000
175490.500,174129.800,715640.400,716061.300,122036.100,181467.500,178783.700,155743.800,0.000
175449.100,174088.700,715522.600,715943.200,122627.100,181440.400,178978.800,155739.300,0.000
175424.200,174047.100,715409.000,715829.700,123185.100,181403.100,179137.000,155737.500,0.000
175408.400,174024.700,715297.800,715718.400,123785.100,181388.300,179341.300,155763.800,0.000
175390.200,174012.900,715190.700,715611.300,124395.200,181388.300,179565.400,155795.500,0.000
175368.400,174017.400,715086.400,715507.400,125049.800,181421.500,179855.200,155844.900,0.000
175327.500,173973.600,714987.400,715407.900,125602.300,181390.900,180039.100,155835.500,0.000
175300.500,173926.400,714891.400,715311.600,126122.000,181342.700,180181.500,155821.900,0.000
175299.600,173917.000,714800.700,715221.600,126703.200,181338.000,180389.400,155855.500,0.000
175281.800,173907.100,714712.200,715132.600,127290.000,181340.500,180613.000,155891.600,0.000
175264.800,173916.400,714628.400,715048.400,127922.500,181379.200,180903.000,155949.100,0.000
175224.000,173872.300,714547.100,714966.700,128443.900,181352.100,181079.500,155941.300,0.000
175199.200,173829.700,714466.800,714886.500,128935.200,181311.200,181220.400,155932.500,0.000
175194.200,173817.700,714389.100,714808.800,129480.400,181303.800,181419.800,155962.700,0.000
175185.800,173815.200,714316.600,714735.800,130036.700,181309.000,181639.000,155996.800,0.000
175173.600,173825.900,714245.400,714665.100,130634.900,181347.800,181921.800,156048.500,0.000
175138.700,173786.700,714175.400,714595.100,131127.200,181322.700,182096.400,156036.700,0.000
175127.400,173755.400,714109.800,714529.300,131593.800,181291.100,182240.500,156031.800,0.000
175112.900,173739.300,714043.100,714462.200,132096.800,181273.200,182420.800,156049.300,0.000
175101.300,173741.100,713978.900,714398.200,132621.000,181283.500,182631.000,156084.000,0.000
175099.200,173767.300,713923.900,714343.100,133209.900,181338.200,182926.600,156151.800,0.000
175068.300,173729.500,713865.300,714284.100,133680.400,181314.500,183101.200,156141.800,0.000
175059.700,173699.600,713807.600,714226.700,134121.900,181283.300,183238.800,156135.300,0.000
175064.900,173696.000,713755.100,714173.900,134613.000,181281.000,183426.800,156170.100,0.000
175061.500,173697.800,713704.200,714123.200,135113.900,181291.500,183632.200,156217.700,0.000
175038.200,173697.900,713648.800,714068.200,135637.900,181313.900,183881.900,156260.900,0.000
175008.600,173667.300,713597.700,714016.800,136075.900,181291.100,184041.500,156243.500,0.000
174997.900,173639.200,713550.300,713969.300,136493.100,181262.500,184173.800,156237.100,0.000
174999.400,173628.300,713504.000,713922.900,136955.600,181256.600,184353.400,156260.500,0.000
174993.500,173629.900,713459.600,713878.100,137430.800,181266.800,184554.900,156293.200,0.000
174988.200,173654.100,713418.600,713837.300,137962.000,181316.900,184831.100,156351.000,0.000
174957.000,173623.400,713376.200,713795.100,138386.900,181301.200,184995.800,156338.300,0.000
174940.000,173582.800,713333.100,713751.500,138771.300,181259.800,185111.300,156320.200,0.000
174942.700,173574.100,713289.600,713708.100,139206.000,181250.200,185276.400,156341.000,0.000
174944.500,173584.700,713253.400,713672.100,139662.900,181267.100,185472.900,156378.700,0.000
174945.100,173613.200,713218.300,713637.300,140169.000,181321.700,185741.800,156433.400,0.000
174918.600,173587.300,713180.600,713599.100,140562.600,181303.100,185892.400,156417.900,0.000
174907.900,173560.700,713143.300,713561.400,140933.300,181271.400,186011.400,156405.200,0.000
174919.900,173562.900,713111.700,713530.100,141365.200,181277.900,186194.700,156439.200,0.000
174917.300,173561.700,713080.500,713499.100,141798.000,181289.800,186385.000,156468.300,0.000
174913.200,173580.600,713051.200,713469.600,142280.600,181333.900,186644.200,156520.200,0.000
174893.600,173558.300,713018.400,713436.100,142660.500,181317.200,186799.000,156512.200,0.000
174893.700,173545.400,712990.100,713408.000,143018.500,181300.000,186922.800,156513.900,0.000
174898.200,173541.400,712960.700,713378.900,143416.500,181301.700,187088.000,156543.700,0.000
174886.400,173536.500,712929.600,713347.600,143817.800,181304.700,187266.300,156569.200,0.000
174886.400,173562.600,712903.600,713321.800,144282.100,181358.800,187528.200,156629.800,0.000
174857.000,173532.800,712873.900,713292.100,144635.500,181341.000,187672.900,156618.700,0.000
174842.400,173502.800,712845.300,713263.500,144961.900,181308.800,187778.200,156607.700,0.000
174853.300,173508.900,712821.200,713239.300,145352.600,181318.700,187946.500,156642.000,0.000
174857.500,173521.300,712797.900,713216.200,145753.800,181342.100,188136.000,156682.000,0.000
174863.400,173553.300,712776.400,713194.800,146205.700,181400.400,188398.900,156743.000,0.000
174840.300,173525.100,712754.600,713172.300,146545.500,181382.300,188539.700,156730.900,0.000
174828.600,173496.300,712733.100,713150.500,146857.900,181351.700,188642.800,156720.800,0.000
174835.400,173495.000,712708.300,713125.600,147222.600,181351.600,188800.900,156749.500,0.000
174827.100,173495.000,712684.600,713102.100,147588.000,181357.700,188967.100,156774.100,0.000
174833.600,173529.500,712666.400,713083.800,148025.200,181418.800,189226.400,156838.700,0.000
174813.400,173508.500,712645.300,713062.800,148353.000,181408.500,189371.700,156831.000,0.000
174804.200,173484.900,712623.600,713041.300,148651.700,181379.800,189474.500,156817.300,0.000
174814.000,173486.500,712603.300,713021.200,149003.700,181380.000,189627.700,156840.300,0.000
174806.600,173483.600,712581.700,712999.300,149355.800,181385.200,189785.800,156857.600,0.000
174810.800,173515.600,712566.900,712984.300,149775.000,181441.100,190034.100,156916.300,0.000
174795.900,173501.700,712552.200,712969.600,150095.500,181433.700,190179.700,156911.300,0.000
174785.200,173473.600,712536.000,712953.100,150374.800,181402.300,190274.700,156894.500,0.000
174784.000,173464.200,712515.900,712933.300,150699.400,181394.800,190414.600,156907.800,0.000
174788.700,173479.700,712498.100,712915.300,151047.900,181411.100,190586.000,156940.200,0.000
174788.500,173506.100,712482.100,712899.600,151443.700,181464.300,190824.200,156991.700,0.000
174767.300,173477.900,712465.400,712882.800,151733.100,181449.400,190950.500,156975.200,0.000
174772.600,173463.700,712449.400,712867.000,152005.900,181428.400,191050.500,156965.800,0.000
174781.400,173463.000,712434.600,712852.100,152326.400,181429.800,191198.400,156987.000,0.000
174784.000,173469.800,712421.600,712838.500,152660.900,181443.300,191366.100,157014.900,0.000
174782.800,173494.300,712406.300,712823.200,153038.600,181488.800,191598.700,157056.600,0.000
174765.600,173472.900,712392.900,712809.600,153318.700,181468.500,191726.100,157038.200,0.000
174772.200,173457.500,712379.800,712796.600,153577.500,181446.800,191823.100,157029.600,0.000
174781.300,173457.500,712366.900,712783.400,153888.600,181447.000,191972.000,157052.800,0.000
174778.900,173459.000,712350.600,712767.100,154194.900,181451.500,192123.200,157067.100,0.000
174777.000,173481.800,712335.400,712752.400,154551.100,181490.700,192345.700,157105.400,0.000
174763.500,173465.700,712325.000,712742.000,154818.900,181476.400,192474.400,157091.400,0.000
174763.700,173448.500,712314.800,712731.900,155066.600,181455.000,192572.300,157084.800,0.000
174777.600,173453.700,712306.700,712723.700,155371.400,181460.600,192723.200,157114.400,0.000
174777.800,173455.300,712290.500,712707.400,155657.800,181458.500,192860.300,157127.300,0.000
174772.100,173470.800,712269.800,712686.500,155979.300,181489.000,193056.000,157155.800,0.000
174755.300,173455.100,712258.600,712674.900,156238.700,181482.700,193182.500,157148.800,0.000
174753.900,173439.500,712249.200,712665.400,156476.300,181462.600,193275.400,157138.900,0.000
174765.500,173445.200,712242.300,712658.700,156764.300,181469.000,193419.400,157161.100,0.000
174766.700,173448.900,712229.800,712646.400,157047.200,181474.200,193565.800,157178.500,0.000
174766.800,173473.600,712218.100,712634.600,157387.200,181521.800,193788.900,157224.800,0.000
174757.200,173459.700,712209.900,712626.300,157634.400,181514.600,193914.500,157217.300,0.000
174753.400,173438.500,712198.900,712615.100,157838.100,181485.500,193990.400,157199.200,0.000
174756.900,173433.500,712189.200,712605.500,158084.600,181478.800,194116.500,157208.100,0.000
174753.800,173438.500,712180.000,712596.300,158355.000,181486.700,194262.200,157230.800,0.000
174751.400,173461.600,712167.400,712584.200,158684.800,181531.400,194473.000,157275.700,0.000
174740.200,173449.400,712159.300,712576.300,158936.500,181526.000,194593.300,157275.400,0.000
174740.300,173434.200,712151.800,712568.300,159155.300,181509.000,194685.900,157276.800,0.000
174755.200,173436.200,712142.600,712559.300,159407.500,181514.400,194823.100,157303.200,0.000
174762.800,173443.300,712134.600,712551.300,159670.400,181526.800,194958.500,157324.400,0.000
174758.400,173468.800,712124.300,712540.800,159984.100,181571.500,195165.300,157363.100,0.000
174732.800,173445.600,712115.100,712531.400,160203.500,181554.600,195283.500,157346.400,0.000
174735.000,173428.100,712106.100,712522.300,160397.400,181520.400,195362.300,157330.500,0.000
174755.200,173432.800,712098.600,712515.200,160641.300,181520.000,195484.000,157354.200,0.000
174760.200,173441.300,712092.400,712509.100,160903.300,181535.900,195622.800,157406.500,0.000
174760.300,173469.800,712085.200,712501.600,161219.800,181586.800,195841.100,157481.400,0.000
174740.500,173453.900,712076.200,712492.300,161428.200,181574.500,195951.000,157451.600,0.000
174734.500,173433.300,712067.900,712484.100,161601.500,181546.200,196017.800,157421.900,0.000
174746.800,173436.500,712061.900,712478.500,161826.600,181545.700,196159.100,157438.900,0.000
174746.000,173442.000,712054.600,712471.100,162065.200,181549.100,196300.300,157456.700,0.000
174750.500,173470.700,712048.900,712464.900,162363.300,181599.500,196506.400,157499.000,0.000
174729.900,173446.700,712040.700,712457.000,162556.400,181583.600,196602.300,157476.500,0.000
174719.800,173420.800,712030.600,712446.900,162717.300,181547.700,196656.100,157448.800,0.000
174725.400,173420.400,712025.300,712441.900,162934.800,181548.000,196769.000,157468.100,0.000
174730.100,173433.400,712019.900,712436.500,163173.400,181566.500,196903.000,157495.000,0.000
174730.400,173461.600,712012.400,712429.000,163461.100,181616.900,197107.400,157539.300,0.000
174713.000,173438.200,712003.900,712420.300,163648.800,181602.500,197206.000,157521.300,0.000
174712.400,173421.000,711998.900,712415.100,163812.400,181576.200,197269.300,157508.400,0.000
174726.100,173426.800,711995.000,712410.800,164029.100,181576.100,197383.700,157531.300,0.000
174730.000,173429.400,711985.600,712401.700,164242.800,181576.500,197504.100,157547.200,0.000
174741.400,173461.700,711982.300,712398.300,164526.200,181630.800,197710.900,157597.100,0.000
174719.000,173432.000,711974.100,712390.100,164699.600,181610.200,197797.700,157576.100,0.000
174710.800,173407.800,711964.900,712380.800,164839.800,181574.800,197843.300,157553.200,0.000
174719.400,173411.800,711958.400,712374.300,165045.100,181576.700,197954.000,157573.300,0.000
174727.500,173423.400,711956.600,712372.300,165268.800,181598.200,198085.700,157601.300,0.000
174733.300,173452.800,711951.600,712367.500,165539.500,181648.000,198283.900,157645.500,0.000
174712.100,173432.800,711943.100,712358.800,165706.500,181631.200,198371.400,157621.300,0.000
174714.500,173417.400,711939.900,712355.900,165857.500,181614.300,198432.000,157609.400,0.000
174722.700,173416.100,711934.000,712349.600,166051.000,181612.700,198532.200,157625.000,0.000
174717.300,173413.600,711927.500,712343.100,166256.600,181618.300,198649.300,157640.300,0.000
174715.400,173434.800,711922.100,712338.100,166514.000,181661.000,198839.300,157679.900,0.000
174706.000,173428.000,711917.700,712333.800,166685.400,181654.500,198936.200,157666.500,0.000
174708.600,173413.500,711914.100,712329.500,166829.500,181635.000,198994.300,157656.800,0.000
174715.500,173412.800,711908.800,712324.000,167014.900,181637.500,199094.200,157673.400,0.000
174721.700,173425.900,711904.000,712319.300,167216.900,181652.300,199214.900,157696.100,0.000
174727.100,173459.300,711900.600,712315.600,167475.400,181702.600,199407.800,157741.400,0.000
174699.100,173427.700,711894.900,712309.800,167626.100,181678.000,199486.600,157713.400,0.000
174700.000,173408.800,711893.100,712307.800,167760.300,181652.000,199537.100,157695.900,0.000
174713.600,173413.600,711889.800,712304.400,167939.800,181651.900,199634.100,157712.000,0.000
174714.800,173421.900,711882.000,712296.800,168127.200,181657.000,199745.300,157726.500,0.000
174711.900,173442.200,711874.400,712289.500,168363.000,181696.500,199923.200,157760.800,0.000
174691.700,173420.000,711869.000,712283.800,168508.500,181679.900,200001.700,157739.200,0.000
174696.500,173406.500,711865.000,712279.600,168638.500,181653.600,200050.900,157727.000,0.000
174709.800,173413.000,711862.100,712277.100,168817.700,181655.400,200150.800,157751.300,0.000
174709.000,173415.900,711855.500,712270.400,169000.100,181663.000,200261.000,157769.300,0.000
174718.400,173450.100,711854.400,712269.100,169246.300,181715.400,200455.300,157818.100,0.000
174703.500,173433.200,711848.800,712263.100,169391.500,181702.000,200541.500,157800.800,0.000
174701.200,173410.000,711844.100,712258.800,169508.000,181671.200,200586.200,157781.700,0.000
174706.500,173405.100,711837.000,712251.900,169665.800,181664.300,200673.000,157790.500,0.000
174714.300,173419.900,711834.300,712248.900,169849.700,181679.300,200789.700,157814.700,0.000
174711.900,173447.100,711830.900,712245.600,170083.900,181725.800,200972.900,157853.700,0.000
174687.200,173419.100,711825.600,712240.500,170214.000,181708.700,201047.600,157826.800,0.000
174688.100,173400.700,711820.500,712235.100,170316.900,181677.700,201083.200,157803.200,0.000
174707.900,173410.500,711817.400,712231.600,170485.100,181678.800,201180.800,157826.400,0.000
174715.900,173422.600,711813.700,712227.600,170668.400,181694.800,201295.400,157853.500,0.000
174710.200,173443.700,711810.500,712224.300,170890.100,181737.500,201467.300,157890.600,0.000
174693.900,173424.800,711806.400,712220.400,171016.200,181719.300,201538.800,157865.500,0.000
174696.000,173406.100,711800.200,712213.900,171115.500,181689.900,201573.000,157843.000,0.000
174714.000,173414.900,711798.600,712212.400,171278.400,181693.700,201669.800,157866.600,0.000
174717.000,173424.000,711794.800,712208.600,171447.600,181702.300,201776.900,157885.400,0.000
174722.300,173454.400,711792.300,712206.000,171669.500,181750.200,201958.200,157927.200,0.000
174699.900,173431.000,711788.000,712201.100,171787.100,181727.200,202024.400,157899.700,0.000
174701.200,173416.900,711784.100,712196.900,171883.400,181700.400,202057.800,157877.900,0.000
174726.200,173434.300,711782.800,712195.600,172045.000,181713.600,202160.600,157906.400,0.000
174726.500,173436.900,711777.800,712190.600,172209.600,181718.600,202267.200,157923.200,0.000
174721.000,173453.600,711771.500,712183.900,172417.700,181757.600,202435.600,157955.600,0.000
174707.000,173434.400,711768.400,712180.600,172536.500,181739.900,202505.400,157935.000,0.000
174706.800,173418.000,711765.300,712177.400,172627.000,181710.700,202536.300,157914.900,0.000
174713.100,173414.100,711760.800,712172.900,172763.900,181702.600,202613.100,157921.900,0.000
174725.200,173427.700,711761.200,712172.900,172928.200,181720.400,202720.600,157947.000,0.000
174737.200,173463.700,711760.100,712171.400,173144.000,181775.200,202896.900,157995.000,0.000
174717.600,173444.500,711757.000,712168.400,173256.800,181760.100,202963.600,157974.800,0.000
174711.300,173423.900,711753.000,712164.500,173343.900,181734.500,202996.900,157959.400,0.000
174723.400,173430.200,711749.700,712160.700,173483.800,181735.900,203082.000,157979.000,0.000
174724.100,173434.900,711745.600,712156.600,173632.700,181740.200,203176.700,157992.900,0.000
174720.600,173456.100,711742.300,712153.100,173831.800,181780.100,203339.500,158026.900,0.000
174699.100,173433.500,711737.100,712147.600,173932.300,181763.800,203400.300,158006.100,0.000
174699.500,173417.500,711734.500,712145.600,174013.800,181735.500,203429.700,157985.900,0.000
174714.000,173423.200,711731.500,712142.500,174147.500,181734.100,203511.100,157998.800,0.000
174719.400,173431.800,711731.400,712142.200,174298.500,181744.500,203610.700,158020.000,0.000
174717.200,173456.900,711729.400,712139.400,174496.600,181785.000,203775.300,158056.200,0.000
174702.000,173440.800,711725.400,712135.000,174606.400,181770.100,203844.000,158038.400,0.000
174704.500,173421.500,711720.800,712130.800,174696.800,181741.500,203865.000,158014.700,0.000
174716.300,173424.700,711718.800,712128.700,174902.700,181738.000,203934.900,158026.000,0.000
174718.600,173429.300,711715.300,712124.400,175135.800,181734.300,204010.600,158036.600,0.000
174723.900,173461.500,711713.400,712122.400,175358.600,181782.900,204173.500,158077.200,0.000
174699.000,173441.700,711707.100,712116.600,175441.800,181768.100,204229.800,158052.200,0.000
174699.800,173424.900,711704.700,712113.800,175507.800,181745.300,204258.700,158035.900,0.000
174717.400,173430.000,711704.700,712113.400,175629.400,181748.700,204339.000,158055.000,0.000
174720.100,173438.000,711702.000,712110.800,175753.700,181761.700,204428.300,158071.400,0.000
174722.300,173462.100,711701.100,712110.200,175941.700,181807.900,204599.300,158115.700,0.000
174692.100,173430.900,711694.100,712102.500,176020.500,181782.200,204651.900,158087.700,0.000
174694.200,173414.300,711693.600,712102.100,176086.500,181757.500,204677.300,158071.000,0.000
174710.500,173423.000,711692.300,712100.500,176205.000,181762.000,204754.300,158093.200,0.000
174721.100,173443.100,711691.600,712099.600,176340.400,181780.200,204852.900,158129.200,0.000
174713.600,173459.300,711689.300,712096.800,176513.400,181820.400,205006.600,158162.700,0.000
174685.300,173430.100,711682.200,712089.700,176588.200,181796.800,205057.000,158132.900,0.000
174688.500,173420.200,711680.900,712088.200,176658.400,181778.200,205091.700,158119.200,0.000
174701.300,173424.400,711678.800,712085.800,176770.500,181778.300,205165.500,158132.000,0.000
174704.300,173432.200,711677.300,712084.400,176895.000,181787.900,205253.000,158146.500,0.000
174704.500,173456.100,711674.100,712081.100,177070.400,181832.200,205408.400,158179.000,0.000
174692.100,173443.500,711670.300,712077.200,177152.000,181818.400,205469.100,158159.800,0.000
174697.100,173429.800,711668.400,712075.500,177208.100,181793.200,205490.100,158142.300,0.000
174707.200,173426.600,711667.100,712074.100,177309.600,181788.700,205552.100,158149.800,0.000
174710.500,173434.900,711666.000,712072.800,177428.800,181797.300,205638.700,158164.300,0.000
174713.100,173467.300,711664.300,712070.600,177603.300,181844.100,205801.700,158204.800,0.000
174690.900,173444.300,711657.900,712064.600,177675.900,181825.900,205854.100,158178.600,0.000
174691.200,173419.100,711654.800,712061.300,177723.500,181795.800,205867.300,158153.400,0.000
174707.700,173422.600,711655.200,712061.300,177831.400,181797.400,205939.700,158172.000,0.000
174715.300,173437.100,711653.100,712059.100,177957.400,181812.400,206035.600,158196.200,0.000
174728.900,173474.900,711651.700,712057.300,178135.200,181866.200,206194.900,158240.800,0.000
174711.000,173458.600,711648.400,712054.100,178209.000,181847.300,206244.300,158219.200,0.000
174695.500,173426.800,711641.900,712047.700,178247.900,181807.800,206249.700,158185.800,0.000
174706.200,173428.200,711643.000,712048.400,178353.800,181811.000,206322.500,158201.200,0.000
174710.200,173438.300,711640.100,712045.600,178466.700,181823.200,206406.200,158215.800,0.000
174705.600,173461.300,711636.400,712042.300,178631.700,181868.600,206557.400,158247.800,0.000
174690.400,173443.600,711635.900,712041.500,178709.600,181852.500,206614.300,158227.000,0.000
174689.000,173423.100,711633.900,712039.200,178756.200,181826.400,206631.200,158206.900,0.000
174697.800,173427.000,711633.200,712038.200,178858.700,181829.700,206702.600,158222.500,0.000
174699.100,173434.400,711631.900,712037.000,178971.200,181839.400,206787.100,158237.200,0.000
174694.900,173455.800,711627.600,712032.400,179129.000,181878.100,206930.200,158267.700,0.000
174681.300,173440.500,711625.800,712030.400,179198.300,181867.000,206972.500,158247.500,0.000
174687.500,173430.700,711628.900,712033.400,179247.800,181852.300,206993.800,158237.000,0.000
174690.600,173426.400,711626.500,712030.300,179337.300,181843.400,207048.200,158245.400,0.000
174690.300,173431.200,711623.400,712026.800,179441.000,181844.000,207123.500,158258.500,0.000
174694.000,173458.600,711620.400,712024.300,179600.600,181893.400,207274.100,158297.600,0.000
174674.100,173438.300,711616.400,712020.600,179659.100,181873.700,207319.500,158272.100,0.000
174671.700,173415.800,711612.900,712016.400,179693.000,181837.100,207329.100,158246.800,0.000
174685.200,173419.900,711611.400,712014.600,179784.800,181833.600,207387.800,158257.000,0.000
174694.000,173432.000,711610.100,712013.100,179892.800,181844.900,207467.200,158275.200,0.000
174696.000,173454.100,711607.800,712011.000,180046.600,181886.300,207616.700,158311.100,0.000
174673.300,173427.500,711602.500,712005.800,180099.100,181863.500,207651.900,158279.100,0.000
174689.500,173426.700,711606.600,712009.900,180157.100,181853.300,207678.700,158276.800,0.000
174699.100,173425.600,711606.600,712009.800,180242.600,181850.500,207736.100,158290.000,0.000
174691.400,173420.300,711601.500,712003.900,180328.900,181847.500,207794.400,158291.300,0.000
174691.400,173445.300,711600.600,712003.300,180486.400,181898.300,207939.900,158326.600,0.000
174675.000,173430.000,711599.300,712001.800,180550.700,181886.100,207984.700,158304.800,0.000
174675.500,173411.400,711595.200,711997.300,180583.400,181858.500,207989.300,158284.700,0.000
174689.500,173415.100,711594.400,711997.100,180669.900,181861.200,208048.300,158306.000,0.000
174695.500,173426.800,711593.900,711996.000,180767.900,181873.100,208121.500,158324.200,0.000
174700.600,173461.100,711597.400,711999.500,180929.000,181922.500,208277.900,158367.800,0.000
174674.200,173435.900,711591.900,711994.200,180977.000,181900.600,208317.800,158339.900,0.000
174676.100,173420.300,711590.700,711993.100,181006.800,181877.000,208328.500,158323.100,0.000
174686.400,173422.600,711588.500,711990.100,181085.700,181874.000,208381.700,158337.000,0.000
174679.500,173420.600,711585.600,711987.400,181174.800,181874.900,208447.500,158347.200,0.000
174684.200,173451.600,711586.100,711987.700,181324.000,181924.300,208592.800,158384.600,0.000
174676.600,173441.300,711587.300,711988.400,181381.100,181916.700,208638.000,158369.300,0.000
174680.600,173428.700,711585.200,711986.800,181413.400,181886.500,208644.900,158350.400,0.000
174690.200,173426.900,711580.600,711982.300,181486.500,181878.900,208690.800,158359.100,0.000
174694.300,173436.900,711581.700,711982.900,181581.900,181893.200,208761.700,158375.000,0.000
174698.800,173467.900,711581.500,711982.100,181736.800,181947.500,208910.000,158414.000,0.000
174680.000,173448.400,711577.500,711978.000,181789.700,181929.900,208949.800,158387.800,0.000
174678.100,173433.500,711576.900,711977.400,181819.600,181902.200,208956.500,158368.400,0.000
174702.000,173450.700,711578.800,711979.400,181907.800,181914.000,209020.400,158391.400,0.000
174691.900,173447.000,711573.400,711973.600,181980.200,181907.300,209074.100,158392.400,0.000
174697.200,173478.500,711571.800,711971.900,182121.900,181952.000,209214.000,158430.100,0.000
174681.800,173459.200,711568.200,711968.400,182172.000,181939.300,209253.700,158410.000,0.000
174678.400,173435.600,711565.900,711965.500,182191.000,181907.400,209253.000,158385.900,0.000
174695.300,173442.700,711565.100,711964.400,182269.400,181908.800,209308.700,158401.400,0.000
174693.500,173446.100,711562.200,711961.600,182355.500,181916.400,209377.200,158414.900,0.000
174692.300,173467.200,711561.500,711960.600,182496.500,181960.900,209517.600,158453.000,0.000
174674.100,173447.800,711561.800,711960.700,182540.500,181942.600,209556.000,158432.400,0.000
174673.200,173428.900,711559.800,711959.000,182555.600,181912.500,209556.500,158412.900,0.000
174688.600,173435.900,711557.400,711956.500,182627.300,181913.600,209612.800,158433.500,0.000
174698.300,173452.100,711557.600,711956.800,182716.100,181932.700,209688.700,158460.500,0.000
174696.500,173477.800,711556.400,711955.800,182849.600,181979.300,209823.300,158499.200,0.000
174682.100,173459.000,711556.800,711955.600,182891.100,181969.900,209860.500,158482.600,0.000
174679.700,173441.900,711554.900,711953.300,182905.800,181947.100,209856.400,158462.100,0.000
174683.600,173440.500,711551.400,711949.900,182972.700,181946.900,209902.400,158477.500,0.000
174684.300,173446.300,711549.800,711948.000,183050.800,181957.000,209964.500,158494.100,0.000
174685.500,173474.700,711548.900,711947.200,183186.500,182007.000,210103.200,158535.000,0.000
174666.700,173456.100,711547.600,711945.200,183225.600,181990.400,210138.500,158513.700,0.000
174664.900,173440.700,711547.100,711944.900,183242.800,181967.100,210140.200,158497.600,0.000
174670.800,173442.500,711545.300,711943.400,183309.900,181966.500,210188.100,158510.100,0.000
174681.300,173455.700,711547.300,711944.900,183393.800,181982.500,210254.900,158530.100,0.000
174686.400,173482.900,711547.200,711944.500,183531.600,182032.000,210393.900,158568.900,0.000
174663.800,173456.100,711543.300,711940.300,183566.800,182007.500,210423.400,158540.600,0.000
174666.500,173443.900,711542.400,711939.400,183588.700,181983.400,210425.000,158522.300,0.000
174680.600,173453.800,711544.200,711941.200,183664.700,181985.500,210480.000,158538.500,0.000
174681.800,173458.500,711541.900,711938.300,183741.500,181989.900,210539.900,158546.000,0.000
174679.300,173480.500,711538.600,711934.800,183869.100,182031.600,210667.600,158574.700,0.000
174662.000,173462.600,711536.600,711932.900,183911.900,182017.900,210701.000,158552.200,0.000
174659.600,173445.600,711531.500,711927.700,183928.200,181988.800,210697.700,158529.200,0.000
174673.600,173451.600,711533.100,711929.000,184001.200,181992.200,210751.600,158548.200,0.000
174680.300,173461.900,711535.400,711931.400,184085.100,182003.900,210815.900,158565.700,0.000
174676.600,173478.900,711533.200,711929.100,184210.100,182040.000,210941.600,158592.000,0.000
174660.300,173459.700,711531.300,711927.500,184245.500,182021.500,210970.800,158564.800,0.000
174669.000,173453.700,711531.400,711927.400,184267.600,182000.600,210972.800,158548.400,0.000
174682.400,173457.600,711530.400,711926.000,184330.700,181996.100,211016.900,158558.300,0.000
174695.800,173474.700,711532.700,711927.500,184417.200,182014.500,211091.200,158583.000,0.000
174690.500,173492.300,711528.100,711923.100,184544.100,182056.800,211222.000,158614.800,0.000
174661.400,173460.800,711523.400,711918.300,184570.100,182030.400,211242.100,158578.900,0.000
174664.900,173444.900,711522.400,711917.300,184584.600,182002.500,211238.800,158556.100,0.000
174681.300,173455.200,711523.400,711917.900,184655.600,182005.200,211289.500,158571.200,0.000
174679.400,173462.600,711521.400,711916.400,184729.900,182009.100,211350.400,158583.200,0.000
174676.700,173483.900,711519.200,711913.400,184859.000,182048.800,211486.400,158618.500,0.000
174657.800,173463.700,711516.600,711911.100,184891.000,182026.700,211517.300,158590.900,0.000
174662.200,173448.700,711516.800,711911.500,184904.500,181999.600,211518.400,158573.200,0.000
174680.300,173456.200,711516.100,711910.600,184969.300,182001.400,211567.000,158588.700,0.000
174687.000,173466.800,711516.600,711911.100,185046.800,182010.700,211631.800,158606.700,0.000
174696.100,173496.800,711519.400,711913.800,185181.700,182059.100,211771.000,158647.900,0.000
174679.200,173473.200,711515.300,711909.400,185209.500,182039.100,211799.400,158621.800,0.000
174675.200,173447.600,711508.300,711902.800,185201.000,181997.200,211781.200,158587.600,0.000
174693.500,173453.200,711509.800,711903.800,185264.600,181994.300,211828.500,158602.900,0.000
174704.700,173467.700,711511.300,711905.000,185340.800,182008.700,211891.300,158621.200,0.000
174708.800,173497.400,711511.400,711905.000,185470.800,182058.400,212024.500,158658.600,0.000
174691.700,173476.700,711509.400,711903.200,185499.400,182040.500,212050.400,158629.800,0.000
174686.800,173452.000,711508.600,711901.900,185496.700,182005.800,212032.100,158600.000,0.000
174692.800,173448.500,711508.200,711901.200,185545.100,182003.000,212068.100,158608.800,0.000
174692.600,173455.000,711503.300,711895.900,185604.100,182004.100,212117.400,158619.100,0.000
174708.600,173493.900,711505.700,711898.000,185735.900,182061.000,212257.200,158668.400,0.000
174693.400,173477.800,711506.100,711898.300,185764.500,182047.900,212284.100,158644.700,0.000
174692.200,173462.800,711505.600,711898.100,185768.400,182014.600,212273.500,158617.900,0.000
174706.700,173470.700,711505.600,711898.400,185824.700,182012.400,212314.600,158629.400,0.000
174707.000,173476.400,711503.300,711896.100,185886.800,182016.600,212364.000,158638.500,0.000
174704.500,173497.000,711499.600,711891.800,186001.100,182054.200,212482.000,158667.400,0.000
174691.700,173488.400,711497.800,711890.100,186032.100,182043.900,212509.200,158646.800,0.000
174694.400,173474.600,711499.300,711891.100,186038.500,182022.900,212501.700,158628.800,0.000
174701.600,173467.800,711498.800,711890.600,186082.800,182014.400,212534.600,158636.000,0.000
174700.300,173468.400,711496.800,711888.400,186137.600,182015.000,212583.700,158642.000,0.000
174700.900,173499.500,711496.500,711888.200,186256.600,182062.800,212711.800,158677.900,0.000
174683.000,173485.600,711495.100,711886.600,186284.700,182050.100,212739.600,158653.100,0.000
174688.500,173475.000,711496.100,711887.600,186291.300,182029.300,212734.200,158635.400,0.000
174702.200,173478.400,711496.100,711887.600,186346.400,182028.200,212774.500,158647.100,0.000
174704.700,173480.800,711495.800,711886.800,186407.000,182032.400,212823.400,158654.800,0.000
174704.200,173502.200,711493.300,711884.100,186520.700,182074.700,212944.500,158687.600,0.000
174691.200,173485.100,711492.800,711883.500,186548.700,182063.600,212974.300,158670.400,0.000
174688.500,173463.200,711491.800,711882.400,186543.900,182034.400,212963.000,158649.400,0.000
174699.700,173469.200,711491.000,711881.800,186593.100,182034.200,213003.800,158661.900,0.000
174696.900,173475.800,711488.800,711879.900,186655.900,182041.900,213059.300,158672.200,0.000
174686.800,173492.600,711485.000,711876.100,186766.500,182082.100,213180.100,158699.900,0.000
174669.700,173470.800,711484.400,711874.800,186786.700,182062.400,213202.000,158674.200,0.000
174678.800,173458.400,711485.400,711875.800,186791.700,182038.700,213196.100,158658.900,0.000
174698.800,173468.200,711486.100,711876.400,186852.200,182042.800,213244.400,158680.400,0.000
174697.800,173469.800,711483.300,711873.800,186910.900,182045.400,213294.700,158689.600,0.000
174691.700,173493.600,711481.400,711871.700,187019.800,182084.900,213418.500,158722.200,0.000
174674.800,173476.600,711479.200,711869.500,187040.800,182070.000,213443.900,158701.200,0.000
174676.000,173459.300,711478.100,711868.600,187039.000,182048.500,213430.700,158678.900,0.000
174691.000,173468.700,711479.100,711869.000,187093.900,182052.800,213471.400,158693.700,0.000
174683.500,173464.600,711477.400,711867.400,187151.900,182048.100,213520.700,158701.200,0.000
174686.100,173491.000,711476.700,711866.200,187268.800,182093.100,213649.000,158739.300,0.000
174670.100,173473.100,711477.300,711866.800,187292.300,182079.800,213675.800,158718.000,0.000
174675.500,173462.900,711478.500,711868.100,187289.100,182056.300,213664.600,158699.700,0.000
174684.100,173463.600,711477.000,711866.700,187332.500,182052.500,213700.300,158710.500,0.000
174678.400,173464.600,711472.000,711861.000,187379.400,182052.200,213740.100,158716.800,0.000
174675.000,173486.500,711470.200,711858.700,187485.900,182090.000,213854.000,158746.500,0.000
174665.000,173480.000,711468.700,711857.600,187510.300,182079.600,213879.900,158728.500,0.000
174661.700,173461.300,711467.100,711855.900,187503.500,182048.500,213863.600,158705.200,0.000
174680.300,173470.500,711468.400,711856.700,187556.500,182050.000,213902.900,158722.300,0.000
174695.100,173486.600,711470.300,711859.000,187624.700,182066.000,213961.200,158746.500,0.000
174694.400,173508.300,711466.800,711855.800,187736.000,182104.700,214082.100,158777.400,0.000
174672.500,173480.200,711462.400,711850.900,187745.400,182080.300,214094.500,158743.100,0.000
174677.400,173460.800,711461.300,711849.400,187738.100,182050.800,214077.900,158719.600,0.000
174693.700,173461.900,711460.900,711849.400,187784.400,182047.000,214108.500,158731.500,0.000
174698.700,173472.300,711461.100,711849.000,187840.300,182053.500,214155.900,158740.900,0.000
174711.200,173512.000,711462.600,711850.300,187962.400,182108.800,214290.800,158783.600,0.000
174684.500,173485.300,711459.800,711846.900,187973.200,182084.700,214307.900,158750.500,0.000
174681.900,173465.200,711458.100,711845.300,187965.200,182057.400,214295.800,158729.100,0.000
174699.300,173471.700,711459.100,711846.800,188009.200,182061.400,214334.700,158747.800,0.000
174697.900,173476.500,711456.100,711843.800,188055.400,182064.300,214379.100,158757.900,0.000
174698.400,173506.700,711457.600,711845.000,188169.400,182111.100,214509.000,158797.400,0.000
174679.000,173484.100,711456.300,711843.800,188185.100,182093.000,214532.900,158775.500,0.000
174684.300,173471.400,711456.300,711843.200,188180.900,182067.100,214522.700,158757.900,0.000
174698.200,173478.300,711455.500,711842.200,188223.500,182065.800,214556.400,158766.200,0.000
174703.100,173487.100,711456.300,711843.000,188276.000,182071.800,214603.000,158776.000,0.000
174702.400,173508.800,711455.200,711841.700,188379.900,182114.300,214718.200,158805.800,0.000
174686.400,173488.900,711452.800,711839.400,188399.300,182100.100,214742.500,158784.500,0.000
174692.700,173476.200,711453.400,711840.400,188398.000,182076.500,214733.900,158768.700,0.000
174703.800,173477.700,711452.800,711839.200,188440.900,182071.200,214766.200,158777.700,0.000
174698.700,173476.700,711451.400,711837.500,188486.700,182072.000,214809.000,158783.300,0.000
174694.400,173498.000,711449.600,711835.500,188586.500,182110.800,214926.900,158814.000,0.000
174677.900,173483.200,711447.800,711834.000,188599.200,182095.400,214948.100,158787.800,0.000
174682.500,173470.700,711446.100,711832.400,188593.500,182071.200,214936.300,158765.500,0.000
174703.300,173481.800,711449.200,711835.100,188643.700,182077.000,214975.500,158778.800,0.000
174711.600,173494.400,711450.000,711835.500,188701.600,182087.700,215026.100,158792.600,0.000
174717.200,173524.800,711450.600,711836.100,188814.400,182137.000,215151.700,158832.800,0.000
174696.200,173503.200,711447.300,711832.300,188826.600,182121.500,215168.100,158804.600,0.000
174692.900,173481.400,711445.300,711830.600,188813.300,182091.600,215146.800,158780.900,0.000
174705.200,173485.200,711443.800,711829.100,188856.900,182087.900,215178.600,158795.600,0.000
174709.800,173494.800,711445.000,711829.900,188906.300,182092.800,215223.300,158808.500,0.000
174709.800,173520.700,711443.200,711828.200,189008.300,182134.900,215341.800,158844.000,0.000
174693.800,173505.500,711441.900,711826.800,189023.700,182120.600,215364.700,158823.100,0.000
174693.000,173487.900,711441.500,711826.100,189008.100,182088.600,215341.800,158796.700,0.000
174715.800,173499.500,711445.600,711829.500,189056.100,182090.600,215379.900,158813.500,0.000
174720.100,173507.600,711444.800,711828.400,189106.800,182096.500,215424.500,158821.200,0.000
174714.400,173528.000,711441.100,711825.400,189209.800,182138.700,215540.400,158850.900,0.000
174696.600,173506.100,711439.900,711824.100,189221.500,182126.400,215559.900,158828.900,0.000
174697.000,173488.600,711440.800,711824.400,189210.100,182100.400,215543.100,158808.100,0.000
174701.900,173486.600,711440.500,711823.700,189243.700,182094.800,215567.200,158816.100,0.000
174701.800,173491.900,711440.600,711824.100,189295.700,182103.700,215615.500,158833.300,0.000
174707.700,173521.600,711442.000,711825.600,189402.800,182149.900,215735.800,158868.600,0.000
174682.100,173493.200,711437.000,711820.300,189402.400,182125.400,215740.500,158832.900,0.000
174691.300,173488.900,711441.100,711824.300,189398.700,182109.800,215727.700,158819.300,0.000
174709.700,173499.000,711441.900,711825.300,189443.300,182113.300,215763.900,158835.800,0.000
174712.600,173506.100,711438.700,711821.600,189489.300,182115.000,215805.300,158846.100,0.000
174711.200,173526.100,711436.500,711819.500,189586.100,182153.000,215913.800,158877.500,0.000
174690.300,173506.700,711434.800,711818.100,189592.800,182131.200,215928.000,158852.400,0.000
174688.400,173487.700,711436.600,711819.500,189572.900,182103.600,215905.900,158828.500,0.000
174704.700,173493.700,711438.400,711820.900,189608.600,182101.500,215936.500,158843.000,0.000
174712.300,173506.900,711439.600,711822.000,189661.400,182114.700,215984.100,158860.400,0.000
174710.900,173526.100,711438.300,711820.900,189759.300,182157.500,216095.600,158893.100,0.000
174693.500,173504.200,711435.900,711818.100,189765.800,182139.400,216108.200,158867.400,0.000
174692.800,173486.900,711433.500,711815.800,189745.800,182107.100,216087.000,158844.600,0.000
174712.400,173496.800,711434.300,711816.400,189789.500,182108.400,216125.400,158862.900,0.000
174714.400,173500.400,711433.100,711814.900,189833.000,182112.900,216163.700,158867.500,0.000
174721.200,173531.400,711435.600,711817.600,189939.400,182162.600,216286.100,158905.100,0.000
174702.000,173511.100,711433.400,711815.000,189945.300,182146.400,216302.700,158878.700,0.000
174699.600,173492.400,711430.700,711812.300,189922.200,182115.500,216276.000,158851.700,0.000
174712.200,173500.100,711430.900,711812.500,189958.200,182115.700,216302.800,158864.900,0.000
174717.800,173508.400,711430.100,711811.600,190005.400,182126.000,216346.600,158880.500,0.000
174725.100,173537.700,711431.300,711813.300,190115.400,182177.200,216471.700,158924.800,0.000
174701.300,173511.000,711428.600,711810.600,190117.600,182154.400,216479.300,158894.800,0.000
174697.400,173491.900,711427.300,711808.400,190091.800,182119.000,216450.300,158867.700,0.000
174713.400,173500.200,711427.400,711808.300,190127.800,182117.000,216480.300,158884.600,0.000
174713.600,173504.800,711425.200,711806.100,190170.400,182121.800,216519.400,158896.200,0.000
174711.600,173529.400,711424.400,711805.600,190270.800,182169.900,216634.500,158931.200,0.000
174689.500,173501.800,711422.700,711803.700,190272.700,182148.000,216643.500,158901.000,0.000
174697.500,173493.500,711424.700,711805.400,190261.500,182126.300,216627.800,158884.500,0.000
174709.300,173494.400,711421.800,711802.600,190290.400,182121.200,216647.100,158886.900,0.000
174697.300,173486.900,711417.500,711798.400,190322.900,182111.200,216670.300,158880.400,0.000
174682.600,173499.800,711411.600,711792.100,190403.000,182140.200,216765.200,158896.600,0.000
174650.800,173465.000,711405.100,711785.100,190394.500,182105.000,216765.300,158858.500,0.000
174644.400,173440.200,711403.600,711783.400,190365.200,182072.900,216732.900,158828.100,0.000
174660.800,173447.200,711405.800,711785.600,190401.800,182079.200,216766.100,158845.200,0.000
174695.500,173489.200,711416.800,711796.500,190481.900,182121.000,216843.800,158890.600,0.000
174716.600,173534.000,711426.200,711805.800,190604.900,182189.000,216977.900,158947.200,0.000
174700.400,173509.500,711421.900,711801.100,190603.400,182167.900,216982.200,158917.900,0.000
174697.000,173487.200,711418.100,711797.400,190574.900,182135.800,216947.700,158887.700,0.000
174720.600,173500.600,711419.100,711798.400,190615.300,182146.100,216979.500,158908.900,0.000
174721.500,173509.300,711417.400,711796.800,190658.300,182159.000,217019.900,158924.100,0.000
174724.500,173542.600,711419.500,711798.900,190762.600,182215.400,217135.400,158960.800,0.000
174708.000,173531.500,711418.500,711797.100,190770.900,182201.900,217151.700,158935.800,0.000
174694.500,173502.100,711413.900,711792.600,190733.100,182158.600,217112.900,158894.500,0.000
174711.100,173505.900,711415.800,711794.400,190766.600,182160.600,217141.700,158907.000,0.000
174713.800,173510.000,711416.800,711795.000,190809.000,182165.500,217181.500,158918.500,0.000
174716.800,173536.100,711417.000,711794.900,190907.100,182208.000,217291.600,158953.400,0.000
174697.500,173516.500,711415.300,711793.200,190910.500,182190.100,217300.000,158925.900,0.000
174687.000,173489.800,711411.700,711789.800,190876.300,182155.500,217260.500,158892.000,0.000
174701.600,173495.400,711412.100,711790.100,190903.200,182154.700,217280.100,158903.100,0.000
174710.300,173506.400,711410.600,711788.800,190940.900,182160.900,217314.700,158914.200,0.000
174717.700,173538.600,711409.800,711787.700,191035.200,182206.200,217422.100,158946.800,0.000
174709.600,173532.500,711411.400,711788.900,191044.100,182198.900,217437.400,158928.900,0.000
174714.300,173518.400,711413.900,711791.300,191023.800,182177.800,217411.000,158908.200,0.000
174728.400,173523.200,711415.300,711792.800,191048.600,182173.700,217428.700,158913.300,0.000
174730.400,173531.700,711412.900,711790.100,191083.100,182179.300,217464.400,158924.000,0.000
174728.900,173552.700,711410.000,711786.600,191166.100,182219.100,217565.100,158954.000,0.000
174710.000,173531.300,711408.100,711784.600,191160.800,182204.600,217571.200,158928.000,0.000
174714.300,173519.100,711406.600,711783.600,191131.500,182178.700,217540.700,158906.900,0.000
174725.700,173524.100,711406.800,711784.100,191161.900,182176.600,217566.400,158923.100,0.000
174732.000,173534.800,711410.400,711787.300,191210.100,182186.700,217612.500,158943.800,0.000
174736.800,173558.500,711410.800,711787.400,191304.200,182234.000,217722.300,158981.500,0.000
174716.300,173534.600,711410.300,711786.700,191306.200,182218.200,217735.800,158957.300,0.000
174717.300,173516.700,711407.000,711783.400,191271.000,182187.600,217708.800,158931.600,0.000
174735.900,173518.800,711406.800,711783.000,191295.100,182183.600,217736.900,158945.600,0.000
174739.600,173524.000,711406.000,711782.100,191334.300,182190.300,217775.200,158958.400,0.000
174736.000,173550.500,711404.400,711780.400,191425.600,182232.500,217882.900,158992.100,0.000
174713.700,173531.500,711405.800,711781.600,191428.500,182216.300,217895.000,158967.800,0.000
174703.200,173502.800,711402.500,711778.000,191390.200,182175.300,217851.600,158931.600,0.000
174719.200,173511.100,711402.800,711778.400,191419.000,182178.400,217873.600,158945.000,0.000
174724.400,173521.900,711403.500,711779.300,191456.000,182189.400,217905.000,158956.200,0.000
174721.500,173543.000,711403.900,711780.100,191546.600,182229.800,218011.000,158988.200,0.000
174701.000,173520.300,711402.700,711778.400,191544.000,182208.400,218017.800,158960.900,0.000
174707.000,173504.800,711402.500,711778.000,191516.700,182180.900,217989.700,158940.800,0.000
174724.500,173512.100,711403.600,711779.100,191544.700,182181.800,218014.900,158957.800,0.000
174726.800,173516.500,711400.700,711776.100,191577.700,182183.700,218045.600,158964.500,0.000
174737.100,173551.800,711402.800,711777.800,191676.000,182232.800,218157.200,159003.600,0.000
174718.400,173532.600,711402.500,711777.500,191676.100,182214.200,218165.600,158979.400,0.000
174712.600,173506.800,711399.800,711774.400,191638.900,182177.300,218128.500,158947.500,0.000
174726.800,173512.600,711399.200,711774.100,191663.600,182177.300,218152.500,158961.000,0.000
174732.400,173522.500,711400.400,711775.500,191704.800,182183.900,218192.600,158976.700,0.000
174731.400,173546.600,711399.800,711774.400,191798.600,182226.100,218298.600,159012.000,0.000
174709.400,173525.600,711397.900,711772.300,191798.600,182210.800,218304.800,158986.900,0.000
174710.000,173508.800,711398.400,711772.800,191773.800,182185.600,218276.200,158964.100,0.000
174714.400,173505.500,711394.800,711769.200,191796.000,182178.200,218293.800,158974.200,0.000
174721.400,173518.600,711395.600,711769.800,191843.800,182189.400,218338.800,158997.200,0.000
174729.400,173553.800,711396.900,711770.900,191947.200,182243.300,218456.600,159042.200,0.000
174714.200,173537.700,711397.300,711771.100,191945.900,182233.100,218467.800,159020.700,0.000
174714.000,173516.000,711399.200,711772.900,191917.400,182205.900,218441.500,159003.400,0.000
174732.400,173525.000,711398.800,711772.600,191945.700,182208.500,218470.300,159025.600,0.000
174731.500,173527.600,711394.100,711767.900,191969.600,182207.500,218495.300,159034.100,0.000
174728.200,173552.400,711393.800,711767.900,192059.500,182250.200,218603.800,159074.100,0.000
174707.000,173530.500,711392.800,711765.900,192055.100,182232.400,218610.400,159053.300,0.000
174713.800,173521.000,711394.600,711767.300,192026.800,182207.000,218581.700,159039.500,0.000
174731.500,173531.700,711395.500,711768.400,192052.400,182208.100,218603.000,159058.800,0.000
174722.000,173527.000,711390.400,711763.400,192073.700,182205.400,218624.000,159063.900,0.000
174720.700,173550.000,711391.100,711763.500,192159.100,182250.100,218726.100,159099.500,0.000
174708.400,173536.100,711392.800,711764.900,192165.000,182242.800,218740.000,159082.400,0.000
174716.000,173523.000,711390.600,711762.200,192135.400,182216.800,218704.600,159058.100,0.000
174736.600,173534.600,711391.900,711763.400,192164.000,182219.800,218726.300,159072.900,0.000
174733.300,173538.400,711390.400,711762.300,192194.900,182218.700,218753.500,159079.300,0.000
174737.700,173569.300,711392.100,711764.100,192290.500,182263.800,218862.900,159115.500,0.000
174721.500,173555.600,711391.600,711763.300,192289.400,182253.700,218872.900,159094.100,0.000
174718.700,173541.100,711393.600,711765.300,192260.600,182229.800,218843.300,159070.900,0.000
174726.800,173542.700,711392.900,711764.400,192284.000,182227.300,218861.200,159083.200,0.000
174729.200,173549.800,711390.200,711761.300,192320.600,182235.300,218895.800,159100.300,0.000
174734.000,173579.300,711389.800,711761.300,192413.300,182286.300,219003.100,159137.800,0.000
174709.400,173554.300,711387.100,711758.500,192405.400,182264.000,219005.700,159107.000,0.000
174704.700,173533.500,711384.900,711755.700,192370.800,182230.200,218968.000,159076.800,0.000
174721.500,173544.500,711386.500,711757.400,192401.400,182237.800,218990.100,159092.500,0.000
174728.300,173557.400,711389.000,711759.900,192447.300,182254.000,219032.900,159113.000,0.000
174731.600,173586.300,711391.600,711762.200,192544.100,182306.500,219144.400,159152.100,0.000
174711.600,173564.300,711389.300,711759.700,192538.500,182288.400,219143.900,159120.700,0.000
174708.000,173541.600,711389.600,711759.900,192508.000,182254.600,219108.100,159090.700,0.000
174725.700,173543.600,711389.900,711760.300,192532.400,182249.200,219126.900,159102.300,0.000
174726.200,173546.600,711386.300,711757.000,192561.900,182245.700,219152.700,159106.800,0.000
174729.200,173570.800,711385.700,711756.100,192650.400,182288.100,219256.400,159138.900,0.000
174710.300,173547.500,711384.000,711754.100,192643.100,182268.100,219258.000,159110.100,0.000
174703.800,173526.900,711383.100,711753.300,192607.400,182231.400,219220.600,159079.600,0.000
174717.700,173536.100,711382.700,711753.300,192633.700,182230.500,219240.000,159092.200,0.000
174720.900,173547.100,711383.300,711753.700,192670.800,182243.400,219273.300,159107.700,0.000
174721.800,173575.100,711383.800,711754.300,192765.600,182288.000,219384.000,159148.200,0.000
174698.800,173544.500,711380.000,711750.000,192758.000,182262.300,219387.600,159120.000,0.000
174706.100,173525.500,711382.700,711752.600,192732.400,182239.000,219362.500,159103.100,0.000
174726.500,173531.200,711385.800,711755.500,192761.800,182242.200,219388.800,159122.600,0.000
174726.400,173532.800,711384.600,711753.900,192789.000,182244.800,219415.100,159128.200,0.000
174730.700,173562.900,711384.200,711753.700,192877.500,182288.900,219518.400,159158.900,0.000
174706.100,173539.900,711381.500,711751.400,192869.500,182264.700,219520.100,159126.900,0.000
174713.700,173531.700,711383.100,711752.600,192846.200,182242.500,219495.300,159109.900,0.000
174729.000,173536.900,711383.100,711752.000,192869.000,182242.600,219513.300,159119.500,0.000
174731.700,173542.800,711380.100,711748.800,192901.200,182249.700,219539.700,159126.500,0.000
174741.800,173576.400,711382.400,711751.000,192999.600,182303.800,219651.200,159169.300,0.000
174719.500,173553.300,711383.400,711751.800,192996.200,182279.900,219657.000,159145.100,0.000
174714.600,173533.000,711384.000,711752.100,192963.000,182245.000,219620.700,159117.700,0.000
174723.100,173531.200,711378.600,711746.800,192975.000,182236.500,219625.500,159120.000,0.000
174724.800,173534.000,711374.600,711742.900,193003.400,182241.200,219652.700,159127.700,0.000
174726.100,173561.100,711375.400,711744.100,193091.400,182285.200,219759.600,159162.700,0.000
174721.000,173554.000,711375.500,711743.500,193092.500,182279.100,219768.300,159146.200,0.000
174727.800,173543.300,711376.400,711744.700,193065.500,182256.000,219736.600,159128.600,0.000
174751.600,173556.100,711378.400,711746.600,193097.000,182260.900,219763.900,159148.700,0.000
174760.900,173563.300,711378.100,711746.000,193134.800,182267.200,219793.800,159160.900,0.000
174763.700,173588.700,711376.900,711744.700,193215.800,182307.800,219884.600,159185.600,0.000
174749.300,173571.000,711375.300,711742.500,193210.200,182289.200,219886.500,159159.200,0.000
174745.100,173544.200,711371.200,711738.600,193163.000,182248.400,219837.100,159123.200,0.000
174760.500,173555.500,711372.600,711739.800,193183.700,182252.400,219854.700,159134.700,0.000
174762.700,173566.500,711375.900,711743.300,193220.600,182259.400,219891.800,159153.700,0.000
174761.500,173591.600,711375.400,711742.600,193306.400,182299.600,219994.200,159188.400,0.000
174736.900,173566.100,711374.900,711741.800,193297.200,182281.300,219995.100,159159.900,0.000
174737.700,173546.300,711376.400,711743.100,193268.100,182253.100,219960.200,159137.200,0.000
174743.700,173539.300,711374.100,711740.900,193282.200,182245.000,219968.100,159142.100,0.000
174746.200,173550.000,711374.400,711740.900,193317.400,182255.300,220000.300,159157.700,0.000
174758.400,173590.300,711375.400,711741.800,193414.400,182313.000,220112.000,159202.600,0.000
174744.100,173576.000,711375.500,711741.800,193411.300,182302.200,220115.900,159176.700,0.000
174751.000,173566.400,711376.700,711743.100,193384.300,182280.400,220085.200,159153.700,0.000
174766.300,173572.600,711376.800,711742.600,193405.100,182274.800,220102.900,159164.800,0.000
174770.600,173579.500,711378.800,711744.300,193437.500,182277.800,220135.400,159178.400,0.000
174766.200,173599.400,711376.600,711742.000,193515.400,182309.900,220231.700,159206.200,0.000
174731.500,173563.400,711369.900,711735.600,193489.900,182275.900,220216.200,159166.500,0.000
174723.400,173540.700,711370.300,711736.100,193457.100,182243.600,220181.600,159143.400,0.000
174744.200,173555.100,711374.500,711740.600,193490.000,182254.200,220209.400,159168.500,0.000
174746.100,173562.900,711373.700,711739.600,193517.800,182255.500,220237.900,159180.900,0.000
174748.100,173590.300,711375.300,711740.600,193607.500,182301.700,220345.600,159217.800,0.000
174740.200,173586.000,711375.500,711741.000,193612.700,182298.200,220362.300,159204.600,0.000
174738.700,173568.900,711373.300,711738.500,193573.300,182270.700,220321.400,159176.100,0.000
174746.800,173568.800,711373.600,711739.100,193585.300,182268.900,220330.500,159182.000,0.000
174748.000,173575.800,711374.200,711739.100,193614.000,182275.600,220355.900,159190.300,0.000
174745.800,173593.800,711374.800,711739.600,193693.300,182315.700,220452.400,159219.800,0.000
174725.700,173572.100,711371.700,711736.300,193676.400,182295.100,220446.400,159188.900,0.000
174728.900,173561.100,711371.700,711736.400,193645.500,182270.900,220409.400,159170.700,0.000
174742.900,173566.000,711371.900,711736.600,193667.100,182270.800,220424.200,159186.100,0.000
174749.300,173574.400,711372.800,711737.100,193695.000,182275.200,220450.200,159194.400,0.000
174754.100,173604.900,711373.600,711737.600,193781.200,182320.400,220554.300,159229.300,0.000
174738.300,173585.400,711373.000,711737.100,193777.000,182308.300,220562.600,159210.500,0.000
174741.800,173566.900,711371.500,711735.600,193739.800,182278.100,220522.700,159184.800,0.000
174748.500,173564.300,711368.500,711732.400,193750.400,182269.600,220526.900,159188.800,0.000
174754.900,173576.100,711370.100,711733.800,193784.100,182279.700,220559.300,159205.700,0.000
174746.800,173592.500,711369.300,711733.100,193863.800,182319.300,220652.900,159234.300,0.000
174724.600,173569.900,711366.500,711730.400,193849.800,182301.100,220646.800,159204.300,0.000
174734.800,173567.400,711368.500,711732.300,193823.900,182283.200,220619.800,159190.100,0.000
174757.500,173586.200,711368.900,711732.400,193852.700,182295.600,220645.000,159213.100,0.000
174757.000,173594.900,711367.400,711730.400,193879.800,182304.200,220669.000,159222.800,0.000
174747.600,173611.000,711365.800,711728.800,193958.300,182343.100,220762.500,159251.600,0.000
174727.100,173589.400,711363.300,711726.600,193947.300,182323.900,220757.500,159226.800,0.000
174731.800,173572.800,711364.600,711727.600,193912.900,182298.000,220721.100,159208.000,0.000
174744.000,173573.000,711363.000,711726.300,193929.900,182299.200,220733.900,159223.900,0.000
174747.700,173580.000,711363.800,711727.300,193962.400,182311.000,220766.400,159245.800,0.000
174745.700,173604.300,711364.500,711727.300,194043.400,182348.300,220865.500,159280.700,0.000
174729.800,173590.200,711363.900,711726.500,194034.900,182330.900,220870.100,159257.400,0.000
174729.000,173577.800,711363.000,711725.400,193999.300,182306.700,220832.400,159231.900,0.000
174742.600,173580.500,711362.900,711725.200,194017.100,182304.100,220846.300,159242.200,0.000
174750.100,173588.800,711361.800,711723.800,194047.500,182310.200,220876.100,159257.000,0.000
174744.200,173606.300,711360.700,711722.400,194122.100,182344.200,220966.200,159284.400,0.000
174724.700,173582.700,711359.100,711721.100,194113.200,182323.500,220965.900,159259.800,0.000
174728.300,173569.400,711360.900,711722.900,194084.800,182300.900,220934.000,159241.300,0.000
174741.300,173573.100,711359.800,711721.300,194101.000,182300.900,220946.200,159251.400,0.000
174742.700,173581.200,711358.700,711720.100,194124.800,182307.700,220972.600,159263.000,0.000
174744.400,173609.500,711357.800,711719.300,194210.600,182353.000,221074.800,159299.900,0.000
174729.700,173590.500,711358.300,711719.300,194202.100,182335.000,221076.900,159273.900,0.000
174734.400,173575.000,711360.700,711721.400,194168.900,182309.200,221039.900,159249.400,0.000
174743.800,173569.600,711357.900,711718.800,194173.900,182294.900,221041.900,159248.300,0.000
174755.000,173581.600,711358.400,711719.400,194201.700,182305.900,221070.800,159265.600,0.000
174763.100,173614.100,711360.900,711721.700,194289.900,182353.900,221175.200,159306.000,0.000
174747.700,173599.600,711360.500,711721.100,194282.800,182340.400,221177.300,159283.300,0.000
174743.400,173577.600,711361.100,711721.400,194241.200,182305.000,221133.200,159253.900,0.000
174751.900,173578.800,711359.300,711719.600,194249.900,182299.000,221137.800,159257.300,0.000
174760.400,173591.800,711361.600,711721.900,194280.800,182309.700,221166.600,159271.200,0.000
174760.300,173621.100,711360.300,711720.400,194359.100,182355.300,221260.600,159302.100,0.000
174737.900,173600.300,711359.600,711719.600,194352.900,182339.800,221262.200,159277.700,0.000
174738.300,173580.700,711360.900,711720.800,194318.400,182310.600,221224.600,159255.200,0.000
174755.300,173586.300,711363.200,711722.600,194340.000,182316.100,221242.700,159270.800,0.000
174758.900,173595.100,711362.300,711721.900,194363.000,182322.700,221263.000,159279.000,0.000
174751.200,173618.200,711360.200,711719.800,194438.600,182365.000,221357.300,159309.500,0.000
174732.200,173601.500,711360.200,711719.600,194429.400,182353.400,221359.300,159283.400,0.000
174731.700,173582.600,711358.900,711718.200,194389.200,182316.600,221317.400,159254.700,0.000
174744.100,173580.900,711355.800,711714.800,194393.000,182304.300,221316.500,159256.100,0.000
174753.600,173588.400,711356.200,711714.900,194416.700,182309.700,221337.200,159264.800,0.000
174761.900,173617.300,711357.100,711715.900,194500.700,182358.700,221439.500,159304.000,0.000
174739.400,173593.300,711356.800,711715.300,194486.900,182342.000,221437.200,159275.600,0.000
174732.900,173569.900,711355.300,711713.600,194440.600,182306.300,221391.200,159244.700,0.000
174744.100,173571.500,711354.100,711712.600,194453.100,182303.900,221400.600,159255.100,0.000
174744.300,173577.600,711353.800,711712.100,194475.600,182305.600,221423.300,159265.000,0.000
174755.000,173611.100,711355.800,711713.900,194559.200,182356.600,221522.300,159306.300,0.000
174733.200,173590.600,711355.100,711713.400,194549.600,182343.400,221522.200,159285.000,0.000
174730.700,173571.900,711353.100,711711.100,194511.700,182316.000,221482.700,159260.600,0.000
174746.300,173576.400,711353.900,711712.400,194525.500,182313.000,221494.700,159272.000,0.000
174748.500,173580.600,711355.800,711714.000,194552.200,182318.100,221518.600,159284.700,0.000
174748.700,173605.700,711355.900,711713.800,194636.700,182362.900,221616.900,159320.200,0.000
174722.300,173580.100,711353.100,711711.100,194620.000,182339.600,221611.100,159288.100,0.000
174728.300,173568.500,711356.000,711713.600,194584.500,182317.600,221574.100,159271.500,0.000
174739.700,173570.400,711357.400,711714.900,194597.900,182309.800,221581.700,159282.800,0.000
174743.400,173577.900,711357.400,711714.600,194623.900,182313.000,221602.900,159291.900,0.000
174742.300,173601.400,711354.300,711711.300,194702.800,182353.900,221695.600,159323.100,0.000
174728.400,173588.200,711352.000,711708.900,194692.500,182339.300,221691.200,159294.500,0.000
174732.500,173573.600,711350.800,711707.800,194654.100,182311.500,221650.300,159269.400,0.000
174744.700,173576.400,711349.300,711706.300,194667.700,182309.700,221659.800,159281.500,0.000
174752.000,173590.500,711353.500,711710.000,194704.400,182323.100,221693.300,159303.700,0.000
174752.900,173615.500,711356.200,711712.800,194790.700,182368.500,221796.300,159341.800,0.000
174733.700,173595.800,711356.900,711713.800,194783.800,182354.000,221800.800,159318.000,0.000
174725.700,173566.000,711353.100,711710.000,194732.500,182312.800,221747.100,159281.300,0.000
174743.500,173570.500,711351.800,711707.900,194741.200,182310.700,221753.000,159289.800,0.000
174751.900,173580.800,711352.700,711708.600,194766.900,182321.700,221776.300,159302.800,0.000
174759.300,173616.000,711354.500,711710.600,194855.100,182367.800,221879.500,159341.500,0.000
174746.100,173604.700,711355.400,711711.100,194849.800,182357.500,221884.200,159320.900,0.000
174742.000,173578.400,711351.800,711707.100,194800.900,182324.100,221836.300,159290.400,0.000
174747.700,173572.600,711348.100,711703.300,194803.800,182311.400,221839.100,159295.200,0.000
174752.700,173582.000,711347.600,711703.300,194830.400,182319.200,221866.700,159310.800,0.000
174750.500,173609.900,711347.900,711703.300,194907.700,182359.000,221960.800,159342.800,0.000
174732.400,173596.200,711345.800,711700.900,194895.100,182343.400,221957.400,159315.700,0.000
174737.500,173584.500,711347.700,711702.800,194857.400,182318.200,221917.700,159294.500,0.000
174750.800,173586.900,711348.700,711703.400,194869.800,182316.800,221927.300,159301.000,0.000
174756.200,173593.500,711351.100,711706.300,194899.400,182327.600,221953.500,159310.200,0.000
174761.000,173626.200,711349.100,711704.100,194978.600,182375.600,222051.300,159344.300,0.000
174733.600,173600.600,711346.200,711700.700,194962.800,182354.400,222048.100,159318.200,0.000
174736.800,173586.300,711350.000,711704.500,194928.700,182329.500,222011.800,159297.600,0.000
174751.000,173587.900,711350.400,711705.000,194939.500,182323.600,222018.900,159306.900,0.000
174744.700,173585.400,711347.500,711701.600,194953.400,182319.300,222030.900,159309.900,0.000
174747.100,173613.400,711348.600,711702.900,195034.500,182367.100,222128.400,159346.600,0.000
174722.300,173589.000,711344.400,711698.400,195016.400,182340.700,222121.200,159316.600,0.000
174729.400,173574.500,711344.500,711698.300,194979.700,182312.800,222083.500,159297.000,0.000
174742.900,173577.800,711343.900,711697.400,194989.400,182312.400,222090.200,159306.900,0.000
174747.400,173589.000,711345.400,711699.100,195019.400,182323.900,222120.100,159322.700,0.000
174754.700,173625.000,711349.200,711702.400,195114.000,182375.800,222230.300,159366.900,0.000
174733.200,173596.900,711346.100,711699.400,195095.500,182354.400,222220.300,159331.500,0.000
174734.600,173578.000,711344.700,711698.200,195051.700,182320.900,222173.000,159300.400,0.000
174747.300,173577.200,711343.100,711696.600,195063.200,182311.200,222183.100,159308.200,0.000
174754.800,173591.200,711344.600,711697.600,195094.000,182324.800,222215.700,159323.100,0.000
174759.300,173619.600,711346.900,711700.100,195176.400,182371.800,222315.600,159357.700,0.000
174742.500,173598.700,711345.900,711699.100,195161.200,182356.500,222312.200,159331.200,0.000
174743.100,173581.500,711344.100,711697.100,195117.200,182328.500,222270.300,159307.700,0.000
174759.000,173590.600,711346.100,711699.000,195138.900,182335.300,222288.900,159326.500,0.000
174752.900,173590.000,711343.500,711696.200,195158.600,182335.000,222304.900,159331.600,0.000
174747.600,173608.400,711345.300,711698.400,195232.400,182372.500,222393.700,159359.500,0.000
174723.100,173584.400,711343.100,711695.500,195211.500,182351.600,222383.400,159326.100,0.000
174724.300,173567.700,711340.400,711693.000,195166.600,182322.600,222339.300,159300.900,0.000
174737.100,173572.300,711339.300,711691.800,195174.300,182322.300,222344.600,159309.600,0.000
174746.100,173585.900,711337.900,711689.800,195201.500,182332.400,222370.800,159324.800,0.000
174755.600,173623.100,711340.000,711691.600,195287.900,182385.200,222473.700,159366.000,0.000
174735.800,173600.700,711337.600,711689.400,195273.600,182365.300,222469.000,159339.200,0.000
174729.300,173578.400,711338.300,711690.100,195229.800,182332.800,222423.100,159312.600,0.000
174733.200,173575.100,711338.400,711689.900,195241.700,182326.400,222428.400,159321.300,0.000
174732.500,173575.800,711337.900,711689.100,195264.000,182328.400,222448.700,159331.100,0.000
174737.900,173607.000,711337.900,711689.300,195342.000,182375.500,222545.300,159367.000,0.000
174733.900,173606.100,711340.200,711691.800,195342.500,182377.300,222557.300,159353.300,0.000
174734.100,173592.200,711340.200,711691.300,195299.800,182353.400,222511.500,159326.200,0.000
174749.600,173597.900,711344.100,711695.500,195317.400,182352.400,222526.600,159341.500,0.000
174744.300,173593.800,711340.400,711691.300,195329.900,182343.600,222535.900,159342.700,0.000
174746.300,173621.700,711340.900,711691.600,195409.200,182390.100,222629.900,159376.000,0.000
174727.900,173602.100,711338.400,711689.100,195392.500,182372.900,222622.600,159345.300,0.000
174731.200,173581.700,711340.200,711690.500,195352.200,182340.600,222580.400,159322.100,0.000
174749.400,173590.500,711339.600,711690.200,195365.100,182337.800,222588.100,159335.800,0.000
174747.800,173594.000,711338.800,711689.100,195378.700,182338.300,222597.200,159338.400,0.000
174757.500,173628.100,711340.900,711691.000,195464.300,182388.800,222696.500,159380.500,0.000
174739.200,173606.800,711337.400,711687.000,195449.800,182373.500,222695.600,159357.800,0.000
174728.700,173580.100,711334.600,711684.100,195397.700,182333.700,222645.600,159326.000,0.000
174738.900,173575.900,711333.800,711683.400,195397.400,182323.900,222644.000,159332.500,0.000
174746.300,173588.100,711334.300,711684.300,195421.100,182330.500,222666.000,159347.400,0.000
174747.300,173614.000,711335.900,711685.900,195502.900,182370.000,222760.000,159381.400,0.000
174731.300,173593.800,711335.600,711685.000,195492.500,182356.000,222756.900,159360.900,0.000
174730.100,173573.300,711335.200,711684.800,195455.100,182328.800,222713.500,159336.800,0.000
174739.800,173574.900,711331.400,711680.800,195470.000,182320.100,222712.200,159340.600,0.000
174747.500,173585.400,711334.600,711683.900,195513.200,182329.500,222737.600,159356.200,0.000
174749.800,173615.800,711336.600,711685.800,195630.000,182375.400,222834.000,159392.700,0.000
174727.500,173596.800,711334.900,711683.500,195643.900,182361.100,222825.800,159366.100,0.000
174726.800,173578.800,711335.200,711683.500,195604.100,182333.600,222780.600,159340.300,0.000
174726.400,173570.300,711331.300,711679.600,195601.700,182318.500,222778.100,159339.300,0.000
174739.100,173587.100,711333.700,711682.200,195630.600,182334.000,222809.400,159359.300,0.000
174743.500,173619.600,711333.600,711682.100,195708.500,182382.400,222906.400,159393.800,0.000
174725.700,173604.700,711332.100,711680.800,195699.000,182370.900,222906.700,159370.000,0.000
174729.900,173594.700,711335.300,711684.300,195662.800,182349.400,222871.400,159351.200,0.000
174742.500,173598.000,711336.100,711684.400,195672.200,182349.100,222877.900,159365.200,0.000
174748.700,173609.400,711333.900,711682.400,195691.900,182357.700,222897.100,159382.000,0.000
174751.300,173632.700,711333.600,711681.800,195763.700,182397.700,222988.000,159418.000,0.000
174738.100,173613.200,711332.900,711681.000,195746.600,182381.600,222981.500,159396.600,0.000
174735.900,173592.000,711332.500,711680.300,195696.100,182345.800,222928.900,159371.900,0.000
174747.800,173596.800,711332.400,711680.400,195701.900,182344.800,222929.600,159385.300,0.000
174752.700,173608.100,711333.100,711681.000,195723.000,182358.600,222957.500,159407.400,0.000
174748.000,173632.100,711332.900,711680.300,195795.300,182399.600,223055.900,159446.900,0.000
174730.400,173618.900,711331.900,711679.300,195780.600,182392.300,223060.400,159432.900,0.000
174725.300,173597.200,711331.700,711679.100,195727.300,182364.400,223011.300,159408.200,0.000
174727.700,173591.100,711330.600,711677.400,195723.300,182358.000,223006.800,159411.100,0.000
174736.900,173604.000,711333.300,711680.000,195750.800,182377.500,223036.700,159431.800,0.000
174751.200,173640.300,711334.900,711681.400,195834.700,182433.300,223139.800,159476.800,0.000
174731.200,173624.200,711335.400,711682.000,195820.700,182419.600,223140.100,159455.500,0.000
174722.700,173599.700,711333.200,711679.800,195770.200,182383.600,223089.500,159423.200,0.000
174739.900,173604.500,711333.900,711680.300,195781.500,182385.200,223095.800,159437.300,0.000
174746.200,173614.700,711336.100,711682.300,195806.900,182396.300,223120.300,159457.600,0.000
174743.500,173638.200,711335.000,711681.400,195878.000,182435.100,223210.600,159485.900,0.000
174732.300,173632.700,711335.200,711681.200,195869.300,182430.300,223213.100,159466.800,0.000
174724.400,173610.100,711332.600,711678.600,195824.600,182399.100,223166.400,159436.400,0.000
174740.100,173611.900,711332.500,711678.400,195836.700,182397.500,223174.000,159444.600,0.000
174741.300,173616.100,711334.100,711679.900,195857.300,182402.800,223189.000,159454.400,0.000
174741.800,173640.000,711332.900,711678.400,195933.000,182444.400,223276.600,159485.600,0.000
174723.100,173618.700,711330.600,711676.000,195914.100,182430.800,223264.500,159455.300,0.000
174722.700,173599.800,711330.700,711676.000,195871.400,182398.200,223215.600,159427.600,0.000
174747.100,173616.600,711334.800,711679.900,195894.600,182405.500,223230.500,159448.800,0.000
174749.600,173626.800,711334.100,711679.100,195914.600,182410.300,223250.300,159461.500,0.000
174752.300,173657.100,711335.700,711680.800,195996.600,182459.200,223351.700,159499.900,0.000
174725.700,173624.000,711333.100,711677.900,195973.000,182428.500,223337.600,159461.600,0.000
174724.800,173599.700,711331.000,711675.400,195921.800,182391.700,223285.100,159425.900,0.000
174738.000,173601.200,711330.300,711674.800,195927.800,182391.000,223290.100,159431.900,0.000
174746.000,173611.600,711330.200,711674.800,195951.300,182402.100,223313.600,159444.500,0.000
174746.500,173636.200,711328.900,711673.300,196026.700,182442.300,223404.600,159476.600,0.000
174728.600,173617.500,711326.400,711670.600,196008.600,182424.500,223399.800,159449.100,0.000
174743.100,173614.400,711329.400,711673.400,195977.100,182409.400,223368.900,159433.200,0.000
174758.100,173620.100,711331.300,711675.000,195990.800,182409.100,223380.800,159443.100,0.000
174762.800,173620.600,711332.300,711675.800,196014.000,182409.300,223406.000,159451.600,0.000
174761.500,173641.900,711330.000,711673.100,196084.600,182446.700,223492.300,159477.600,0.000
174740.700,173622.600,711327.700,711670.800,196069.400,182429.000,223484.400,159445.200,0.000
174733.300,173597.400,711326.300,711669.400,196021.100,182392.300,223433.000,159411.400,0.000
174741.300,173595.500,711325.000,711668.300,196025.300,182386.300,223431.300,159416.800,0.000
174749.100,173608.100,711326.700,711669.600,196048.600,182395.700,223454.400,159432.100,0.000
174746.600,173629.800,711326.100,711668.800,196118.800,182435.500,223540.200,159461.500,0.000
174738.400,173620.000,711326.700,711669.400,196114.300,182430.600,223543.300,159447.100,0.000
174744.500,173605.000,711328.900,711671.000,196076.600,182398.600,223501.500,159427.800,0.000
174747.400,173594.900,711326.300,711668.300,196071.800,182382.900,223494.900,159425.300,0.000
174750.400,173600.100,711324.800,711666.700,196085.400,182384.600,223511.500,159434.200,0.000
174753.400,173625.300,711323.800,711665.600,196156.100,182426.100,223601.300,159468.900,0.000
174732.200,173605.500,711320.400,711662.900,196133.300,182410.900,223590.400,159442.500,0.000
174732.400,173589.400,711322.800,711664.600,196090.100,182383.500,223542.600,159417.800,0.000
174752.000,173601.000,711325.900,711667.300,196104.600,182386.500,223549.500,159430.400,0.000
174760.100,173613.900,711326.700,711668.300,196130.700,182401.200,223573.800,159446.500,0.000
174754.400,173636.700,711329.200,711671.000,196209.000,182442.800,223669.200,159480.000,0.000
174739.800,173622.900,711327.600,711669.400,196197.000,182427.200,223670.400,159457.200,0.000
174740.800,173602.300,711327.900,711669.100,196147.900,182398.600,223620.800,159430.100,0.000
174754.100,173604.000,711326.800,711668.100,196153.200,182395.500,223620.500,159435.800,0.000
174754.300,173609.000,711324.600,711665.800,196163.400,182396.800,223632.000,159439.200,0.000
174757.100,173640.500,711324.100,711665.300,196235.500,182441.500,223722.400,159472.300,0.000
174738.700,173621.200,711324.400,711665.100,196226.000,182426.700,223722.100,159448.000,0.000
174743.500,173606.800,711325.800,711666.500,196188.000,182403.400,223679.100,159425.000,0.000
174751.900,173601.700,711324.400,711665.200,196193.600,182397.800,223677.300,159431.800,0.000
174756.600,173605.700,711323.500,711664.000,196213.700,182402.100,223697.600,159446.700,0.000
174753.500,173626.700,711320.500,711661.300,196277.400,182437.300,223781.800,159476.800,0.000
174736.900,173612.800,711319.800,711660.100,196259.300,182422.300,223776.800,159454.100,0.000
174743.500,173603.300,711321.800,711661.900,196221.800,182398.700,223737.300,159435.700,0.000
174753.100,173607.200,711320.700,711660.700,196225.000,182391.500,223737.800,159439.700,0.000
174756.100,173615.700,711320.900,711660.700,196241.700,182398.600,223756.000,159447.900,0.000
174758.700,173648.400,711324.400,711664.300,196323.300,182448.500,223855.100,159487.400,0.000
174745.300,173629.300,711323.800,711663.300,196308.800,182435.100,223852.900,159466.300,0.000
174753.100,173615.200,711324.600,711664.300,196264.700,182410.300,223812.000,159446.400,0.000
174762.500,173613.300,711323.800,711663.700,196267.300,182398.500,223812.000,159452.100,0.000
174770.400,173624.300,711324.400,711663.600,196291.100,182407.900,223831.600,159468.300,0.000
174773.800,173650.700,711323.900,711662.900,196363.300,182446.800,223920.100,159504.700,0.000
174744.500,173621.900,711323.800,711662.400,196339.400,182423.200,223904.900,159471.200,0.000
174742.700,173605.000,711321.900,711660.900,196293.200,182395.000,223855.400,159446.300,0.000
174763.900,173618.200,711323.800,711663.100,196310.200,182403.400,223868.900,159467.400,0.000
174769.000,173626.700,711324.600,711663.700,196330.900,182410.900,223886.600,159478.500,0.000
174768.100,173650.200,711323.400,711661.700,196402.500,182454.000,223974.700,159507.500,0.000
174751.400,173636.200,711322.100,711660.600,196393.800,182446.200,223975.900,159488.100,0.000
174753.000,173618.600,711323.400,711661.400,196352.100,182419.900,223932.000,159463.500,0.000
174766.000,173620.800,711322.800,711660.800,196358.900,182415.400,223933.000,159472.000,0.000
174762.400,173623.800,711322.700,711660.800,196376.500,182421.000,223947.000,159481.800,0.000
174767.900,173658.800,711326.300,711664.300,196461.000,182472.600,224046.800,159523.200,0.000
174743.400,173635.300,711324.900,711662.700,196446.500,182456.500,224039.800,159496.000,0.000
174747.400,173621.000,711327.800,711665.100,196408.500,182435.800,224000.300,159479.200,0.000
174745.200,173608.700,711323.600,711660.900,196402.500,182414.800,223991.700,159476.700,0.000
174736.500,173603.200,711317.200,711654.900,196409.100,182403.900,223995.400,159472.200,0.000
174746.100,173634.500,711316.900,711654.400,196485.600,182454.400,224085.700,159507.200,0.000
174731.900,173617.800,711317.800,711655.000,196474.400,182444.400,224082.000,159486.300,0.000
174739.800,173607.900,711319.200,711656.100,196430.500,182416.300,224035.900,159463.000,0.000
174750.100,173609.300,711320.000,711657.100,196438.700,182414.700,224040.800,159473.600,0.000
174749.800,173614.900,711320.000,711656.900,196462.600,182425.200,224059.900,159486.500,0.000
174763.500,173660.500,711325.200,711662.100,196554.300,182485.400,224166.400,159531.400,0.000
174736.200,173633.800,711321.100,711657.600,196532.000,182461.900,224154.000,159500.500,0.000
174729.800,173607.800,711319.800,711655.700,196480.600,182421.400,224101.500,159470.100,0.000
174747.600,173613.200,711320.500,711656.700,196487.100,182418.300,224107.700,159478.700,0.000
174745.800,173608.600,711316.900,711652.800,196489.200,182411.200,224111.500,159476.000,0.000
174755.000,173642.300,711315.600,711651.300,196570.600,182461.300,224205.900,159514.000,0.000
174741.800,173631.100,711315.900,711651.400,196564.000,182451.600,224208.400,159496.200,0.000
174733.400,173606.900,711315.300,711650.800,196509.700,182417.600,224154.600,159463.000,0.000
174741.300,173607.700,711314.400,711649.600,196513.200,182410.800,224156.400,159468.400,0.000
174744.700,173615.200,711313.100,711648.100,196531.200,182414.200,224172.000,159477.400,0.000
174753.400,173648.900,711315.500,711650.800,196612.800,182461.900,224268.700,159516.600,0.000
174735.000,173629.700,711314.400,711648.800,196595.900,182444.600,224257.900,159489.500,0.000
174735.500,173610.800,711315.300,711649.700,196552.800,182420.000,224209.300,159467.000,0.000
174747.200,173612.700,711318.200,711652.500,196567.800,182418.800,224218.000,159481.400,0.000
174747.700,173616.600,711316.800,711650.600,196589.400,182426.400,224238.000,159492.800,0.000
174753.800,173651.600,711318.100,711652.400,196672.200,182482.700,224338.400,159535.700,0.000
174737.200,173637.100,711319.700,711654.200,196661.300,182475.100,224339.900,159519.200,0.000
174729.700,173610.000,711320.300,711654.200,196611.900,182440.000,224292.100,159491.000,0.000
174739.400,173605.900,711317.600,711651.600,196614.800,182431.200,224289.300,159495.700,0.000
174742.300,173609.700,711315.600,711649.400,196631.200,182430.800,224298.100,159500.500,0.000
174750.200,173641.900,711316.400,711650.300,196710.600,182479.300,224388.100,159536.200,0.000
174736.700,173626.800,711315.500,711648.900,196696.300,182465.600,224384.400,159512.600,0.000
174737.100,173604.900,711316.400,711649.600,196648.300,182435.900,224336.500,159485.000,0.000
174745.900,173606.000,711316.100,711649.400,196653.300,182432.100,224339.500,159492.600,0.000
174752.700,173617.500,711317.200,711650.900,196675.600,182436.600,224362.200,159507.400,0.000
174761.500,173650.400,711319.600,711653.000,196758.000,182481.500,224462.100,159545.400,0.000
174745.900,173631.600,711317.500,711650.800,196736.400,182460.500,224451.000,159515.000,0.000
174743.500,173606.300,711314.700,711647.100,196679.900,182422.300,224390.400,159482.200,0.000
174767.500,173617.000,711315.700,711648.200,196688.800,182426.300,224390.600,159496.500,0.000
174770.400,173621.800,711314.400,711647.300,196703.500,182429.800,224403.800,159508.200,0.000
174770.400,173643.500,711313.100,711645.700,196775.600,182470.400,224490.900,159538.400,0.000
174750.900,173620.800,711313.100,711645.300,196761.300,182450.300,224483.900,159513.200,0.000
174752.000,173602.800,711314.900,711647.100,196720.800,182424.800,224440.100,159490.900,0.000
174774.000,173617.600,711317.200,711649.300,196734.600,182431.200,224448.000,159505.500,0.000
174782.900,173629.100,711316.100,711647.900,196752.700,182436.300,224463.400,159514.000,0.000
174781.300,173653.000,711313.800,711645.900,196822.100,182474.500,224551.100,159542.800,0.000
174755.600,173626.300,711308.400,711640.100,196796.200,182450.200,224537.000,159508.400,0.000
174762.300,173614.000,711307.600,711639.100,196751.300,182425.700,224491.600,159486.300,0.000
174785.000,173627.900,711313.100,711644.500,196775.800,182436.500,224511.500,159512.100,0.000
174772.400,173620.800,711311.300,711642.400,196785.500,182428.300,224517.400,159511.300,0.000
174778.500,173647.800,711312.200,711643.300,196863.400,182472.200,224608.900,159548.400,0.000
174769.300,173636.200,711313.300,711643.900,196851.600,182461.600,224609.600,159528.600,0.000
174768.400,173620.200,711314.700,711645.300,196808.800,182433.500,224568.300,159503.700,0.000
174770.900,173613.200,711312.800,711642.800,196805.900,182421.900,224561.800,159504.200,0.000
174780.000,173625.900,711313.400,711643.800,196828.500,182433.100,224583.200,159520.200,0.000
174785.700,173656.900,711311.800,711641.900,196904.100,182477.900,224673.300,159555.000,0.000
174770.700,173644.000,711311.700,711641.600,196892.900,182467.800,224671.400,159534.600,0.000
174775.100,173631.100,711313.400,711643.300,196850.700,182442.800,224630.000,159514.300,0.000
174783.400,173629.500,711313.300,711643.000,196853.000,182436.200,224630.800,159521.500,0.000
174785.100,173635.200,711314.100,711643.600,196873.800,182446.000,224649.200,159534.100,0.000
174782.700,173656.000,711314.300,711643.400,196943.400,182485.800,224736.100,159563.700,0.000
174762.800,173633.700,711313.400,711642.800,196923.300,182464.400,224729.800,159535.400,0.000
174757.800,173609.000,711310.900,711640.300,196871.400,182424.100,224679.700,159504.000,0.000
174766.100,173608.100,711310.700,711639.700,196873.500,182414.900,224681.000,159511.300,0.000
174785.000,173632.500,711314.100,711643.000,196906.200,182437.900,224711.400,159537.100,0.000
174789.100,173666.200,711315.500,711644.500,196984.700,182487.600,224803.900,159572.300,0.000
174767.800,173643.300,711315.900,711644.600,196964.800,182466.500,224794.500,159540.800,0.000
174765.600,173619.000,711314.600,711643.000,196913.300,182429.500,224741.900,159510.600,0.000
174772.600,173614.100,711311.600,711639.900,196911.000,182420.300,224737.600,159512.500,0.000
174772.200,173620.900,711313.300,711641.500,196926.400,182423.700,224753.400,159521.500,0.000
174767.700,173645.300,711313.000,711641.100,196994.800,182465.400,224841.500,159554.300,0.000
174745.200,173624.200,711309.300,711637.100,196974.600,182449.200,224830.500,159526.500,0.000
174748.500,173609.800,711309.500,711637.200,196932.200,182423.600,224783.000,159502.600,0.000
174767.000,173619.700,711312.200,711640.100,196944.700,182424.900,224790.900,159518.700,0.000
174765.500,173625.500,711310.900,711638.700,196958.800,182426.800,224801.200,159526.800,0.000
174759.600,173646.200,711309.600,711637.100,197026.500,182467.900,224881.100,159556.200,0.000
174743.500,173630.400,711310.300,711637.300,197011.900,182457.100,224875.600,159534.300,0.000
174748.900,173618.600,711312.000,711639.300,196971.300,182436.600,224831.200,159515.200,0.000
174757.200,173617.700,711313.900,711641.100,196976.700,182429.500,224830.600,159520.600,0.000
174753.600,173619.500,711310.100,711637.100,196985.200,182425.200,224835.000,159521.500,0.000
174748.300,173640.800,711307.000,711634.100,197053.800,182465.300,224917.100,159547.900,0.000
174732.500,173621.500,711306.900,711633.600,197037.300,182450.200,224906.400,159521.100,0.000
174741.800,173611.100,711309.800,711636.100,196992.500,182424.400,224856.200,159498.600,0.000
174759.000,173620.100,711311.100,711636.900,196995.800,182421.800,224854.900,159507.100,0.000
174761.000,173626.200,711309.900,711635.700,197010.800,182422.000,224868.600,159520.900,0.000
174769.300,173655.300,711310.100,711635.700,197091.200,182469.200,224966.100,159565.600,0.000
174748.000,173630.100,711308.800,711634.300,197070.500,182446.900,224957.300,159538.200,0.000
174746.400,173609.000,711308.800,711634.700,197018.800,182412.900,224901.500,159508.000,0.000
174763.700,173619.100,711309.200,711634.900,197027.100,182414.300,224905.400,159521.000,0.000
174765.600,173625.600,711311.100,711636.400,197045.100,182420.500,224920.600,159531.400,0.000
174768.100,173655.000,711311.300,711636.300,197121.300,182467.200,225011.500,159567.100,0.000
174744.300,173632.900,711309.500,711634.000,197099.400,182451.800,225001.600,159539.800,0.000
174749.900,173620.200,711309.300,711633.800,197053.300,182422.100,224954.800,159518.900,0.000
174769.800,173628.300,711310.600,711635.100,197063.600,182426.100,224960.000,159533.500,0.000
174774.800,173632.900,711309.500,711634.300,197078.500,182432.600,224976.700,159544.500,0.000
174771.700,173649.600,711306.900,711631.500,197139.900,182463.600,225056.900,159569.600,0.000
174754.500,173631.700,711305.800,711630.300,197125.000,182451.900,225053.900,159548.500,0.000
174750.100,173611.600,711308.600,711633.300,197080.300,182424.300,225006.300,159527.400,0.000
174758.400,173612.500,711308.200,711632.400,197087.000,182422.000,225008.100,159537.500,0.000
174761.500,173620.200,711309.100,711632.600,197108.600,182425.000,225029.400,159552.700,0.000
174760.300,173645.900,711306.500,711630.300,197180.600,182467.000,225115.500,159587.700,0.000
174744.500,173634.700,711305.900,711629.600,197169.500,182460.000,225117.600,159572.200,0.000
174734.000,173606.500,711303.600,711627.400,197113.500,182423.900,225062.800,159541.300,0.000
174746.800,173608.300,711306.100,711629.600,197122.600,182424.000,225068.300,159554.100,0.000
174752.100,173614.600,711305.800,711629.000,197137.600,182429.000,225084.400,159564.500,0.000
174766.300,173651.100,711308.600,711631.600,197220.500,182482.700,225184.500,159608.800,0.000
174747.100,173629.800,711306.500,711629.300,197201.400,182469.200,225172.500,159581.500,0.000
174741.100,173605.300,711306.200,711629.000,197149.500,182434.600,225112.400,159546.600,0.000
174756.200,173609.500,711304.800,711627.300,197152.000,182431.100,225108.400,159553.500,0.000
174758.300,173617.500,711302.800,711625.300,197165.100,182433.500,225119.500,159560.000,0.000
174758.400,173646.800,711303.100,711625.800,197239.900,182478.800,225212.400,159595.800,0.000
174744.800,173636.500,711304.300,711626.500,197235.500,182470.500,225223.300,159587.100,0.000
174733.200,173606.500,711301.900,711623.600,197175.300,182427.900,225163.600,159552.500,0.000
174744.600,173605.800,711301.200,711622.900,197178.500,182422.800,225161.200,159560.000,0.000
174753.500,173618.300,711304.600,711626.200,197203.500,182432.100,225182.000,159575.400,0.000
174760.800,173653.700,711306.300,711627.800,197282.900,182483.000,225275.300,159614.200,0.000
174742.400,173636.400,711303.200,711624.300,197268.300,182468.300,225269.500,159588.400,0.000
174742.000,173615.400,711301.500,711622.400,197214.100,182434.000,225212.900,159553.800,0.000
174755.900,173618.200,711302.600,711623.200,197215.300,182429.500,225207.600,159556.700,0.000
174762.700,173627.500,711304.100,711624.500,197231.100,182439.100,225220.000,159564.700,0.000
174766.900,173656.900,711306.100,711625.900,197307.600,182488.900,225311.700,159600.300,0.000
174739.300,173630.600,711303.300,711622.600,197288.800,182467.000,225302.100,159569.900,0.000
174734.600,173609.700,711303.700,711623.300,197236.600,182431.300,225247.900,159537.900,0.000
174744.900,173612.100,711301.600,711621.800,197239.000,182425.700,225247.600,159546.200,0.000
174757.200,173632.300,711304.200,711623.800,197260.600,182440.900,225272.200,159564.500,0.000
174756.000,173653.400,711301.800,711621.400,197323.600,182479.400,225355.600,159592.700,0.000
174742.900,173635.800,711299.700,711619.500,197301.600,182465.600,225345.500,159569.400,0.000
174753.500,173627.900,711302.100,711621.600,197258.300,182445.400,225298.800,159546.800,0.000
174758.700,173626.200,711301.900,711621.300,197258.400,182436.100,225295.700,159551.500,0.000
174756.500,173625.900,711300.700,711620.100,197268.900,182434.400,225306.000,159558.700,0.000
174768.600,173659.700,711303.900,711622.600,197357.200,182489.500,225407.400,159601.100,0.000
174748.400,173633.900,711302.200,711620.700,197342.900,182471.100,225402.500,159573.300,0.000
174746.800,173614.800,711301.000,711619.500,197296.500,182440.300,225353.100,159547.800,0.000
174763.100,173621.900,711300.900,711619.300,197304.900,182442.900,225355.800,159556.500,0.000
174768.600,173634.300,711303.600,711621.400,197327.000,182455.400,225375.700,159571.600,0.000
174767.000,173659.100,711304.200,711622.100,197397.700,182495.800,225463.500,159602.100,0.000
174751.600,173646.500,711304.300,711621.600,197384.600,182478.800,225460.300,159578.800,0.000
174759.200,173641.500,711308.400,711624.900,197345.200,182457.700,225417.000,159562.800,0.000
174760.700,173633.900,711305.100,711621.600,197339.700,182446.400,225401.400,159560.100,0.000
174753.000,173629.700,711302.100,711618.600,197347.700,182440.600,225398.600,159558.800,0.000
174758.500,173655.900,711303.400,711619.800,197426.100,182480.600,225490.800,159599.200,0.000
174752.100,173647.900,711303.300,711619.800,197415.800,182470.900,225491.400,159586.300,0.000
174749.200,173630.000,711299.500,711615.500,197362.200,182440.300,225437.200,159562.800,0.000
174757.800,173632.400,711299.600,711615.500,197362.900,182438.600,225436.800,159573.700,0.000
174764.700,173643.800,711300.800,711617.100,197380.800,182451.700,225452.300,159589.900,0.000
174767.500,173675.500,711303.400,711619.100,197456.900,182497.400,225545.200,159631.600,0.000
174747.100,173651.900,711300.800,711615.900,197436.100,182478.100,225538.900,159609.600,0.000
174744.500,173632.500,711299.300,711614.300,197385.300,182450.900,225489.400,159589.800,0.000
174758.500,173639.800,711301.600,711616.400,197392.400,182455.200,225493.700,159609.300,0.000
174757.600,173644.800,711299.900,711614.300,197405.600,182461.100,225503.500,159622.500,0.000
174764.300,173676.500,711301.900,711616.000,197480.700,182512.500,225591.500,159664.700,0.000
174745.900,173659.300,711302.200,711616.400,197466.600,182500.900,225583.700,159645.000,0.000
174741.000,173635.000,711300.300,711614.500,197413.800,182468.800,225525.500,159616.500,0.000
174747.100,173631.800,711297.000,711611.200,197410.800,182463.900,225514.700,159617.700,0.000
174745.600,173636.400,711293.600,711606.900,197421.200,182465.900,225522.000,159623.900,0.000
174748.900,173669.200,711296.000,711609.100,197500.300,182517.200,225614.700,159664.400,0.000
174735.400,173656.700,711299.100,711611.900,197496.300,182511.900,225617.900,159649.000,0.000
174738.400,173638.100,711298.600,711611.000,197450.000,182483.300,225567.400,159621.000,0.000
174753.600,173643.000,711297.900,711610.400,197457.800,182479.100,225568.000,159631.700,0.000
174761.200,173656.800,711302.600,711615.100,197479.100,182487.900,225585.100,159645.900,0.000
174759.200,173680.000,711302.600,711615.000,197545.600,182530.300,225668.100,159672.000,0.000
174740.600,173658.800,711300.300,711612.300,197529.400,182515.700,225662.700,159646.200,0.000
174744.700,173642.800,711299.100,711611.100,197483.600,182482.600,225612.100,159620.100,0.000
174754.800,173645.100,711298.500,711609.900,197486.100,182478.100,225610.300,159627.300,0.000
174752.600,173643.000,711297.300,711608.600,197499.000,182481.600,225621.600,159634.200,0.000
174754.000,173668.100,711297.000,711608.800,197571.900,182527.700,225711.700,159668.400,0.000
174731.100,173647.500,711296.100,711607.400,197557.000,182513.800,225705.300,159642.200,0.000
174735.300,173637.000,711298.400,711608.900,197514.200,182488.700,225658.000,159618.800,0.000
174747.000,173639.400,711299.500,711610.100,197519.600,182484.700,225657.700,159629.500,0.000
174749.900,173647.400,711299.500,711610.600,197536.000,182488.000,225670.100,159639.200,0.000
174750.500,173674.500,711300.600,711611.200,197609.500,182530.300,225757.700,159671.800,0.000
174739.200,173659.900,711300.700,711611.100,197598.500,182517.700,225755.400,159651.600,0.000
174731.500,173631.800,711297.200,711607.300,197541.500,182479.600,225697.900,159616.100,0.000
174745.900,173635.800,711297.600,711607.000,197546.300,182479.000,225697.600,159625.900,0.000
174744.300,173638.700,711297.100,711606.200,197561.300,182481.200,225709.400,159632.300,0.000
174752.100,173673.000,711299.300,711608.900,197647.300,182532.600,225809.800,159671.600,0.000
174733.500,173652.400,711299.100,711608.100,197632.200,182516.800,225803.100,159646.500,0.000
174728.300,173631.000,711300.400,711609.100,197579.900,182481.300,225747.700,159615.200,0.000
174745.600,173633.800,711299.700,711608.100,197584.800,182477.600,225744.700,159622.800,0.000
174753.700,173642.000,711298.400,711606.600,197603.200,182480.600,225758.600,159633.000,0.000
174757.300,173668.400,711298.100,711605.800,197674.800,182522.200,225844.700,159662.700,0.000
174735.900,173645.000,711295.200,711602.100,197658.700,182506.700,225836.800,159635.300,0.000
174731.500,173621.300,711294.500,711601.100,197611.400,182473.000,225786.200,159607.600,0.000
174751.200,173625.100,711295.200,711601.900,197617.200,182469.000,225785.800,159619.600,0.000
174758.300,173633.500,711293.900,711600.400,197629.700,182470.600,225798.100,159630.200,0.000
174766.500,173670.900,711297.900,711604.100,197707.800,182515.600,225892.600,159674.000,0.000
174745.400,173651.300,711297.900,711603.400,197686.800,182495.600,225880.800,159649.400,0.000
174737.100,173623.700,711296.600,711602.100,197628.200,182458.600,225819.300,159615.600,0.000
174750.500,173628.700,711297.000,711602.300,197632.900,182458.900,225817.800,159625.000,0.000
174750.000,173635.200,711296.400,711601.400,197651.900,182465.700,225832.700,159635.000,0.000
174749.200,173661.300,711294.500,711599.400,197729.000,182516.000,225922.500,159670.900,0.000
174729.800,173643.900,711294.100,711598.500,197716.600,182506.700,225913.000,159644.000,0.000
174727.300,173622.600,711294.700,711598.700,197673.100,182467.300,225862.300,159615.000,0.000
174736.300,173618.300,711291.800,711595.400,197667.900,182456.100,225853.400,159615.500,0.000
174748.300,173632.800,711292.300,711595.600,197682.200,182466.200,225866.500,159627.300,0.000
174760.200,173669.600,711295.300,711598.600,197761.700,182517.800,225961.000,159665.600,0.000
174744.300,173646.700,711294.600,711597.300,197741.800,182500.700,225950.500,159637.800,0.000
174747.000,173626.800,711293.400,711596.300,197688.800,182470.600,225892.000,159605.900,0.000
174759.300,173629.200,711291.400,711594.600,197694.300,182467.200,225889.700,159614.300,0.000
174756.900,173630.500,711292.800,711595.200,197709.800,182469.900,225904.100,159624.200,0.000
174761.100,173661.600,711294.800,711596.500,197787.600,182520.800,225996.600,159662.000,0.000
174748.200,173653.400,711294.500,711596.000,197776.200,182513.200,225991.600,159640.500,0.000
174749.300,173640.300,711295.400,711596.800,197727.300,182484.800,225939.000,159616.000,0.000
174770.400,173650.200,711297.900,711598.900,197736.300,182487.100,225943.800,159632.900,0.000
174771.600,173648.200,711296.800,711596.900,197743.000,182488.300,225948.300,159636.000,0.000
174773.800,173675.400,711296.800,711596.800,197815.600,182528.600,226038.100,159670.200,0.000
174753.800,173655.900,711295.700,711595.400,197801.000,182513.000,226035.500,159650.700,0.000
174750.100,173631.800,711295.600,711595.000,197752.600,182482.600,225984.500,159622.200,0.000
174764.000,173633.700,711296.200,711595.300,197755.800,182474.500,225980.300,159627.900,0.000
174767.500,173639.200,711294.700,711593.700,197766.100,182471.800,225988.300,159632.100,0.000
174774.000,173673.800,711296.400,711594.900,197845.500,182523.400,226083.700,159669.200,0.000
174751.800,173653.500,711295.700,711593.700,197822.900,182509.600,226070.500,159641.900,0.000
174753.800,173638.300,711296.100,711594.000,197773.500,182483.900,226018.100,159620.000,0.000
174758.100,173630.100,711293.700,711591.600,197769.000,182472.400,226007.100,159620.100,0.000
174762.100,173636.700,711293.700,711591.000,197784.400,182472.400,226018.700,159627.700,0.000
174767.400,173666.600,711294.300,711591.100,197856.800,182516.000,226103.700,159660.100,0.000
174750.000,173652.100,711293.600,711589.600,197840.800,182501.600,226097.900,159636.500,0.000
174748.700,173635.800,711292.900,711588.800,197790.900,182471.300,226046.300,159612.400,0.000
174761.100,173635.800,711293.600,711588.900,197791.000,182466.700,226041.400,159624.800,0.000
174766.100,173648.500,711294.500,711589.400,197810.400,182477.700,226059.700,159642.300,0.000
174771.100,173681.900,711293.400,711587.900,197881.200,182524.000,226143.000,159677.000,0.000
174750.200,173661.500,711291.400,711585.500,197866.000,182507.200,226134.300,159653.300,0.000
174742.900,173635.300,711291.900,711585.300,197813.200,182476.200,226078.300,159624.500,0.000
174760.900,173640.600,711295.500,711587.900,197824.700,182477.500,226082.400,159642.600,0.000
174762.000,173643.000,711290.900,711583.300,197830.200,182475.100,226082.500,159647.900,0.000
174766.900,173678.500,711293.500,711585.200,197909.900,182528.600,226177.900,159689.300,0.000
174751.300,173663.900,711297.400,711588.200,197899.300,182522.700,226180.100,159671.000,0.000
174749.800,173645.800,711295.500,711585.900,197842.800,182486.200,226120.000,159638.800,0.000
174751.800,173640.600,711291.400,711581.100,197834.500,182470.000,226103.000,159635.200,0.000
174762.500,173650.400,711294.100,711583.400,197853.300,182480.400,226120.700,159651.500,0.000
174789.000,173696.700,711299.500,711588.300,197944.400,182545.600,226228.500,159706.300,0.000
174754.800,173666.200,711294.900,711582.300,197915.800,182516.000,226210.800,159668.300,0.000
174748.500,173642.900,711294.900,711581.800,197863.300,182482.500,226154.000,159634.600,0.000
174758.000,173644.300,711294.900,711581.100,197864.600,182480.800,226150.400,159644.400,0.000
174761.700,173653.200,711293.300,711579.300,197877.700,182486.100,226159.500,159656.400,0.000
174769.500,173685.200,711293.500,711578.800,197959.500,182535.000,226253.800,159696.900,0.000
174746.600,173660.600,711293.300,711577.000,197944.300,182514.400,226244.700,159669.600,0.000
174743.200,173636.000,711294.400,711577.600,197893.300,182480.000,226189.700,159639.600,0.000
174758.700,173636.600,711292.000,711575.000,197895.500,182478.400,226188.500,159648.800,0.000
174759.200,173641.100,711291.600,711573.200,197904.300,182480.200,226197.500,159655.900,0.000
174761.400,173671.500,711293.300,711573.600,197981.800,182527.100,226291.800,159694.500,0.000
174749.200,173659.500,711294.100,711572.600,197972.500,182518.800,226293.800,159676.300,0.000
174753.600,173648.300,711294.600,711572.400,197926.200,182494.500,226248.900,159654.600,0.000
174767.000,173655.400,711294.400,711571.800,197934.200,182496.800,226254.100,159664.700,0.000
174757.800,173651.000,711289.900,711565.400,197939.100,182491.700,226256.300,159660.100,0.000
174750.200,173667.300,711288.300,711562.000,198002.800,182526.700,226335.100,159684.500,0.000
174732.500,173648.800,711288.800,711560.100,197986.500,182508.200,226328.500,159659.200,0.000
174745.300,173640.900,711291.800,711561.100,197950.000,182482.600,226286.000,159640.800,0.000
174762.300,173645.600,711292.800,711560.900,197958.100,182480.400,226287.500,159650.900,0.000
174762.400,173649.800,711292.900,711559.300,197973.900,182485.200,226298.700,159658.300,0.000
174766.800,173677.400,711292.100,711556.600,198044.800,182523.500,226378.100,159687.500,0.000
174759.300,173668.100,711292.300,711553.100,198035.000,182515.700,226372.300,159669.200,0.000
174755.500,173645.400,711291.200,711548.500,197980.600,182478.400,226312.200,159640.500,0.000
174770.800,173651.100,711289.300,711544.800,197982.000,182475.700,226309.300,159651.200,0.000
174773.300,173652.400,711285.600,711538.300,197988.500,182477.900,226311.400,159655.500,0.000
174783.300,173687.200,711286.900,711535.800,198069.200,182527.800,226406.700,159699.600,0.000
174769.800,173674.100,711287.600,711526.600,198060.100,182519.500,226408.900,159682.300,0.000
174760.500,173644.500,711288.900,711517.700,198004.100,182483.300,226349.300,159648.600,0.000
174774.200,173649.700,711290.800,711513.600,198008.800,182484.000,226347.900,159656.500,0.000
174772.200,173653.800,711290.900,711501.200,198021.100,182488.500,226357.200,159662.200,0.000
174777.100,173682.600,711290.900,711489.100,198094.200,182535.500,226447.000,159698.100,0.000
174757.400,173660.500,711286.300,711452.600,198069.600,182512.800,226432.500,159668.600,0.000
174756.900,173641.100,711286.200,711422.600,198017.700,182481.300,226376.700,159640.000,0.000
174778.200,173652.800,711287.400,711407.700,198024.900,182487.200,226376.800,159652.000,0.000
174778.500,173657.800,711283.900,711374.200,198034.500,182486.100,226379.600,159655.100,0.000
174784.000,173685.700,711282.400,711347.500,198107.200,182525.300,226464.600,159690.200,0.000
174776.600,173677.400,711283.300,711301.600,198103.600,182520.900,226468.500,159674.700,0.000
174774.400,173661.500,711279.500,711261.300,198054.400,182491.300,226414.200,159648.500,0.000
174787.400,173668.500,711279.800,711243.200,198066.100,182491.800,226417.600,159664.000,0.000
174789.000,173668.900,711277.300,711213.800,198080.300,182495.600,226424.400,159668.900,0.000
174798.600,173704.800,711279.400,711189.700,198161.300,182548.900,226519.500,159709.300,0.000
174778.900,173683.300,711274.300,711134.200,198142.900,182531.300,226510.700,159679.600,0.000
174773.500,173659.500,711271.700,711095.100,198087.900,182496.300,226451.100,159643.800,0.000
174782.500,173661.100,711269.400,711070.200,198089.800,182490.900,226445.300,159649.000,0.000
174788.800,173673.500,711271.800,711045.800,198112.400,182502.500,226464.700,159669.800,0.000
174790.100,173704.100,711273.100,711019.800,198188.300,182547.300,226558.200,159710.900,0.000
174770.800,173684.400,711271.100,710967.300,198174.700,182533.500,226554.800,159689.600,0.000
174761.900,173655.000,711268.100,710924.400,198117.600,182495.400,226492.200,159656.000,0.000
174770.600,173651.700,711267.300,710899.900,198116.400,182491.000,226486.300,159664.700,0.000
174769.400,173655.500,711265.800,710867.300,198126.000,182490.300,226493.900,159669.600,0.000
174774.600,173691.500,711267.100,710843.000,198204.000,182540.200,226587.100,159707.600,0.000
174756.500,173673.500,711267.700,710789.800,198194.300,182529.000,226582.900,159684.800,0.000
174759.300,173656.000,711268.600,710755.400,198141.700,182497.000,226528.300,159657.500,0.000
174771.300,173657.200,711268.100,710730.800,198143.000,182490.600,226523.200,159662.200,0.000
174772.700,173660.100,711268.400,710698.300,198156.500,182491.800,226532.200,159667.500,0.000
174770.400,173682.500,711268.100,710670.300,198229.000,182536.400,226616.600,159702.400,0.000
174749.100,173660.800,711266.200,710616.000,198210.000,182523.600,226607.500,159677.400,0.000
174746.700,173639.200,711264.800,710575.900,198154.900,182493.000,226549.600,159646.500,0.000
174762.600,173643.600,711265.700,710557.000,198159.100,182494.100,226547.500,159659.600,0.000
174767.600,173651.500,711266.300,710529.700,198174.200,182505.400,226557.200,159672.900,0.000
174762.000,173671.900,711265.800,710492.600,198241.600,182545.400,226639.200,159702.000,0.000
174741.500,173651.500,711264.900,710432.700,198226.500,182525.300,226634.100,159678.000,0.000
174742.600,173634.500,711265.700,710393.800,198178.000,182494.900,226583.000,159650.500,0.000
174755.700,173638.200,711266.000,710371.000,198177.000,182489.500,226580.600,159659.000,0.000
174761.300,173647.200,711264.800,710339.300,198187.500,182492.300,226593.700,159666.300,0.000
174776.900,173690.500,711268.800,710319.900,198272.000,182548.800,226693.100,159711.100,0.000
174753.600,173672.100,711268.100,710257.600,198256.300,182530.700,226682.900,159684.500,0.000
174751.800,173650.700,711269.100,710216.700,198204.100,182498.300,226622.900,159655.500,0.000
174770.100,173656.800,711269.900,710203.400,198207.300,182497.200,226620.200,159667.500,0.000
174761.000,173648.100,711264.800,710164.400,198205.400,182485.400,226615.000,159662.800,0.000
174764.500,173675.800,711266.200,710134.600,198279.400,182528.900,226704.200,159702.200,0.000
174750.700,173663.000,711268.100,710080.400,198265.500,182519.100,226701.500,159683.300,0.000
174750.300,173643.100,711267.400,710041.900,198214.500,182489.200,226648.800,159654.200,0.000
174765.300,173647.000,711269.100,710018.100,198222.300,182488.500,226650.200,159665.500,0.000
174775.500,173658.400,711269.800,709992.800,198242.500,182499.400,226666.000,159682.000,0.000
174773.600,173685.800,711269.300,709959.600,198310.800,182540.900,226749.100,159717.900,0.000
174754.300,173670.500,711267.600,709900.800,198294.900,182529.100,226739.800,159696.000,0.000
174744.800,173642.800,711263.500,709855.300,198237.200,182486.000,226677.400,159660.900,0.000
174762.000,173652.000,711265.900,709834.800,198240.800,182485.500,226676.000,159671.800,0.000
174764.100,173656.000,711266.600,709797.900,198251.000,182489.300,226683.500,159677.600,0.000
174763.800,173683.300,711267.100,709763.700,198322.800,182532.000,226766.900,159710.000,0.000
174743.600,173661.200,711265.200,709704.700,198302.000,182515.800,226754.300,159682.300,0.000
174744.000,173638.000,711262.900,709664.700,198248.300,182480.800,226698.000,159653.500,0.000
174758.500,173642.600,711265.600,709640.300,198255.000,182483.000,226699.700,159666.900,0.000
174758.500,173652.600,711266.800,709604.000,198267.000,182489.300,226708.700,159673.300,0.000
174762.300,173686.200,711269.900,709576.900,198342.600,182540.500,226800.200,159711.200,0.000
174742.600,173668.200,711266.400,709519.300,198323.800,182526.500,226795.800,159688.000,0.000
174741.600,173645.000,711265.400,709477.200,198267.800,182494.600,226740.100,159659.900,0.000
174752.100,173643.600,711265.300,709453.300,198264.400,182491.200,226732.500,159666.400,0.000
174752.300,173648.800,711263.300,709420.000,198275.300,182497.200,226740.500,159675.100,0.000
174753.100,173671.600,711263.800,709388.200,198345.300,182540.100,226824.100,159709.400,0.000
174734.100,173650.700,711261.300,709324.900,198322.500,182522.400,226809.400,159681.200,0.000
174734.400,173632.100,711259.900,709284.200,198268.300,182490.400,226753.500,159654.600,0.000
174747.200,173633.600,711262.600,709261.200,198269.000,182487.800,226752.000,159664.900,0.000
174752.500,173644.300,711263.300,709231.500,198285.600,182496.500,226764.400,159676.200,0.000
174752.000,173672.900,711262.400,709197.100,198357.500,182544.300,226846.400,159709.100,0.000
174736.200,173659.900,711262.300,709136.200,198347.500,182537.200,226843.300,159689.700,0.000
174737.500,173641.100,711262.600,709098.400,198298.700,182504.400,226789.700,159665.500,0.000
174749.300,173643.100,711265.000,709072.800,198298.800,182496.100,226782.200,159672.900,0.000
174760.800,173658.100,711267.600,709045.000,198318.700,182508.500,226797.500,159689.700,0.000
174769.900,173687.000,711266.900,709015.300,198387.800,182557.700,226882.400,159727.700,0.000
174743.400,173660.900,711263.600,708942.900,198358.200,182534.500,226864.900,159698.000,0.000
174744.300,173650.400,711267.500,708904.900,198308.400,182505.800,226814.000,159675.100,0.000
174759.100,173656.900,711267.800,708883.800,198310.200,182501.600,226807.500,159683.500,0.000
174771.300,173673.800,711268.100,708857.800,198331.200,182515.200,226819.500,159698.200,0.000
174772.800,173700.900,711266.700,708825.200,198405.800,182564.200,226908.800,159736.200,0.000
174749.900,173676.500,711263.500,708763.400,198388.000,182542.300,226898.900,159709.000,0.000
174742.300,173652.100,711261.800,708712.600,198331.200,182500.800,226835.700,159673.500,0.000
174753.500,173655.500,711262.400,708689.200,198334.800,182497.100,226832.500,159685.100,0.000
174762.100,173665.700,711263.600,708661.400,198351.200,182510.800,226845.000,159702.200,0.000
174772.900,173701.400,711264.600,708636.800,198426.400,182564.700,226933.000,159742.200,0.000
174744.300,173676.100,711265.600,708565.000,198408.800,182540.600,226924.400,159715.100,0.000
174737.800,173651.400,711265.400,708518.400,198354.000,182505.900,226865.900,159684.800,0.000
174748.000,173649.200,711263.800,708491.700,198354.100,182501.600,226860.200,159691.900,0.000
174759.500,173661.500,711266.100,708463.900,198374.400,182516.600,226880.400,159713.500,0.000
174768.100,173693.900,711266.600,708431.900,198449.800,182564.200,226973.300,159754.100,0.000
174748.300,173675.400,711266.200,708364.400,198430.700,182549.100,226965.300,159727.600,0.000
174741.800,173654.700,711266.000,708316.900,198372.800,182517.100,226905.600,159695.400,0.000
174753.200,173659.700,711265.700,708292.400,198371.500,182518.600,226900.300,159706.300,0.000
174759.500,173671.100,711265.400,708259.300,198384.800,182527.700,226915.500,159722.800,0.000
174766.700,173700.800,711267.100,708227.700,198464.100,182574.300,227009.300,159767.200,0.000
174748.200,173681.600,711266.400,708159.400,198448.300,182559.300,227001.200,159747.800,0.000
174744.700,173662.000,711264.200,708112.500,198394.800,182525.400,226943.900,159721.800,0.000
174761.800,173667.300,711263.500,708088.800,198400.100,182525.200,226942.500,159737.400,0.000
174759.700,173666.500,711261.900,708047.300,198408.900,182527.900,226950.400,159748.200,0.000
174761.400,173697.000,711261.700,708013.100,198478.500,182576.800,227036.200,159789.000,0.000
174749.100,173690.300,711262.600,707955.400,198471.200,182571.800,227035.300,159777.200,0.000
174740.800,173666.600,711259.300,707901.800,198414.200,182537.600,226974.700,159746.300,0.000
174744.300,173660.500,711259.400,707863.300,198407.800,182534.800,226962.300,159749.400,0.000
174749.400,173672.000,711262.600,707825.100,198426.700,182546.200,226975.400,159766.700,0.000
174751.300,173699.100,711263.900,707790.600,198503.500,182594.500,227064.000,159808.100,0.000
174735.000,173681.800,711262.300,707737.200,198492.800,182590.600,227059.600,159792.500,0.000
