EEG 1, EEG 2, EEG 3, EEG 4, EEG 5, EEG 6, EEG 7, EEG 8, TRIG
65004.340,65004.340,12659.890,60964.010,65004.340,65004.340,65004.340,65004.340,0.000
256133.600,256133.600,57672.520,230244.800,256133.600,246615.100,256133.600,256133.600,0.000
471878.100,488262.500,139339.800,423965.300,488262.500,417131.700,488262.500,488262.500,0.000
597989.900,668836.700,263734.000,581366.400,668836.700,460803.500,668836.700,664165.600,0.000
638072.300,783576.600,413198.400,704471.800,783576.600,428825.500,783576.600,765235.300,0.000
613386.300,799677.900,536215.100,771760.000,825724.900,391644.000,825724.900,795498.400,0.000
536740.900,679394.100,620381.100,779593.500,804636.900,372887.100,804636.900,775209.200,0.000
482776.500,513595.800,681536.400,761916.000,761561.300,387627.300,761561.300,740518.300,0.000
528216.600,460258.000,721012.500,754218.100,741316.600,464896.800,741316.600,730155.800,0.000
635633.600,527249.300,741831.300,760584.900,750834.600,597296.600,750834.600,749362.600,0.000
723668.300,625209.300,754236.700,761486.900,761001.600,703310.600,761001.600,765591.600,0.000
758841.500,705486.000,761908.400,747032.900,744246.600,735738.100,743881.600,754072.800,0.000
754834.900,753777.800,760228.300,730756.600,696478.300,735515.100,695367.200,729190.100,0.000
745196.400,767226.700,749176.800,729322.400,631914.800,748902.900,630669.700,718933.400,0.000
746358.400,754099.400,738064.800,739480.400,562157.100,769218.100,561830.800,716619.600,0.000
739407.100,724419.300,735323.300,743594.700,482045.500,753603.000,483284.600,685109.600,0.000
695477.400,679490.800,738533.600,733815.600,389398.100,684789.400,392490.300,608280.000,0.000
617701.800,618067.900,738642.800,721160.100,304470.000,596486.700,309323.600,509632.300,0.000
532819.700,539981.100,732149.300,719056.100,250705.800,525066.300,256792.200,424234.500,0.000
457592.100,452089.700,724816.400,725599.900,225601.100,467315.300,232187.000,365749.500,0.000
392559.100,373288.600,722981.600,727845.300,204676.300,402607.800,211269.800,321508.300,0.000
336186.200,320989.500,725116.100,719970.300,173452.400,333601.600,180014.700,277689.100,0.000
293706.800,294406.800,724633.500,709974.100,143109.000,286011.100,149836.600,238652.400,0.000
270109.100,277627.200,719037.400,707583.600,131005.900,272698.300,137989.300,217324.200,0.000
261815.300,259972.600,712731.000,711462.600,136055.300,276460.300,143227.000,215066.300,0.000
258632.400,245654.100,710521.800,712418.500,140741.700,272318.200,148082.400,218163.400,0.000
252574.400,241524.300,711353.300,706309.000,133587.400,255854.900,141218.800,213304.000,0.000
243390.100,243427.400,710391.800,698622.700,121280.800,242005.400,129312.600,201247.700,0.000
235252.300,240285.500,705736.800,696022.800,116542.200,240708.000,124911.300,192106.300,0.000
230088.900,228553.700,700482.100,697676.100,120583.800,244045.900,129120.400,190647.700,0.000
225791.900,216199.900,698071.900,697526.100,123225.900,239233.100,131849.500,191199.700,0.000
219865.400,211331.300,697844.100,692834.300,117703.400,226094.900,126486.500,186612.900,0.000
212569.400,211694.600,696468.800,687038.900,108797.000,215367.500,117829.200,177494.300,0.000
205949.500,208798.900,692580.700,684299.600,104923.500,213135.500,114174.700,170143.900,0.000
201108.700,199779.100,688201.900,684175.400,106936.200,213969.100,116296.900,167858.300,0.000
197369.600,190560.400,685641.800,683127.200,108424.900,210080.000,117846.800,167558.400,0.000
193532.700,187082.200,684549.700,679546.800,105069.000,201661.300,114611.400,164754.500,0.000
189075.100,187448.300,682825.300,675255.400,99528.870,194836.300,109260.500,159072.300,0.000
184264.600,185261.400,679550.600,672435.900,96658.870,192490.300,106561.300,153686.000,0.000
179781.000,178496.200,675888.800,670943.100,97098.530,191429.000,107095.000,150856.500,0.000
176259.000,171598.300,673230.400,669189.100,97537.360,188045.000,107591.300,149695.000,0.000
173670.000,168864.400,671460.800,666446.500,95690.680,182978.200,105838.400,147968.000,0.000
171069.000,168844.400,669452.900,663309.100,92641.720,178896.000,102927.900,144712.300,0.000
167484.800,166972.500,666651.900,660456.900,90501.660,176310.900,100915.600,140760.700,0.000
163248.000,161909.700,663558.400,657956.100,89718.800,173751.200,100211.800,137516.300,0.000
159857.800,156811.000,660844.400,655669.800,89320.710,170716.200,99867.950,135658.000,0.000
158097.800,154576.800,658565.400,653529.800,88563.910,168114.900,99185.440,134643.800,0.000
156772.600,154134.800,656335.900,651241.100,87365.710,166040.800,98087.980,133144.300,0.000
154088.700,152438.000,653886.900,648392.900,85797.810,163301.300,96615.640,130300.700,0.000
150107.600,148696.300,651228.700,645191.400,84141.770,159697.600,95028.310,126831.800,0.000
146852.100,144991.500,648493.400,642523.600,83111.670,156931.700,94052.160,124474.200,0.000
145632.000,143092.000,645850.900,640790.800,83090.200,156062.200,94092.900,123903.700,0.000
145142.300,142248.100,643456.200,639093.400,83190.650,155382.000,94267.520,123611.800,0.000
143111.000,140641.600,641256.300,636275.600,82055.050,152566.900,93204.270,121603.500,0.000
139408.300,137913.700,638918.500,632627.300,79831.280,148315.900,91042.130,118077.100,0.000
136315.800,135285.900,636188.300,629705.400,78374.660,145784.000,89640.170,115415.500,0.000
135446.600,133638.100,633305.200,628222.600,78838.820,146084.300,90159.090,115114.700,0.000
135489.700,132480.300,630794.900,626905.600,79821.000,146338.000,91198.080,115622.300,0.000
133950.100,130943.000,628760.100,624136.400,79024.330,143539.600,90459.730,114245.000,0.000
130561.200,128986.500,626646.300,620244.200,76487.180,138973.000,87982.500,110798.300,0.000
127663.200,127169.200,623940.600,617172.500,74769.950,136649.600,86322.880,107992.400,0.000
126999.800,125703.000,620917.200,615817.400,75514.400,137672.300,87116.370,107825.000,0.000
127329.700,124306.000,618333.400,614714.100,77035.540,138497.600,88678.520,108800.800,0.000
126139.900,122826.100,616397.300,612004.600,76499.800,135797.900,88186.150,107882.600,0.000
123084.300,121453.500,614429.300,608025.000,73861.260,131191.700,85601.540,104623.500,0.000
120417.600,120247.000,611761.800,604886.000,72031.200,129073.700,83828.550,101812.500,0.000
119880.700,118933.000,608677.000,603567.800,72905.630,130483.400,84748.490,101692.100,0.000
120347.000,117388.600,606054.600,602551.100,74697.920,131604.800,86573.660,102892.200,0.000
119418.500,115970.400,604166.700,599906.900,74352.270,129059.600,86263.800,102296.600,0.000
116703.400,115018.500,602283.100,595955.300,71762.780,124609.000,83724.260,99293.460,0.000
114277.000,114243.400,599662.300,592811.900,69931.190,122686.800,81946.450,96577.680,0.000
113793.400,113050.500,596575.900,591466.400,70836.910,124242.400,82890.840,96449.720,0.000
114272.900,111434.200,593942.700,590443.900,72719.820,125471.200,84796.050,97703.600,0.000
113526.800,110086.600,592066.600,587866.300,72524.130,123129.400,84626.200,97331.380,0.000
111149.700,109434.800,590221.100,584023.300,70099.430,118978.900,82246.070,94633.240,0.000
108977.600,108960.200,587651.700,580921.400,68350.310,117245.600,80548.960,92093.410,0.000
108514.300,107871.800,584607.100,579506.600,69212.850,118769.000,81448.390,91931.310,0.000
108933.100,106243.400,581984.500,578414.600,71040.980,119956.800,83295.510,93119.880,0.000
108308.600,104968.500,580095.100,575902.100,70943.520,117832.500,83219.390,92887.070,0.000
106250.300,104519.100,578220.600,572219.600,68749.660,114064.700,81064.000,90509.700,0.000
104328.500,104243.200,575474.800,569065.600,67141.000,112510.400,79499.250,88190.970,0.000
103861.800,103250.500,571873.900,567064.700,67920.520,113889.500,80306.820,87977.140,0.000
104176.400,101664.600,568235.300,564932.000,69610.930,114950.300,82008.330,89025.210,0.000
103632.300,100469.800,564988.900,561225.300,69584.880,113055.800,81997.350,88872.930,0.000
101865.900,100143.000,561665.500,556297.100,67659.050,109715.500,80105.550,86812.660,0.000
100180.400,99978.330,557747.100,551897.800,66217.950,108325.900,78705.710,84734.470,0.000
99698.230,99067.340,553524.900,548922.100,66882.120,109492.100,79396.700,84459.000,0.000
99889.640,97560.930,549761.100,546371.100,68373.980,110374.200,80899.320,85318.650,0.000
99400.690,96453.870,546678.000,542850.500,68391.280,108710.100,80931.030,85200.590,0.000
97904.480,96201.470,543688.300,538464.000,66750.640,105814.700,79321.850,83445.740,0.000
96443.480,96094.590,540211.900,534562.200,65497.520,104579.400,78105.800,81619.920,0.000
95942.300,95256.880,536435.900,531842.400,66037.050,105496.900,78667.980,81287.270,0.000
96002.820,93850.860,533008.300,529455.800,67301.590,106169.300,79939.190,81941.280,0.000
95544.590,92828.580,530140.000,526243.400,67339.420,104718.100,79985.550,81826.380,0.000
94282.720,92607.980,527349.100,522293.900,65976.700,102252.200,78646.160,80350.980,0.000
93021.800,92515.730,524145.600,518725.200,64913.780,101157.100,77612.180,78771.110,0.000
92498.660,91742.950,520680.200,516119.100,65330.920,101821.400,78046.220,78388.480,0.000
92428.130,90449.040,517496.600,513795.000,66363.520,102282.100,79081.780,78835.470,0.000
91979.880,89505.660,514780.900,510815.900,66407.880,101026.400,79130.910,78700.850,0.000
90915.200,89285.230,512141.400,507245.000,65305.150,98959.740,78046.140,77472.880,0.000
89830.100,89177.280,509169.000,503968.700,64423.960,97987.830,77187.760,76123.550,0.000
89292.680,88464.550,505976.600,501452.600,64727.300,98408.520,77503.220,75703.300,0.000
89111.700,87294.550,503004.700,499168.700,65540.480,98669.060,78316.130,75962.200,0.000
88672.630,86432.620,500411.800,496383.700,65586.400,97591.190,78363.030,75801.630,0.000
87779.860,86198.010,497888.900,493138.300,64721.690,95886.560,77510.730,74789.620,0.000
86851.260,86056.580,495105.800,490110.500,64007.730,95021.980,76813.840,73647.300,0.000
86304.560,85391.590,492142.800,487660.200,64203.200,95215.130,77018.080,73193.330,0.000
86025.370,84336.410,489345.300,485394.800,64804.660,95285.480,77618.020,73275.900,0.000
85586.590,83546.850,486845.700,482764.400,64837.140,94355.800,77648.840,73078.660,0.000
84834.110,83289.760,484411.600,479793.200,64178.660,92965.600,76996.570,72249.610,0.000
84038.110,83111.980,481785.600,476977.100,63618.270,92196.840,76445.290,71293.430,0.000
83488.520,82498.650,479020.800,474583.000,63730.000,92199.980,76559.120,70820.990,0.000
83129.380,81561.690,476376.100,472332.800,64153.800,92113.620,76976.700,70754.850,0.000
82686.740,80841.230,473956.800,469832.800,64173.240,91312.880,76990.050,70517.790,0.000
82044.910,80553.880,471595.300,467092.900,63686.020,90187.890,76503.980,69833.800,0.000
81358.220,80329.900,469098.800,464455.200,63250.900,89495.410,76073.610,69032.010,0.000
80812.350,79754.920,466498.700,462107.300,63285.960,89332.630,76109.160,68547.740,0.000
80393.840,78921.440,463980.700,459867.400,63554.010,89110.710,76372.220,68361.360,0.000
79948.200,78260.770,461626.800,457472.900,63559.430,88416.630,76372.750,68092.950,0.000
79391.160,77941.360,459323.900,454923.600,63217.480,87513.230,76030.490,67531.050,0.000
78786.790,77669.480,456934.400,452435.100,62891.130,86886.360,75705.950,66860.820,0.000
78239.620,77124.610,454472.900,450129.700,62864.210,86590.300,75677.400,66370.840,0.000
77770.710,76382.900,452063.800,447902.500,62998.660,86258.680,75805.070,66084.590,0.000
77319.830,75775.630,449767.500,445596.200,62980.770,85648.550,75778.270,65781.920,0.000
76829.380,75428.950,447515.800,443204.100,62746.410,84921.660,75535.590,65309.680,0.000
76296.520,75119.470,445217.100,440841.900,62507.860,84350.210,75287.630,64744.980,0.000
75761.700,74607.020,442872.700,438578.600,62440.900,83954.250,75207.450,64258.620,0.000
75264.850,73948.300,440556.900,436368.200,62479.370,83540.090,75229.270,63899.390,0.000
74813.300,73387.700,438312.700,434136.000,62449.920,82996.850,75183.120,63568.890,0.000
74373.480,73018.240,436106.400,431871.200,62305.630,82408.650,75024.770,63165.360,0.000
73896.420,72677.760,433884.100,429613.900,62139.900,81883.860,74845.980,62686.350,0.000
73375.210,72194.910,431638.300,427392.800,62042.310,81417.090,74733.030,62209.000,0.000
72862.910,71611.110,429404.200,425205.100,62003.380,80946.550,74676.310,61798.320,0.000
72414.010,71094.750,427208.600,423037.100,61958.960,80458.530,74614.710,61447.790,0.000
72010.970,70705.680,425043.000,420874.400,61874.160,79974.730,74515.560,61094.530,0.000
71573.540,70332.170,422882.500,418701.600,61752.840,79482.040,74381.290,60679.520,0.000
71061.200,69862.760,420714.900,416518.400,61622.270,78959.590,74236.470,60213.110,0.000
70534.750,69329.670,418547.200,414353.800,61516.790,78443.320,74114.110,59769.760,0.000
70083.080,68843.960,416395.000,412238.500,61455.160,77991.530,74033.850,59407.430,0.000
69703.700,68441.700,414269.000,410158.500,61415.200,77584.200,73975.160,59094.220,0.000
69299.130,68050.730,412165.700,408060.000,61336.740,77122.400,73877.590,58732.680,0.000
68805.550,67602.450,410067.900,405919.700,61196.180,76570.050,73716.460,58280.770,0.000
68281.220,67115.270,407961.000,403785.400,61050.030,76025.500,73548.100,57813.020,0.000
67831.770,66653.470,405851.400,401717.800,60973.510,75595.230,73448.200,57432.790,0.000
67466.460,66237.890,403763.000,399703.700,60958.880,75234.310,73409.720,57136.280,0.000
67081.660,65829.410,401707.800,397665.600,60906.650,74790.630,73333.160,56805.920,0.000
66603.550,65396.250,399667.300,395566.600,60760.250,74222.590,73162.150,56367.260,0.000
66089.550,64950.300,397613.400,393465.800,60590.980,73670.160,72968.270,55892.430,0.000
65649.730,64516.910,395545.300,391441.100,60508.210,73265.700,72860.530,55507.510,0.000
65296.130,64099.280,393493.800,389480.100,60510.510,72944.410,72837.340,55224.020,0.000
64924.940,63682.410,391481.000,387492.600,60473.990,72522.650,72775.480,54916.770,0.000
64459.400,63261.640,389488.300,385433.800,60322.880,71955.480,72600.130,54493.850,0.000
63953.140,62842.300,387479.900,383367.900,60137.050,71404.050,72390.520,54022.120,0.000
63516.520,62424.180,385450.500,381381.200,60045.900,71014.590,72274.430,53639.230,0.000
63165.000,62000.530,383433.800,379462.000,60051.130,70712.390,72253.520,53367.200,0.000
62799.310,61573.240,381457.100,377515.700,60017.100,70299.770,72193.160,53079.250,0.000
62345.050,61159.180,379504.000,375495.100,59861.340,69734.010,72011.710,52675.130,0.000
61849.630,60759.940,377535.100,373464.500,59664.940,69183.080,71789.710,52212.590,0.000
61415.350,60353.590,375541.400,371511.000,59561.490,68792.060,71659.440,51826.990,0.000
61063.090,59928.110,373558.200,369625.700,59560.020,68487.620,71629.250,51550.590,0.000
60706.320,59500.650,371616.700,367717.300,59528.300,68079.340,71567.050,51267.460,0.000
60272.200,59098.700,369701.000,365737.200,59378.280,67525.700,71385.480,50875.260,0.000
59797.630,58718.820,367769.700,363744.800,59183.830,66987.790,71158.690,50421.950,0.000
59374.710,58328.020,365812.500,361824.100,59076.480,66605.660,71017.810,50037.850,0.000
59024.970,57911.220,363863.700,359968.500,59069.990,66310.380,70976.390,49760.750,0.000
58672.020,57492.060,361954.400,358092.700,59039.730,65920.640,70910.250,49485.330,0.000
58249.470,57102.750,360070.900,356151.000,58899.080,65394.820,70734.650,49112.800,0.000
57787.530,56736.000,358173.900,354197.400,58713.720,64879.510,70516.220,48681.070,0.000
57366.620,56351.000,356251.500,352307.400,58603.920,64500.040,70373.840,48304.950,0.000
57008.840,55930.900,354334.300,350475.800,58582.270,64192.310,70319.020,48020.490,0.000
56652.920,55507.560,352453.000,348627.100,58538.180,63796.400,70240.750,47738.870,0.000
56243.390,55121.710,350597.300,346720.900,58396.520,63281.170,70064.150,47373.720,0.000
55803.390,54766.400,348731.200,344804.300,58216.550,62780.390,69848.830,46955.880,0.000
55398.240,54396.560,346843.200,342944.400,58105.370,62403.920,69701.130,46586.050,0.000
55045.600,53991.500,344959.600,341136.800,58074.600,62092.840,69632.270,46298.600,0.000
54693.620,53580.430,343107.000,339314.900,58024.840,61705.570,69543.660,46017.520,0.000
54294.900,53202.800,341276.500,337442.700,57886.690,61213.610,69367.220,45665.600,0.000
53867.880,52852.390,339437.400,335560.700,57710.290,60731.180,69153.310,45265.910,0.000
53467.850,52486.110,337579.300,333726.600,57590.250,60352.990,68996.110,44904.200,0.000
53112.130,52085.460,335724.900,331937.900,57540.740,60030.660,68909.550,44612.410,0.000
52760.250,51681.050,333898.300,330139.800,57480.140,59646.200,68811.300,44328.700,0.000
52372.710,51311.000,332093.100,328301.800,57349.580,59176.460,68642.630,43987.780,0.000
51961.050,50966.510,330282.100,326455.800,57187.530,58714.830,68442.300,43605.680,0.000
51567.870,50605.160,328454.800,324648.800,57070.370,58337.620,68285.920,43252.100,0.000
51208.130,50209.810,326630.100,322879.500,57009.930,58004.960,68184.790,42955.510,0.000
50852.400,49808.540,324829.000,321103.700,56937.830,57620.510,68071.040,42667.040,0.000
50471.260,49437.020,323046.000,319295.900,56805.190,57166.050,67896.420,42332.830,0.000
50073.400,49090.040,321258.500,317481.300,56644.970,56717.810,67693.740,41964.030,0.000
49691.110,48731.820,319458.300,315698.400,56522.290,56338.180,67527.890,41617.230,0.000
49335.900,48347.380,317661.300,313947.500,56449.590,55996.680,67411.980,41318.460,0.000
48985.280,47960.290,315884.900,312194.000,56371.400,55616.370,67291.170,41030.260,0.000
48616.540,47600.360,314125.800,310417.700,56247.270,55182.460,67125.190,40709.130,0.000
48233.670,47260.450,312365.500,308637.500,56100.430,54753.740,66936.930,40359.690,0.000
47858.610,46907.330,310595.800,306881.900,55978.330,54376.420,66773.440,40021.510,0.000
47502.370,46529.550,308828.100,305151.200,55892.500,54027.190,66645.870,39716.410,0.000
47150.620,46149.090,307076.500,303419.500,55802.590,53648.290,66513.570,39419.290,0.000
46785.930,45791.630,305338.200,301670.800,55677.000,53228.600,66345.540,39097.500,0.000
46411.340,45452.780,303599.400,299918.800,55533.640,52813.520,66160.210,38755.020,0.000
46044.160,45106.430,301854.800,298186.300,55410.760,52439.560,65995.180,38423.910,0.000
45692.540,44741.980,300113.500,296474.100,55317.950,52089.860,65859.200,38121.660,0.000
45345.560,44374.920,298385.600,294763.300,55222.610,51720.230,65719.590,37828.490,0.000
44989.270,44024.450,296669.200,293042.000,55099.450,51320.710,65551.860,37518.490,0.000
44622.550,43685.300,294954.000,291319.500,54960.190,50921.420,65367.980,37191.000,0.000
44256.660,43336.770,293235.700,289611.500,54832.630,50547.680,65195.430,36867.540,0.000
43899.710,42972.560,291520.400,287919.100,54726.260,50189.470,65043.610,36562.790,0.000
43545.870,42605.500,289815.100,286228.800,54617.950,49815.850,64889.320,36263.830,0.000
43188.380,42253.030,288118.800,284532.400,54490.860,49421.880,64716.380,35954.490,0.000
42829.110,41914.660,286425.500,282836.600,54354.730,49031.700,64534.610,35636.290,0.000
42473.320,41573.650,284731.400,281151.500,54226.970,48661.610,64360.530,35321.930,0.000
42124.310,41222.630,283040.300,279477.800,54113.700,48303.600,64200.390,35020.680,0.000
41779.960,40870.760,281357.600,277808.200,54000.460,47937.840,64040.390,34725.710,0.000
41435.950,40530.480,279683.500,276137.500,53875.480,47560.220,63869.220,34425.820,0.000
41090.280,40199.960,278013.300,274468.600,53743.120,47183.370,63691.080,34118.790,0.000
40744.290,39866.180,276343.800,272806.800,53614.090,46816.710,63516.150,33811.310,0.000
40400.280,39523.210,274676.800,271152.900,53494.290,46457.120,63349.950,33510.760,0.000
40058.680,39177.660,273016.100,269503.700,53375.810,46094.420,63184.280,33215.090,0.000
39718.990,38840.210,271363.000,267857.000,53252.730,45727.640,63013.230,32918.760,0.000
39379.400,38510.490,269715.100,266213.600,53127.250,45363.460,62838.860,32618.840,0.000
39037.660,38178.230,268070.100,264575.800,53003.180,45004.580,62664.770,32316.710,0.000
38693.310,37837.690,266428.000,262943.700,52882.060,44646.940,62492.790,32016.240,0.000
38349.710,37494.630,264790.300,261316.200,52759.290,44285.600,62318.400,31718.810,0.000
38011.670,37159.640,263158.200,259692.400,52634.450,43923.480,62141.310,31425.260,0.000
37677.450,36832.050,261531.300,258072.200,52507.570,43562.510,61961.730,31131.970,0.000
37342.510,36503.120,259908.000,256455.300,52377.310,43201.110,61778.890,30835.200,0.000
37007.210,36169.750,258287.900,254842.600,52246.890,42840.940,61596.900,30538.020,0.000
36675.650,35836.540,256671.900,253235.700,52117.550,42484.680,61416.880,30244.500,0.000
36350.830,35511.110,255061.100,251635.000,51992.350,42135.630,61241.610,29957.960,0.000
36028.120,35191.620,253455.900,250038.600,51869.300,41789.980,61069.130,29674.710,0.000
35700.950,34870.290,251855.100,248444.200,51741.880,41440.550,60892.310,29387.730,0.000
35370.680,34546.750,250258.000,246852.900,51611.940,41089.550,60712.060,29098.350,0.000
35040.720,34222.420,248664.100,245267.300,51480.540,40740.540,60528.930,28809.620,0.000
34711.750,33897.490,247073.800,243687.700,51348.620,40393.290,60344.360,28523.500,0.000
34382.750,33571.690,245488.100,242111.800,51215.420,40043.850,60158.170,28239.000,0.000
34052.610,33245.750,243907.500,240537.600,51078.410,39689.840,59968.180,27953.530,0.000
33722.830,32922.250,242331.200,238966.100,50941.390,39336.710,59778.870,27669.240,0.000
33397.650,32601.720,240758.000,237400.700,50807.100,38990.060,59592.910,27389.000,0.000
33080.970,32285.820,239189.100,235843.000,50678.630,38651.620,59412.510,27115.010,0.000
32769.400,31974.160,237626.300,234290.700,50552.480,38314.150,59233.440,26843.040,0.000
32454.880,31662.960,236069.100,232739.800,50419.540,37969.050,59046.640,26565.130,0.000
32134.900,31350.580,234515.300,231190.100,50281.480,37620.500,58854.220,26282.100,0.000
31813.860,31036.730,232963.800,229645.800,50144.930,37277.770,58662.750,26000.310,0.000
31497.380,30723.070,231416.200,228109.500,50015.050,36944.480,58477.880,25724.970,0.000
31185.130,30410.460,229874.100,226578.300,49888.240,36612.920,58296.510,25453.140,0.000
30872.640,30098.940,228337.200,225048.000,49757.050,36275.080,58110.960,25178.110,0.000
30558.600,29789.270,226804.200,223519.100,49622.880,35935.020,57922.630,24899.730,0.000
30246.250,29480.790,225274.300,221996.200,49489.450,35600.090,57735.550,24622.550,0.000
29938.730,29173.590,223747.900,220480.900,49360.290,35272.340,57553.680,24351.530,0.000
29632.590,28866.460,222225.800,218969.900,49231.010,34944.020,57372.410,24083.680,0.000
29322.870,28559.740,220708.700,217459.500,49094.810,34608.860,57184.320,23812.760,0.000
29009.810,28255.790,219196.000,215950.700,48955.180,34272.880,56992.630,23539.250,0.000
28696.350,27952.040,217686.300,214447.500,48815.500,33943.240,56800.240,23266.170,0.000
28385.660,27646.880,216179.500,212951.600,48678.720,33621.140,56610.000,22998.100,0.000
28078.230,27342.240,214677.600,211460.600,48544.070,33300.020,56421.530,22735.520,0.000
27771.370,27039.850,213181.600,209971.700,48406.300,32973.570,56229.880,22473.010,0.000
27463.210,26740.020,211690.000,208484.700,48265.250,32644.800,56035.150,22207.920,0.000
27156.220,26441.790,210201.000,207002.600,48123.690,32319.960,55839.920,21942.800,0.000
26854.250,26145.480,208715.200,205527.300,47986.600,32002.010,55648.850,21682.620,0.000
26555.540,25850.230,207234.500,204057.000,47851.960,31685.290,55459.370,21425.340,0.000
26255.740,25555.780,205759.400,202588.700,47713.180,31363.510,55264.950,21165.060,0.000
25954.420,25263.760,204289.000,201122.500,47572.340,31040.370,55068.550,20902.400,0.000
25653.910,24971.760,202822.000,199661.900,47432.450,30721.250,54872.910,20640.310,0.000
25356.310,24676.680,201357.700,198207.700,47294.680,30406.750,54678.500,20380.640,0.000
25060.710,24378.610,199896.400,196756.700,47154.850,30090.890,54481.610,20120.800,0.000
24765.340,24082.120,198439.100,195306.600,47008.810,29770.230,54278.990,19857.890,0.000
24470.010,23791.430,196986.700,193859.300,46862.290,29450.720,54076.350,19594.920,0.000
24174.710,23502.910,195538.600,192418.000,46718.500,29136.210,53876.350,19333.980,0.000
23880.660,23212.900,194093.800,190982.900,46576.830,28825.230,53678.860,19076.080,0.000
23588.080,22922.270,192652.300,189551.400,46434.290,28513.230,53481.610,18820.420,0.000
23295.130,22633.500,191215.100,188121.500,46288.590,28198.120,53281.980,18564.470,0.000
23001.030,22346.930,189781.800,186693.900,46142.100,27883.120,53081.860,18307.570,0.000
22706.990,22058.720,188351.400,185270.400,45995.080,27570.320,52880.980,18049.710,0.000
22415.650,21768.150,186924.300,183852.700,45850.410,27260.780,52681.870,17793.500,0.000
22127.970,21478.590,185502.100,182439.900,45709.150,26952.610,52485.300,17540.100,0.000
21842.270,21192.780,184085.500,181030.400,45567.250,26642.940,52287.320,17287.710,0.000
21556.530,20910.460,182673.100,179623.800,45422.950,26332.460,52086.910,17034.880,0.000
21271.630,20629.640,181263.900,178221.400,45276.650,26024.270,51884.970,16781.930,0.000
20990.520,20350.970,179858.500,176824.800,45134.250,25722.800,51687.640,16533.240,0.000
20711.760,20073.880,178457.900,175433.400,44995.410,25424.580,51493.920,16287.800,0.000
20431.750,19796.640,177061.600,174044.400,44852.440,25122.330,51295.070,16039.430,0.000
20149.890,19519.580,175668.200,172657.100,44704.610,24816.580,51090.520,15787.720,0.000
19868.330,19242.470,174278.000,171273.700,44554.810,24511.440,50884.120,15536.470,0.000
19589.700,18966.380,172892.200,169896.500,44408.930,24210.840,50682.900,15290.870,0.000
19312.110,18690.400,171511.200,168524.400,44266.380,23912.060,50486.650,15049.870,0.000
19032.970,18413.510,170134.200,167154.800,44121.350,23610.280,50288.780,14808.110,0.000
18754.040,18138.470,168760.200,165787.300,43975.130,23307.910,50089.580,14564.610,0.000
18477.340,17865.590,167389.000,164423.200,43828.600,23008.050,49889.300,14319.970,0.000
18203.170,17593.670,166021.600,163064.200,43683.350,22711.990,49689.790,14076.500,0.000
17929.730,17321.360,164659.000,161710.100,43538.470,22416.720,49490.360,13834.300,0.000
17656.400,17049.380,163301.300,160359.900,43390.970,22119.180,49288.020,13591.940,0.000
17384.300,16780.210,161947.300,159012.600,43242.670,21821.990,49084.710,13350.400,0.000
17113.650,16513.130,160596.200,157668.800,43094.150,21527.720,48880.800,13109.690,0.000
16844.940,16247.460,159248.800,156329.700,42947.890,21237.910,48679.350,12871.810,0.000
16576.970,15981.720,157905.800,154995.000,42802.940,20949.940,48479.760,12636.460,0.000
16308.340,15714.720,156566.900,153663.600,42654.650,20660.210,48277.230,12400.290,0.000
16039.610,15447.700,155231.600,152335.300,42503.740,20369.790,48072.580,12162.440,0.000
15771.310,15180.750,153900.000,151010.800,42351.590,20080.140,47866.680,11923.560,0.000
15503.860,14914.600,152572.200,149690.800,42202.160,19793.070,47663.060,11687.350,0.000
15237.380,14649.830,151248.200,148374.800,42055.790,19507.890,47462.030,11454.670,0.000
14972.960,14387.480,149928.700,147062.900,41909.320,19223.490,47260.690,11223.530,0.000
14710.760,14128.420,148613.300,145754.600,41763.040,18940.370,47059.640,10993.420,0.000
14448.800,13870.270,147301.000,144449.600,41614.250,18656.800,46856.220,10762.700,0.000
14187.030,13612.780,145991.800,143148.100,41463.700,18373.650,46651.480,10532.440,0.000
13926.550,13356.520,144686.300,141850.500,41313.430,18091.950,46447.130,10303.790,0.000
13667.800,13100.810,143385.000,140556.700,41162.740,17811.380,46242.170,10076.100,0.000
13409.250,12844.420,142087.600,139266.400,41011.920,17531.960,46037.390,9848.643,0.000
13148.760,12585.530,140793.500,137979.600,40858.140,17251.600,45830.520,9619.481,0.000
12887.910,12326.640,139502.600,136696.300,40703.730,16971.670,45624.500,9390.986,0.000
12628.950,12070.310,138215.500,135416.800,40551.640,16693.580,45422.130,9165.565,0.000
12372.420,11816.400,136932.400,134141.300,40400.680,16417.020,45221.210,8942.742,0.000
12117.980,11564.840,135653.200,132869.600,40251.470,16142.740,45021.770,8722.318,0.000
11864.610,11314.160,134377.600,131601.400,40102.140,15869.060,44821.230,8502.039,0.000
11612.070,11063.740,133105.700,130336.600,39953.250,15595.620,44619.340,8281.203,0.000
11359.150,10812.800,131837.300,129075.500,39804.110,15322.050,44415.370,8059.162,0.000
11105.910,10562.310,130572.500,127818.100,39653.390,15048.800,44209.520,7836.417,0.000
10854.300,10314.710,129311.900,126564.900,39504.530,14778.010,44006.780,7615.991,0.000
10603.780,10068.140,128055.700,125315.800,39355.930,14507.770,43805.200,7396.891,0.000
10353.730,9821.635,126803.600,124070.700,39207.050,14238.090,43603.000,7178.188,0.000
10104.100,9575.256,125555.100,122829.500,39057.670,13969.620,43399.020,6959.048,0.000
9854.550,9328.628,124309.900,121591.700,38906.240,13701.150,43192.030,6738.991,0.000
9606.424,9083.564,123068.400,120357.700,38755.840,13433.750,42986.290,6520.906,0.000
9360.904,8840.826,121830.600,119127.300,38606.080,13167.470,42781.360,6305.217,0.000
9116.609,8599.338,120596.200,117900.100,38456.020,12902.440,42576.350,6090.777,0.000
8870.944,8357.067,119364.700,116675.900,38304.690,12637.960,42370.800,5875.752,0.000
8624.389,8114.743,118136.300,115455.000,38152.230,12374.170,42164.180,5660.082,0.000
8378.343,7873.790,116911.700,114237.800,38001.230,12112.250,41958.180,5445.412,0.000
8132.371,7632.226,115690.800,113024.000,37848.890,11849.870,41750.390,5230.150,0.000
7888.008,7390.915,114473.400,111813.700,37695.990,11587.800,41543.320,5015.763,0.000
7646.522,7151.375,113259.600,110607.300,37544.020,11327.730,41338.800,4804.158,0.000
7407.343,6913.301,112049.900,109405.000,37391.730,11069.250,41134.480,4594.810,0.000
7170.225,6677.303,110844.500,108207.100,37241.510,10812.960,40932.220,4388.418,0.000
6933.197,6442.277,109643.100,107013.000,37091.300,10556.460,40729.590,4182.576,0.000
6694.195,6207.336,108444.900,105821.800,36939.730,10298.490,40524.930,3975.461,0.000
6454.177,5972.839,107249.600,104633.500,36787.380,10040.040,40318.900,3767.362,0.000
6216.133,5740.076,106057.600,103448.800,36634.310,9782.770,40112.330,3559.112,0.000
5981.263,5509.931,104869.200,102267.800,36482.500,9528.095,39907.580,3351.717,0.000
5748.541,5281.174,103684.700,101090.600,36330.680,9274.409,39702.590,3144.299,0.000
5518.010,5054.086,102504.600,99917.520,36180.400,9022.582,39499.010,2938.772,0.000
5288.518,4827.695,101328.800,98748.580,36031.840,8772.724,39297.500,2735.309,0.000
5058.154,4600.267,100156.400,97583.360,35882.770,8523.456,39095.250,2531.949,0.000
4826.627,4371.773,98987.130,96421.340,35733.710,8275.098,38892.750,2328.988,0.000
4595.048,4142.831,97820.660,95262.140,35582.240,8026.646,38688.300,2125.676,0.000
4365.451,3915.991,96657.420,94106.000,35430.520,7779.471,38484.020,1923.494,0.000
4137.458,3690.934,95497.990,92953.570,35280.460,7533.604,38281.320,1723.159,0.000
3910.232,3466.264,94342.380,91805.060,35130.140,7287.769,38078.680,1524.000,0.000
3683.811,3241.993,93190.270,90660.160,34980.040,7042.427,37876.800,1326.456,0.000
3457.452,3016.744,92041.380,89518.380,34827.890,6795.991,37672.450,1128.670,0.000
3231.992,2792.095,90895.660,88379.590,34675.200,6549.933,37467.140,931.372,0.000
3008.281,2569.784,89753.480,87244.370,34524.180,6306.397,37263.590,735.795,0.000
2785.541,2348.924,88615.160,86113.160,34373.880,6065.035,37060.810,541.410,0.000
2562.836,2128.830,87480.800,84985.980,34224.660,5825.493,36859.180,347.852,0.000
2340.086,1909.154,86350.380,83862.630,34074.270,5586.099,36656.060,152.951,0.000
2118.507,1690.942,85223.550,82742.710,33923.820,5347.047,36453.110,-42.831,0.000
1898.741,1473.877,84100.020,81626.180,33774.340,5108.416,36252.300,-238.465,0.000
1680.903,1257.412,82979.910,80513.270,33624.820,4870.205,36052.340,-433.364,0.000
1463.937,1041.237,81863.000,79403.610,33475.980,4632.728,35853.030,-626.685,0.000
1246.017,823.329,80749.030,78296.760,33325.190,4393.866,35650.700,-820.359,0.000
1027.850,604.859,79638.300,77192.960,33173.530,4155.209,35446.660,-1013.756,0.000
810.220,387.534,78531.090,76092.660,33022.170,3918.695,35243.060,-1206.153,0.000
593.460,172.366,77427.410,74995.950,32870.420,3684.307,35039.930,-1397.665,0.000
378.311,-39.465,76327.440,73902.920,32720.930,3452.722,34839.980,-1586.523,0.000
164.289,-250.376,75230.990,72813.370,32571.470,3221.150,34640.400,-1774.044,0.000
-49.152,-462.266,74137.370,71726.590,32420.150,2987.938,34439.290,-1961.481,0.000
-262.874,-675.408,73046.660,70642.810,32266.960,2753.883,34236.750,-2148.622,0.000
-476.865,-888.562,71959.700,69562.930,32113.060,2520.818,34033.760,-2333.992,0.000
-690.197,-1099.629,70876.700,68487.020,31961.560,2290.388,33833.310,-2516.290,0.000
-902.451,-1308.299,69797.590,67414.840,31810.850,2061.755,33633.250,-2697.451,0.000
-1112.865,-1513.525,68722.500,66346.540,31661.610,1836.319,33434.040,-2877.156,0.000
-1322.612,-1717.265,67650.980,65281.730,31512.500,1612.237,33234.200,-3057.009,0.000
-1532.365,-1922.349,66582.350,64219.800,31360.200,1386.504,33030.360,-3239.531,0.000
-1740.103,-2127.592,65516.640,63160.930,31207.650,1161.644,32826.370,-3422.481,0.000
-1944.600,-2331.218,64454.360,62105.610,31055.850,938.874,32623.930,-3604.612,0.000
-2145.708,-2530.826,63395.930,61054.070,30906.540,718.796,32424.850,-3784.751,0.000
-2345.225,-2727.428,62341.090,60006.000,30759.320,499.946,32227.890,-3963.952,0.000
-2544.475,-2923.632,61289.430,58961.140,30611.740,280.637,32029.790,-4143.903,0.000
-2743.456,-3119.665,60241.080,57919.610,30464.860,62.132,31831.970,-4323.316,0.000
-2943.512,-3316.558,59196.300,56881.660,30316.610,-156.073,31632.910,-4502.561,0.000
-3144.584,-3513.648,58155.170,55847.380,30168.060,-373.053,31433.530,-4680.504,0.000
-3346.214,-3711.134,57117.240,54816.260,30019.660,-589.338,31233.460,-4857.009,0.000
-3547.848,-3909.558,56082.140,53787.900,29869.800,-806.083,31031.040,-5032.820,0.000
-3747.923,-4106.924,55050.100,52762.600,29720.720,-1021.260,30829.740,-5206.340,0.000
-3946.785,-4303.451,54021.420,51740.730,29570.610,-1235.459,30628.190,-5378.936,0.000
-4145.901,-4500.246,52995.930,50722.040,29418.760,-1449.792,30425.310,-5552.060,0.000
-4345.979,-4698.110,51973.200,49706.000,29265.310,-1665.476,30220.880,-5726.479,0.000
-4545.326,-4896.088,50953.410,48692.880,29110.130,-1882.390,30014.970,-5901.717,0.000
-4742.085,-5092.061,49937.170,47683.350,28955.980,-2098.386,29810.960,-6075.774,0.000
-4936.876,-5286.353,48924.610,46677.540,28801.720,-2314.015,29607.590,-6249.289,0.000
-5130.096,-5478.749,47915.490,45675.150,28647.720,-2528.556,29405.600,-6421.384,0.000
-5322.221,-5669.303,46909.770,44676.150,28494.390,-2741.269,29205.350,-6591.431,0.000
-5514.092,-5858.263,45907.570,43680.710,28341.450,-2952.231,29004.760,-6760.171,0.000
-5706.742,-6046.123,44908.740,42688.610,28190.380,-3161.339,28804.360,-6927.644,0.000
-5901.286,-6235.188,43912.930,41699.470,28037.930,-3370.883,28602.020,-7095.408,0.000
-6096.458,-6424.883,42920.230,40713.400,27884.030,-3580.308,28399.280,-7262.851,0.000
-6290.475,-6614.146,41930.880,39730.660,27729.960,-3788.362,28197.380,-7429.822,0.000
-6482.908,-6803.090,40944.830,38751.210,27575.890,-3994.853,27995.390,-7597.057,0.000
-6674.322,-6991.239,39961.970,37774.940,27423.860,-4199.387,27794.870,-7763.974,0.000
-6865.294,-7178.987,38982.200,36801.730,27271.250,-4404.242,27593.130,-7931.599,0.000
-7055.037,-7365.867,38005.510,35831.590,27117.910,-4609.310,27390.490,-8098.342,0.000
-7243.539,-7552.085,37032.230,34864.890,26964.210,-4813.640,27187.950,-8262.960,0.000
-7431.187,-7737.438,36062.570,33901.890,26809.520,-5017.229,26984.960,-8426.246,0.000
-7617.674,-7920.551,35096.330,32942.350,26656.170,-5219.351,26783.790,-8587.961,0.000
-7803.088,-8102.396,34133.330,31985.940,26502.400,-5420.745,26582.360,-8749.460,0.000
-7986.873,-8283.532,33173.510,31032.590,26348.490,-5620.685,26380.760,-8910.686,0.000
-8168.463,-8463.711,32216.710,30082.240,26194.850,-5819.372,26179.560,-9071.324,0.000
-8347.977,-8641.981,31263.000,29135.050,26040.460,-6016.938,25978.170,-9230.865,0.000
-8527.697,-8818.972,30312.400,28191.020,25886.490,-6212.625,25778.290,-9388.469,0.000
-8710.334,-8997.482,29364.700,27249.820,25731.560,-6407.963,25578.160,-9545.607,0.000
-8894.223,-9176.233,28419.990,26311.600,25578.050,-6601.735,25379.000,-9701.377,0.000
-9077.132,-9354.174,27478.460,25376.680,25426.500,-6794.671,25180.270,-9856.167,0.000
-9258.954,-9532.651,26539.920,24444.870,25273.580,-6989.809,24978.970,-10011.990,0.000
-9439.118,-9711.026,25604.430,23516.080,25120.280,-7185.674,24777.290,-10168.090,0.000
-9616.794,-9887.711,24672.640,22590.830,24966.780,-7380.280,24575.520,-10324.250,0.000
-9792.391,-10061.460,23744.570,21669.110,24814.310,-7572.724,24374.880,-10479.810,0.000
-9967.741,-10234.010,22819.710,20750.520,24661.990,-7764.463,24174.740,-10635.410,0.000
-10143.270,-10407.200,21897.870,19834.990,24507.930,-7956.617,23973.060,-10791.640,0.000
-10318.050,-10579.820,20978.970,18922.430,24354.580,-8147.839,23772.200,-10946.570,0.000
-10492.520,-10751.780,20062.670,18012.530,24200.700,-8339.207,23571.270,-11100.550,0.000
-10667.470,-10923.610,19149.000,17105.380,24046.150,-8530.920,23370.320,-11254.240,0.000
-10843.210,-11096.030,18238.470,16201.380,23891.280,-8722.690,23168.830,-11408.350,0.000
-11019.120,-11268.780,17331.210,15300.450,23735.430,-8914.144,22966.160,-11562.830,0.000
-11194.530,-11440.990,16426.970,14402.440,23580.510,-9103.928,22765.140,-11716.000,0.000
-11368.670,-11612.470,15525.970,13507.700,23425.570,-9292.645,22564.290,-11868.120,0.000
-11539.890,-11781.350,14628.830,12616.850,23272.290,-9479.126,22364.520,-12018.210,0.000
-11708.740,-11948.040,13735.450,11729.750,23120.260,-9664.081,22165.770,-12166.600,0.000
-11876.840,-12114.260,12845.010,10845.580,22966.620,-9849.486,21966.280,-12314.510,0.000
-12045.020,-12280.160,11957.200,9964.100,22813.290,-10034.620,21768.430,-12461.440,0.000
-12213.650,-12446.970,11072.200,9085.522,22659.120,-10220.490,21570.270,-12609.040,0.000
-12381.530,-12614.220,10189.930,8209.699,22503.660,-10406.980,21370.750,-12757.620,0.000
-12547.740,-12780.840,9310.283,7336.504,22347.060,-10593.350,21169.930,-12906.490,0.000
-12711.350,-12945.380,8433.756,6466.408,22190.320,-10777.750,20969.010,-13053.850,0.000
-12872.220,-13106.890,7560.856,5599.857,22037.070,-10958.240,20771.750,-13197.590,0.000
-13032.850,-13268.170,6691.386,4736.692,21884.960,-11137.580,20575.320,-13340.310,0.000
-13194.400,-13430.180,5825.028,3876.693,21733.410,-11315.920,20379.560,-13482.820,0.000
-13356.670,-13592.270,4961.830,3019.893,21582.590,-11492.940,20185.210,-13625.020,0.000
-13519.130,-13753.820,4101.794,2166.202,21430.900,-11670.040,19990.390,-13767.570,0.000
-13680.870,-13913.780,3244.776,1315.471,21280.010,-11846.620,19796.670,-13909.020,0.000
-13842.120,-14072.760,2390.866,467.875,21129.160,-12023.020,19603.250,-14049.290,0.000
-14002.750,-14230.480,1540.332,-376.388,20979.750,-12197.670,19411.370,-14187.690,0.000
-14163.120,-14387.800,693.144,-1217.501,20831.740,-12370.310,19220.710,-14324.720,0.000
-14323.690,-14545.970,-151.006,-2055.715,20682.300,-12542.830,19028.830,-14461.950,0.000
-14484.200,-14704.980,-992.653,-2891.379,20531.150,-12715.800,18836.180,-14599.910,0.000
-14644.750,-14865.420,-1832.228,-3724.818,20376.340,-12890.200,18640.470,-14740.110,0.000
-14804.510,-15024.940,-2669.280,-4555.609,20220.750,-13063.850,18444.370,-14880.170,0.000
-14962.390,-15181.020,-3503.081,-5383.150,20067.950,-13234.700,18251.470,-15016.890,0.000
-15117.830,-15333.510,-4333.437,-6207.339,19917.830,-13403.160,18061.470,-15150.260,0.000
-15271.880,-15483.920,-5160.542,-7028.279,19769.980,-13570.380,17873.770,-15282.230,0.000
-15426.500,-15635.030,-5984.858,-7846.381,19620.630,-13738.820,17684.110,-15415.980,0.000
-15581.810,-15786.960,-6806.527,-8661.894,19470.420,-13907.250,17493.380,-15550.580,0.000
-15737.650,-15939.760,-7625.061,-9474.320,19320.010,-14074.490,17302.880,-15685.050,0.000
-15893.700,-16093.080,-8440.188,-10283.320,19168.070,-14240.670,17110.990,-15819.670,0.000
-16048.560,-16244.430,-9252.171,-11089.190,19017.290,-14404.640,16919.990,-15952.630,0.000
-16200.890,-16393.110,-10061.420,-11892.420,18867.330,-14567.540,16729.730,-16083.610,0.000
-16351.170,-16540.250,-10868.400,-12693.410,18717.740,-14730.460,16540.540,-16213.240,0.000
-16502.300,-16688.730,-11672.970,-13491.950,18567.280,-14895.160,16351.290,-16343.740,0.000
-16654.690,-16838.850,-12474.460,-14287.380,18415.680,-15061.640,16160.960,-16475.730,0.000
-16806.550,-16988.200,-13272.940,-15079.840,18265.530,-15227.680,15971.920,-16607.420,0.000
-16957.080,-17135.990,-14068.310,-15869.270,18115.800,-15392.870,15782.990,-16738.570,0.000
-17105.650,-17281.090,-14860.030,-16655.110,17968.080,-15555.360,15595.970,-16867.600,0.000
-17253.020,-17424.680,-15648.590,-17437.720,17821.460,-15715.780,15410.370,-16995.700,0.000
-17399.250,-17568.310,-16434.590,-18217.660,17673.050,-15875.760,15223.600,-17124.480,0.000
-17543.900,-17711.650,-17217.660,-18994.600,17525.090,-16034.580,15038.380,-17251.860,0.000
-17688.240,-17855.580,-17997.120,-19768.010,17376.950,-16193.650,14854.150,-17377.800,0.000
-17832.210,-17998.900,-18773.170,-20538.130,17229.550,-16351.980,14671.720,-17501.760,0.000
-17975.540,-18141.090,-19546.670,-21305.720,17083.070,-16508.660,14490.980,-17624.710,0.000
-18118.910,-18283.360,-20318.030,-22071.210,16934.840,-16664.880,14309.420,-17749.240,0.000
-18262.680,-18425.270,-21087.230,-22834.610,16783.980,-16820.720,14129.100,-17875.020,0.000
-18406.510,-18566.220,-21854.190,-23595.700,16628.790,-16977.140,13950.240,-18001.130,0.000
-18549.580,-18705.470,-22618.500,-24353.970,16473.410,-17132.930,13772.810,-18125.150,0.000
-18692.550,-18844.380,-23379.820,-25109.220,16321.220,-17287.960,13594.800,-18247.470,0.000
-18835.280,-18983.940,-24137.930,-25861.380,16172.220,-17442.920,13414.290,-18369.890,0.000
-18976.620,-19123.320,-24892.350,-26609.950,16028.530,-17595.970,13233.590,-18491.280,0.000
-19116.490,-19263.050,-25642.970,-27354.670,15887.810,-17747.430,13051.500,-18612.210,0.000
-19254.020,-19402.090,-26390.830,-28096.570,15748.110,-17898.220,12869.200,-18733.370,0.000
-19389.630,-19539.910,-27136.800,-28836.660,15606.670,-18050.280,12687.460,-18855.610,0.000
-19524.670,-19676.120,-27880.290,-29574.350,15462.640,-18203.570,12506.250,-18977.630,0.000
-19659.060,-19809.200,-28620.430,-30308.690,15320.650,-18354.870,12328.040,-19096.780,0.000
-19792.910,-19940.490,-29357.330,-31039.720,15179.720,-18504.640,12149.520,-19215.240,0.000
-19926.180,-20070.820,-30091.460,-31767.910,15039.250,-18652.570,11970.040,-19333.550,0.000
-20059.000,-20200.320,-30823.090,-32493.570,14898.850,-18798.330,11790.680,-19450.570,0.000
-20191.680,-20329.350,-31552.380,-33217.000,14756.740,-18942.950,11610.800,-19566.040,0.000
-20324.830,-20458.120,-32279.490,-33938.360,14614.140,-19086.750,11431.560,-19679.700,0.000
-20459.160,-20587.870,-33004.090,-34657.230,14469.600,-19231.470,11250.580,-19793.530,0.000
-20593.250,-20717.390,-33725.530,-35373.010,14324.830,-19375.650,11069.720,-19906.460,0.000
-20725.560,-20846.100,-34443.520,-36085.350,14181.550,-19517.930,10891.350,-20016.970,0.000
-20855.990,-20975.170,-35158.600,-36794.720,14038.140,-19659.220,10713.060,-20126.510,0.000
-20985.000,-21104.210,-35871.310,-37501.670,13895.370,-19799.260,10533.880,-20236.380,0.000
-21112.660,-21232.270,-36581.090,-38205.740,13752.620,-19938.950,10352.640,-20346.980,0.000
-21238.770,-21358.430,-37287.610,-38906.620,13610.740,-20078.390,10171.930,-20456.650,0.000
-21365.140,-21484.720,-37991.560,-39605.010,13468.050,-20218.790,9991.230,-20566.670,0.000
-21492.590,-21611.860,-38693.340,-40301.230,13323.130,-20359.880,9808.439,-20678.170,0.000
-21620.470,-21738.020,-39392.770,-40995.040,13179.470,-20498.750,9626.490,-20788.790,0.000
-21748.980,-21863.710,-40089.380,-41685.910,13036.450,-20635.790,9444.648,-20898.330,0.000
-21877.450,-21988.230,-40782.730,-42373.460,12894.590,-20770.730,9264.010,-21006.490,0.000
-22005.620,-22111.020,-41473.120,-43058.000,12753.440,-20904.470,9084.842,-21114.380,0.000
-22132.760,-22231.960,-42160.430,-43739.430,12612.050,-21037.840,8906.438,-21222.220,0.000
-22258.100,-22351.670,-42844.630,-44417.820,12472.070,-21169.890,8730.276,-21328.520,0.000
-22382.100,-22472.690,-43526.350,-45094.020,12330.380,-21302.200,8552.753,-21435.270,0.000
-22504.360,-22593.980,-44205.630,-45767.930,12188.220,-21434.180,8374.596,-21542.100,0.000
-22626.110,-22715.090,-44882.330,-46439.130,12046.550,-21567.250,8195.987,-21649.270,0.000
-22748.180,-22836.520,-45556.730,-47107.810,11903.760,-21703.360,8015.403,-21757.520,0.000
-22869.420,-22956.900,-46228.770,-47774.030,11762.880,-21839.800,7836.853,-21864.810,0.000
-22989.990,-23076.800,-46898.240,-48437.710,11622.770,-21976.040,7659.561,-21971.740,0.000
-23110.110,-23195.850,-47565.030,-49098.820,11482.870,-22111.530,7483.607,-22077.710,0.000
-23230.320,-23314.050,-48229.050,-49757.320,11342.770,-22246.430,7309.123,-22182.290,0.000
-23350.200,-23431.450,-48890.200,-50413.120,11201.720,-22380.920,7135.027,-22286.080,0.000
-23469.180,-23548.150,-49548.520,-51066.150,11061.980,-22514.110,6962.846,-22388.970,0.000
-23588.740,-23666.820,-50204.480,-51716.800,10920.850,-22648.770,6789.667,-22493.070,0.000
-23708.710,-23786.850,-50858.320,-52365.300,10778.710,-22784.640,6616.518,-22597.320,0.000
-23828.110,-23906.300,-51509.660,-53011.270,10637.290,-22919.730,6444.932,-22700.190,0.000
-23945.470,-24023.450,-52157.960,-53654.020,10497.200,-23052.400,6274.776,-22800.870,0.000
-24059.870,-24136.890,-52803.050,-54293.430,10360.760,-23181.260,6108.123,-22898.670,0.000
-24173.000,-24248.680,-53445.290,-54929.980,10224.340,-23309.100,5940.675,-22997.340,0.000
-24285.380,-24358.890,-54084.750,-55563.910,10087.240,-23435.820,5771.511,-23097.490,0.000
-24397.410,-24467.800,-54721.520,-56195.290,9950.776,-23560.330,5601.990,-23197.710,0.000
-24509.340,-24576.600,-55355.550,-56823.970,9814.981,-23683.220,5432.208,-23297.330,0.000
-24620.350,-24685.260,-55986.950,-57450.070,9681.208,-23804.800,5264.350,-23395.050,0.000
-24731.130,-24794.990,-56616.110,-58073.960,9546.693,-23927.420,5096.137,-23492.020,0.000
-24842.630,-24905.980,-57242.840,-58695.370,9412.110,-24050.860,4928.258,-23587.860,0.000
-24956.280,-25019.160,-57867.030,-59314.030,9277.207,-24175.700,4760.316,-23683.770,0.000
-25071.520,-25133.510,-58488.840,-59930.150,9140.245,-24302.040,4590.429,-23780.990,0.000
-25186.320,-25245.900,-59108.070,-60543.740,9004.048,-24426.690,4421.549,-23877.310,0.000
-25300.540,-25357.290,-59724.700,-61154.860,8867.754,-24550.080,4252.658,-23973.200,0.000
-25412.780,-25468.030,-60339.090,-61763.760,8732.368,-24672.200,4084.457,-24068.260,0.000
-25521.450,-25577.400,-60951.130,-62370.370,8598.769,-24792.810,3917.770,-24161.700,0.000
-25627.030,-25685.330,-61560.180,-62974.140,8465.528,-24912.410,3751.632,-24254.020,0.000
-25731.230,-25791.990,-62166.090,-63574.870,8333.149,-25030.520,3586.959,-24345.330,0.000
-25835.250,-25897.900,-62769.260,-64172.860,8199.902,-25147.880,3421.858,-24436.570,0.000
-25939.450,-26002.410,-63370.130,-64768.460,8066.980,-25264.420,3257.607,-24527.380,0.000
-26045.270,-26107.020,-63968.790,-65361.890,7933.801,-25381.710,3093.747,-24619.070,0.000
-26152.320,-26212.400,-64564.790,-65952.710,7798.414,-25500.120,2928.549,-24712.160,0.000
-26259.030,-26317.110,-65157.970,-66540.640,7662.407,-25617.970,2763.949,-24804.620,0.000
-26365.400,-26421.410,-65748.820,-67126.130,7524.532,-25736.310,2598.361,-24896.990,0.000
-26470.130,-26524.290,-66337.480,-67709.430,7387.057,-25853.560,2433.453,-24988.230,0.000
-26572.060,-26625.150,-66923.630,-68290.290,7251.692,-25968.640,2269.706,-25077.940,0.000
-26672.330,-26724.870,-67507.060,-68868.520,7117.163,-26082.590,2104.935,-25167.300,0.000
-26772.650,-26824.100,-68087.970,-69444.310,6984.546,-26195.530,1940.841,-25255.870,0.000
-26873.820,-26923.750,-68666.500,-70017.680,6852.335,-26308.870,1776.519,-25344.220,0.000
-26974.870,-27022.790,-69242.270,-70588.210,6721.371,-26421.810,1613.255,-25431.770,0.000
-27075.720,-27121.630,-69815.220,-71155.970,6590.954,-26534.720,1450.869,-25519.190,0.000
-27176.320,-27220.860,-70385.800,-71721.400,6459.228,-26648.380,1287.832,-25607.190,0.000
-27276.010,-27319.220,-70954.170,-72284.570,6327.964,-26761.100,1125.744,-25694.880,0.000
-27375.100,-27417.330,-71520.310,-72845.460,6195.537,-26873.360,962.261,-25783.480,0.000
-27473.210,-27514.800,-72084.300,-73404.270,6063.074,-26984.340,798.765,-25871.630,0.000
-27571.270,-27611.830,-72646.210,-73961.100,5930.968,-27094.320,636.281,-25958.570,0.000
-27669.620,-27708.480,-73205.760,-74515.610,5797.938,-27203.770,474.236,-26044.440,0.000
-27766.870,-27803.810,-73762.800,-75067.520,5665.736,-27311.160,315.402,-26127.990,0.000
-27862.590,-27898.500,-74317.010,-75616.570,5533.583,-27417.020,158.512,-26210.040,0.000
-27955.920,-27990.850,-74867.900,-76162.410,5404.162,-27519.900,4.911,-26289.260,0.000
-28047.490,-28080.920,-75415.810,-76705.330,5277.939,-27620.410,-146.347,-26366.370,0.000
-28139.990,-28172.320,-75961.660,-77246.080,5150.931,-27722.480,-300.241,-26445.370,0.000
-28235.430,-28266.670,-76505.940,-77785.230,5022.418,-27827.890,-456.814,-26527.390,0.000
-28332.950,-28363.070,-77048.040,-78322.240,4891.223,-27936.330,-615.823,-26611.350,0.000
-28429.360,-28458.450,-77587.530,-78856.660,4759.593,-28044.020,-773.803,-26694.130,0.000
-28523.080,-28551.210,-78124.550,-79388.570,4628.852,-28149.260,-929.513,-26775.530,0.000
-28614.010,-28641.270,-78658.880,-79917.770,4498.436,-28252.520,-1084.350,-26856.490,0.000
-28703.200,-28729.080,-79190.450,-80444.220,4370.347,-28353.270,-1236.618,-26935.540,0.000
-28792.770,-28816.310,-79719.790,-80968.420,4242.775,-28453.110,-1388.310,-27012.930,0.000
-28883.480,-28903.170,-80247.080,-81490.500,4116.010,-28552.270,-1538.982,-27088.090,0.000
-28976.040,-28991.690,-80772.050,-82010.230,3989.565,-28652.260,-1689.068,-27162.100,0.000
-29070.030,-29082.830,-81294.730,-82527.760,3861.375,-28754.660,-1840.403,-27236.850,0.000
-29163.470,-29173.990,-81815.120,-83043.150,3733.481,-28857.610,-1991.019,-27311.850,0.000
-29255.540,-29263.990,-82332.750,-83555.950,3605.291,-28960.210,-2142.867,-27387.920,0.000
-29345.940,-29351.660,-82847.490,-84065.910,3478.172,-29060.590,-2295.167,-27464.020,0.000
-29435.080,-29437.310,-83359.630,-84573.200,3352.811,-29158.650,-2446.889,-27539.340,0.000
-29523.250,-29521.990,-83869.730,-85078.410,3227.846,-29255.590,-2598.778,-27613.910,0.000
-29610.740,-29606.370,-84378.130,-85581.910,3103.813,-29351.640,-2749.409,-27687.290,0.000
-29698.520,-29691.850,-84884.650,-86083.520,2978.089,-29448.620,-2901.000,-27761.440,0.000
-29786.430,-29777.480,-85389.160,-86583.020,2851.239,-29545.780,-3052.563,-27836.090,0.000
-29873.340,-29862.510,-85891.450,-87080.250,2724.455,-29641.870,-3202.818,-27910.140,0.000
-29956.930,-29945.820,-86390.930,-87574.700,2598.627,-29735.690,-3351.282,-27982.480,0.000
-30036.660,-30026.230,-86887.450,-88066.330,2476.195,-29826.650,-3496.109,-28052.570,0.000
-30115.660,-30105.920,-87381.410,-88555.450,2354.024,-29917.850,-3641.300,-28123.900,0.000
-30196.800,-30186.910,-87873.220,-89042.350,2231.047,-30010.320,-3787.951,-28197.490,0.000
-30280.880,-30270.540,-88363.200,-89527.350,2106.449,-30104.630,-3936.323,-28272.080,0.000
-30365.610,-30354.820,-88850.960,-90010.160,1980.043,-30199.420,-4086.157,-28345.450,0.000
-30448.780,-30436.930,-89336.030,-90490.280,1855.578,-30291.070,-4233.616,-28415.730,0.000
-30531.040,-30518.490,-89818.530,-90967.950,1731.726,-30380.540,-4380.556,-28485.530,0.000
-30612.210,-30599.390,-90298.700,-91443.430,1608.714,-30468.610,-4527.116,-28555.410,0.000
-30691.930,-30678.740,-90776.850,-91916.960,1486.794,-30556.310,-4673.638,-28625.200,0.000
-30770.460,-30756.290,-91253.200,-92388.690,1365.052,-30644.380,-4821.323,-28694.660,0.000
-30848.270,-30831.810,-91727.380,-92858.160,1245.189,-30731.460,-4967.069,-28761.770,0.000
-30926.060,-30906.980,-92198.830,-93324.840,1125.060,-30818.610,-5111.457,-28827.460,0.000
-31002.900,-30981.780,-92667.420,-93788.670,1005.067,-30905.370,-5253.856,-28892.350,0.000
-31078.750,-31056.590,-93133.350,-94249.890,885.334,-30991.620,-5394.948,-28957.260,0.000
-31154.750,-31132.690,-93597.200,-94709.050,764.113,-31078.700,-5537.017,-29023.050,0.000
-31230.790,-31209.730,-94059.580,-95166.670,642.926,-31166.270,-5678.687,-29088.920,0.000
-31305.890,-31287.110,-94520.260,-95622.540,521.241,-31254.170,-5820.995,-29155.210,0.000
-31379.500,-31363.390,-94978.700,-96076.130,400.291,-31340.760,-5962.586,-29221.280,0.000
-31453.990,-31439.140,-95435.230,-96527.860,278.814,-31426.900,-6104.454,-29288.730,0.000
-31530.540,-31514.160,-95889.740,-96977.690,155.951,-31513.080,-6247.841,-29357.750,0.000
-31606.690,-31586.320,-96341.320,-97424.640,36.245,-31596.840,-6388.512,-29424.290,0.000
-31681.600,-31657.140,-96790.020,-97868.730,-81.674,-31679.670,-6527.844,-29488.390,0.000
-31755.480,-31728.010,-97236.340,-98310.420,-198.469,-31762.040,-6666.051,-29550.490,0.000
-31828.410,-31799.420,-97680.190,-98749.590,-314.349,-31843.850,-6803.062,-29611.450,0.000
-31900.750,-31871.540,-98121.700,-99186.430,-431.262,-31925.830,-6940.864,-29673.020,0.000
-31972.630,-31943.480,-98561.420,-99621.480,-548.374,-32007.780,-7078.835,-29734.930,0.000
-32043.990,-32014.930,-98999.570,-100055.000,-666.924,-32090.600,-7218.553,-29797.370,0.000
-32114.420,-32085.190,-99436.100,-100486.800,-785.360,-32173.150,-7357.993,-29859.330,0.000
-32184.690,-32155.410,-99870.850,-100916.800,-903.562,-32255.320,-7496.390,-29921.540,0.000
-32255.390,-32226.220,-100303.300,-101344.500,-1023.179,-32337.650,-7635.060,-29984.600,0.000
-32326.150,-32296.080,-100732.900,-101769.400,-1142.115,-32418.850,-7771.850,-30046.600,0.000
-32395.760,-32364.510,-101159.800,-102191.800,-1260.158,-32498.360,-7907.376,-30106.880,0.000
-32462.640,-32430.900,-101584.400,-102611.900,-1376.045,-32575.080,-8041.086,-30164.480,0.000
-32528.210,-32496.730,-102007.000,-103030.000,-1491.241,-32650.780,-8174.691,-30221.020,0.000
-32594.020,-32563.270,-102427.600,-103446.100,-1607.702,-32726.980,-8310.079,-30277.870,0.000
-32660.080,-32630.110,-102846.200,-103860.300,-1724.336,-32803.010,-8446.037,-30335.160,0.000
-32726.490,-32697.080,-103263.100,-104272.700,-1842.604,-32879.890,-8584.212,-30394.410,0.000
-32792.520,-32762.550,-103677.600,-104682.700,-1960.291,-32956.370,-8721.808,-30453.640,0.000
-32858.530,-32827.500,-104089.700,-105090.100,-2077.508,-33032.210,-8858.443,-30512.350,0.000
-32924.270,-32892.610,-104499.200,-105495.000,-2195.662,-33107.450,-8995.865,-30570.850,0.000
-32988.640,-32956.700,-104906.400,-105897.600,-2312.374,-33181.230,-9132.123,-30627.680,0.000
-33052.960,-33021.710,-105312.000,-106298.500,-2430.463,-33256.640,-9270.282,-30685.120,0.000
-33118.300,-33088.330,-105716.300,-106698.300,-2550.110,-33334.290,-9410.267,-30743.720,0.000
-33183.680,-33155.000,-106118.600,-107096.300,-2669.112,-33412.100,-9549.630,-30801.700,0.000
-33247.940,-33220.060,-106518.000,-107491.300,-2787.518,-33488.180,-9687.759,-30858.110,0.000
-33312.200,-33283.400,-106915.300,-107884.300,-2905.828,-33562.180,-9824.358,-30913.720,0.000
-33377.820,-33346.700,-107311.200,-108275.900,-3026.596,-33636.460,-9962.695,-30970.480,0.000
-33443.380,-33409.130,-107705.100,-108665.300,-3146.852,-33710.180,-10100.610,-31026.180,0.000
-33507.800,-33470.510,-108095.800,-109051.600,-3264.558,-33782.340,-10236.270,-31079.710,0.000
-33570.930,-33531.510,-108483.600,-109434.900,-3381.349,-33853.080,-10371.510,-31132.170,0.000
-33633.020,-33592.390,-108869.200,-109816.100,-3497.428,-33922.310,-10506.000,-31183.440,0.000
-33695.600,-33654.620,-109253.300,-110195.800,-3616.143,-33992.160,-10642.440,-31235.140,0.000
-33757.930,-33716.490,-109635.900,-110574.100,-3736.158,-34061.580,-10779.520,-31286.510,0.000
-33818.470,-33776.480,-110016.900,-110950.700,-3855.677,-34129.960,-10916.100,-31337.510,0.000
-33877.750,-33835.530,-110396.300,-111325.600,-3976.104,-34199.170,-11054.180,-31390.220,0.000
-33937.000,-33894.480,-110774.000,-111698.900,-4096.164,-34269.690,-11192.840,-31444.790,0.000
-33997.060,-33954.500,-111149.500,-112069.900,-4216.949,-34341.610,-11333.440,-31500.770,0.000
-34056.980,-34013.920,-111522.300,-112438.400,-4336.990,-34411.590,-11473.570,-31555.000,0.000
-34115.640,-34071.400,-111892.400,-112804.200,-4455.741,-34478.240,-11611.690,-31606.280,0.000
-34173.090,-34127.930,-112260.500,-113168.000,-4575.541,-34544.010,-11749.490,-31656.440,0.000
-34230.240,-34184.560,-112627.100,-113530.300,-4696.085,-34610.480,-11886.390,-31706.180,0.000
-34288.020,-34242.000,-112992.200,-113891.100,-4818.749,-34678.620,-12024.500,-31756.730,0.000
-34345.690,-34298.390,-113355.200,-114249.800,-4941.380,-34746.190,-12162.080,-31806.660,0.000
-34403.720,-34354.220,-113716.000,-114606.300,-5063.406,-34813.110,-12298.720,-31855.780,0.000
-34462.700,-34411.150,-114075.200,-114961.300,-5186.834,-34880.800,-12436.840,-31905.680,0.000
-34520.940,-34467.800,-114432.600,-115314.500,-5309.388,-34946.950,-12574.260,-31955.310,0.000
-34577.480,-34523.460,-114787.800,-115665.300,-5431.419,-35010.840,-12711.880,-32004.900,0.000
-34632.130,-34577.270,-115140.400,-116013.600,-5552.233,-35072.660,-12849.700,-32054.020,0.000
-34685.810,-34629.770,-115490.900,-116359.800,-5672.219,-35134.000,-12988.530,-32102.780,0.000
-34738.730,-34681.350,-115839.300,-116703.900,-5791.769,-35195.300,-13127.920,-32150.350,0.000
-34790.850,-34731.800,-116185.200,-117045.700,-5908.918,-35255.610,-13264.290,-32195.110,0.000
-34843.620,-34783.040,-116529.000,-117385.400,-6026.892,-35317.100,-13400.560,-32239.830,0.000
-34895.960,-34834.140,-116871.000,-117723.200,-6145.185,-35378.590,-13536.550,-32284.870,0.000
-34947.010,-34884.350,-117211.200,-118059.200,-6262.676,-35438.710,-13671.280,-32329.780,0.000
-34997.460,-34933.750,-117549.400,-118393.300,-6379.933,-35497.460,-13805.380,-32374.690,0.000
-35048.110,-34982.390,-117885.500,-118725.300,-6496.084,-35554.830,-13937.960,-32419.210,0.000
-35100.180,-35032.800,-118220.100,-119055.800,-6614.669,-35613.560,-14072.700,-32465.240,0.000
-35152.630,-35084.890,-118553.500,-119385.000,-6735.591,-35673.530,-14209.300,-32512.040,0.000
-35204.110,-35137.110,-118885.400,-119712.800,-6857.840,-35733.770,-14347.080,-32558.520,0.000
-35254.050,-35187.590,-119215.200,-120038.400,-6979.851,-35792.360,-14485.230,-32603.280,0.000
-35302.550,-35234.900,-119542.100,-120361.000,-7097.632,-35847.020,-14619.790,-32644.190,0.000
-35350.580,-35280.540,-119866.300,-120681.000,-7213.472,-35900.050,-14752.120,-32682.610,0.000
-35399.420,-35326.800,-120188.500,-120999.100,-7329.695,-35954.090,-14883.390,-32720.480,0.000
-35450.860,-35376.820,-120510.000,-121316.600,-7449.637,-36012.450,-15017.050,-32761.500,0.000
-35503.040,-35429.200,-120830.900,-121633.200,-7573.588,-36074.360,-15154.130,-32805.360,0.000
-35552.670,-35479.580,-121150.000,-121948.200,-7695.515,-36134.450,-15288.990,-32847.130,0.000
-35599.490,-35527.600,-121466.900,-122261.000,-7814.846,-36191.600,-15421.240,-32886.320,0.000
-35643.690,-35572.370,-121781.300,-122571.500,-7930.733,-36245.090,-15549.730,-32922.880,0.000
-35686.780,-35614.360,-122093.200,-122879.500,-8043.717,-36296.320,-15675.440,-32958.270,0.000
-35730.140,-35655.980,-122403.000,-123185.300,-8156.488,-36347.910,-15801.930,-32995.020,0.000
-35772.980,-35697.410,-122710.700,-123489.000,-8268.051,-36399.230,-15928.130,-33032.480,0.000
-35814.630,-35738.610,-123016.300,-123790.500,-8380.001,-36450.680,-16055.130,-33070.710,0.000
-35854.600,-35779.010,-123319.900,-124090.100,-8491.627,-36501.210,-16181.440,-33108.450,0.000
-35894.000,-35819.830,-123621.900,-124388.100,-8603.194,-36550.740,-16307.080,-33145.630,0.000
-35934.600,-35863.210,-123922.600,-124684.700,-8717.009,-36600.800,-16434.840,-33184.000,0.000
-35976.570,-35908.580,-124221.900,-124980.100,-8831.084,-36650.760,-16562.910,-33222.870,0.000
-36019.110,-35953.800,-124519.300,-125273.600,-8944.659,-36700.060,-16689.960,-33260.730,0.000
-36060.730,-35995.770,-124814.400,-125564.800,-9055.178,-36746.770,-16812.680,-33294.970,0.000
-36101.140,-36034.590,-125107.600,-125854.100,-9162.362,-36790.970,-16931.260,-33325.680,0.000
-36140.380,-36072.290,-125399.300,-126142.100,-9268.423,-36834.450,-17048.780,-33354.710,0.000
-36178.890,-36109.820,-125689.500,-126428.500,-9373.355,-36878.180,-17165.580,-33383.630,0.000
-36218.140,-36148.860,-125978.000,-126713.200,-9479.730,-36924.340,-17284.860,-33415.530,0.000
-36258.720,-36189.470,-126264.600,-126995.800,-9586.449,-36972.100,-17405.540,-33449.910,0.000
-36300.590,-36231.350,-126549.400,-127276.600,-9692.902,-37020.700,-17526.280,-33485.730,0.000
-36341.760,-36272.370,-126832.300,-127555.700,-9799.463,-37068.910,-17646.430,-33521.850,0.000
-36380.040,-36309.430,-127113.200,-127832.900,-9902.772,-37113.520,-17761.590,-33555.190,0.000
-36416.200,-36343.630,-127391.900,-128107.800,-10003.620,-37155.640,-17872.470,-33585.890,0.000
-36451.120,-36376.660,-127668.600,-128380.600,-10102.360,-37197.020,-17980.400,-33614.520,0.000
-36485.660,-36410.130,-127943.600,-128651.600,-10200.530,-37239.210,-18088.430,-33642.720,0.000
-36520.390,-36444.510,-128216.500,-128920.400,-10299.780,-37282.420,-18198.900,-33671.520,0.000
-36555.700,-36479.380,-128487.500,-129187.500,-10398.630,-37325.910,-18309.930,-33700.160,0.000
-36592.280,-36516.130,-128757.600,-129453.700,-10499.170,-37371.100,-18423.100,-33730.010,0.000
-36629.280,-36554.000,-129026.400,-129718.700,-10600.450,-37416.430,-18536.080,-33760.190,0.000
-36665.490,-36591.080,-129293.300,-129981.900,-10700.880,-37460.480,-18645.860,-33789.420,0.000
-36699.030,-36624.820,-129557.900,-130242.900,-10799.380,-37502.310,-18751.240,-33816.450,0.000
-36729.440,-36654.240,-129820.200,-130501.600,-10893.670,-37540.640,-18851.380,-33840.810,0.000
-36759.550,-36682.910,-130080.800,-130758.600,-10987.190,-37577.970,-18951.540,-33865.910,0.000
-36790.610,-36712.380,-130339.800,-131013.800,-11080.400,-37615.020,-19052.220,-33891.810,0.000
-36822.660,-36742.680,-130597.000,-131267.000,-11172.280,-37651.590,-19151.870,-33917.130,0.000
-36856.520,-36774.710,-130852.400,-131518.500,-11263.710,-37688.150,-19251.530,-33942.000,0.000
-36892.650,-36808.870,-131106.400,-131768.400,-11354.360,-37724.980,-19350.610,-33966.160,0.000
-36929.500,-36843.950,-131358.400,-132016.500,-11445.530,-37763.260,-19449.810,-33989.840,0.000
-36963.860,-36875.850,-131608.200,-132262.500,-11534.360,-37800.320,-19545.720,-34011.270,0.000
-36996.230,-36904.650,-131856.500,-132507.100,-11620.840,-37836.040,-19638.560,-34031.850,0.000
-37029.810,-36934.660,-132103.800,-132750.700,-11709.200,-37874.080,-19733.050,-34055.040,0.000
-37065.040,-36967.530,-132350.300,-132993.500,-11799.160,-37914.290,-19828.830,-34080.320,0.000
-37099.460,-37001.140,-132595.500,-133234.900,-11889.570,-37954.230,-19924.990,-34105.810,0.000
-37131.520,-37032.210,-132838.100,-133473.900,-11976.500,-37990.730,-20018.030,-34128.830,0.000
-37163.770,-37062.390,-133078.200,-133710.400,-12060.250,-38024.910,-20108.120,-34150.310,0.000
-37196.910,-37092.850,-133316.100,-133944.700,-12143.090,-38058.660,-20196.880,-34171.730,0.000
-37228.820,-37121.460,-133551.700,-134176.700,-12223.100,-38091.050,-20282.300,-34192.260,0.000
-37260.510,-37149.780,-133785.600,-134407.000,-12303.120,-38124.180,-20368.500,-34214.850,0.000
-37293.090,-37179.030,-134018.600,-134636.400,-12383.860,-38157.990,-20457.080,-34240.160,0.000
-37325.570,-37208.520,-134250.900,-134864.900,-12464.730,-38191.250,-20547.040,-34266.070,0.000
-37356.240,-37236.640,-134481.700,-135091.900,-12545.450,-38223.450,-20637.000,-34290.140,0.000
-37384.970,-37263.150,-134710.600,-135317.100,-12623.930,-38254.060,-20724.050,-34310.960,0.000
-37413.860,-37290.500,-134937.700,-135540.600,-12703.400,-38285.570,-20811.190,-34331.590,0.000
-37443.020,-37317.580,-135163.000,-135762.500,-12783.430,-38317.500,-20897.270,-34352.270,0.000
-37471.570,-37342.860,-135386.400,-135982.300,-12861.650,-38348.770,-20979.980,-34372.000,0.000
-37499.170,-37367.040,-135607.700,-136200.100,-12937.710,-38379.640,-21060.370,-34391.330,0.000
-37525.180,-37389.990,-135827.100,-136415.900,-13009.500,-38408.660,-21137.800,-34409.730,0.000
-37549.840,-37412.180,-136045.000,-136630.400,-13079.240,-38436.570,-21215.200,-34428.200,0.000
-37574.780,-37434.870,-136262.000,-136843.900,-13149.180,-38464.950,-21293.860,-34447.610,0.000
-37601.320,-37459.660,-136477.800,-137056.100,-13221.340,-38495.340,-21374.770,-34468.750,0.000
-37628.480,-37485.420,-136691.900,-137266.600,-13295.600,-38526.710,-21457.090,-34490.360,0.000
-37654.950,-37509.900,-136904.100,-137475.400,-13368.410,-38556.250,-21536.440,-34509.560,0.000
-37680.140,-37532.930,-137114.500,-137682.100,-13439.720,-38583.770,-21612.910,-34526.050,0.000
-37703.460,-37554.280,-137322.700,-137886.600,-13508.110,-38608.950,-21685.400,-34539.320,0.000
-37726.180,-37575.260,-137529.400,-138089.700,-13575.100,-38633.630,-21756.210,-34551.300,0.000
-37748.910,-37596.130,-137734.900,-138291.700,-13643.440,-38658.840,-21828.770,-34563.910,0.000
-37771.160,-37616.500,-137939.300,-138492.600,-13711.590,-38683.330,-21901.270,-34576.650,0.000
-37792.940,-37637.790,-138141.900,-138691.700,-13780.060,-38708.180,-21974.150,-34589.890,0.000
-37814.000,-37659.010,-138342.500,-138888.800,-13846.960,-38732.840,-22045.840,-34602.110,0.000
-37835.290,-37679.800,-138541.300,-139084.200,-13912.400,-38757.200,-22116.970,-34613.530,0.000
-37857.250,-37699.910,-138738.500,-139277.900,-13978.320,-38781.120,-22189.210,-34625.200,0.000
-37879.670,-37718.450,-138933.700,-139469.800,-14043.800,-38803.320,-22260.790,-34636.610,0.000
-37902.160,-37736.340,-139127.100,-139660.000,-14109.830,-38824.570,-22332.570,-34647.760,0.000
-37923.220,-37753.430,-139319.000,-139848.500,-14174.670,-38844.600,-22402.820,-34657.340,0.000
-37943.760,-37771.180,-139509.800,-140035.800,-14239.020,-38865.100,-22472.630,-34667.100,0.000
-37965.040,-37791.010,-139699.500,-140222.000,-14305.000,-38887.460,-22544.440,-34678.850,0.000
-37986.570,-37811.970,-139887.900,-140407.000,-14371.360,-38910.430,-22616.790,-34691.560,0.000
-38008.180,-37833.720,-140075.200,-140590.900,-14439.670,-38934.200,-22691.550,-34706.060,0.000
-38029.100,-37854.740,-140261.200,-140773.500,-14507.690,-38957.000,-22767.380,-34721.300,0.000
-38048.300,-37874.120,-140445.400,-140954.500,-14573.640,-38977.750,-22843.540,-34736.550,0.000
-38065.780,-37891.290,-140627.400,-141133.300,-14638.250,-38997.290,-22920.240,-34751.340,0.000
-38083.310,-37906.430,-140807.400,-141309.800,-14700.730,-39016.980,-22994.700,-34764.720,0.000
-38102.980,-37922.640,-140986.300,-141485.300,-14764.580,-39039.710,-23069.290,-34779.030,0.000
-38123.960,-37940.650,-141163.900,-141659.600,-14829.850,-39063.960,-23143.740,-34794.090,0.000
-38144.530,-37959.570,-141339.200,-141831.600,-14895.220,-39087.420,-23217.030,-34808.590,0.000
-38163.950,-37978.740,-141512.500,-142001.600,-14960.800,-39109.760,-23290.000,-34822.460,0.000
-38182.860,-37997.840,-141685.000,-142170.800,-15025.670,-39131.140,-23362.130,-34835.970,0.000
-38202.180,-38017.230,-141856.800,-142339.300,-15091.750,-39153.110,-23435.770,-34850.440,0.000
-38220.330,-38034.600,-142027.300,-142506.400,-15156.980,-39174.220,-23508.340,-34863.760,0.000
-38236.770,-38049.790,-142195.900,-142671.700,-15221.060,-39194.670,-23578.730,-34875.660,0.000
-38252.180,-38064.170,-142362.300,-142834.800,-15285.180,-39215.430,-23648.410,-34887.610,0.000
-38266.670,-38077.610,-142526.500,-142995.700,-15347.170,-39235.630,-23716.300,-34899.270,0.000
-38281.310,-38092.000,-142689.600,-143155.400,-15410.410,-39257.140,-23786.230,-34912.360,0.000
-38296.820,-38107.740,-142852.300,-143314.700,-15475.260,-39279.320,-23857.510,-34925.630,0.000
-38313.600,-38124.230,-143014.000,-143473.100,-15540.270,-39301.710,-23927.850,-34937.800,0.000
-38331.000,-38140.720,-143174.200,-143630.200,-15606.030,-39325.280,-23997.800,-34949.950,0.000
-38348.070,-38156.250,-143333.000,-143785.900,-15671.570,-39348.730,-24066.590,-34962.350,0.000
-38364.000,-38171.110,-143489.700,-143939.600,-15737.600,-39371.210,-24135.860,-34975.050,0.000
-38376.860,-38184.140,-143644.200,-144090.900,-15801.750,-39390.990,-24203.590,-34986.140,0.000
-38387.030,-38196.080,-143796.800,-144240.400,-15864.630,-39409.220,-24270.440,-34996.450,0.000
-38396.500,-38208.610,-143948.500,-144389.000,-15929.140,-39427.540,-24339.200,-35007.640,0.000
-38406.350,-38220.860,-144099.100,-144536.400,-15993.050,-39444.600,-24407.260,-35018.220,0.000
-38417.460,-38232.960,-144247.700,-144681.800,-16056.470,-39461.350,-24474.750,-35028.390,0.000
-38430.070,-38245.540,-144394.700,-144825.600,-16119.550,-39478.550,-24541.970,-35038.670,0.000
-38443.740,-38259.160,-144540.800,-144968.600,-16183.630,-39496.910,-24610.240,-35049.730,0.000
-38456.510,-38272.280,-144686.100,-145110.700,-16249.150,-39515.550,-24679.330,-35060.060,0.000
-38466.980,-38283.140,-144830.000,-145251.400,-16313.760,-39532.200,-24746.250,-35067.610,0.000
-38476.200,-38292.930,-144972.300,-145390.600,-16379.190,-39548.000,-24813.300,-35074.540,0.000
-38485.340,-38302.330,-145112.900,-145528.200,-16444.450,-39563.550,-24880.350,-35081.620,0.000
-38495.510,-38312.720,-145251.900,-145664.200,-16509.560,-39579.940,-24948.270,-35089.390,0.000
-38506.110,-38324.030,-145389.500,-145798.800,-16575.700,-39597.300,-25017.980,-35097.810,0.000
-38516.370,-38334.840,-145525.600,-145931.800,-16640.640,-39613.470,-25086.380,-35104.800,0.000
-38526.980,-38345.570,-145659.800,-146062.800,-16704.940,-39628.280,-25154.620,-35110.540,0.000
-38537.170,-38354.610,-145791.900,-146191.800,-16767.520,-39641.020,-25221.760,-35114.770,0.000
-38546.960,-38361.760,-145922.900,-146319.800,-16829.920,-39653.310,-25288.010,-35119.000,0.000
-38556.860,-38368.990,-146053.400,-146447.100,-16894.890,-39667.000,-25355.500,-35124.780,0.000
-38566.520,-38377.030,-146182.900,-146573.400,-16961.440,-39681.190,-25423.730,-35131.620,0.000
-38576.010,-38385.840,-146311.100,-146698.500,-17030.230,-39696.260,-25494.280,-35140.460,0.000
-38584.570,-38393.870,-146437.600,-146822.000,-17097.990,-39710.880,-25564.280,-35149.450,0.000
-38592.830,-38402.220,-146562.700,-146944.100,-17163.870,-39725.150,-25632.890,-35158.130,0.000
-38601.710,-38412.000,-146686.700,-147065.000,-17229.700,-39739.950,-25702.010,-35167.470,0.000
-38609.720,-38420.920,-146809.400,-147184.800,-17293.870,-39753.360,-25769.870,-35175.610,0.000
-38615.500,-38428.050,-146930.700,-147303.000,-17358.900,-39765.690,-25838.540,-35182.500,0.000
-38619.920,-38433.770,-147050.500,-147419.700,-17425.410,-39777.910,-25907.910,-35188.320,0.000
-38625.460,-38439.780,-147168.800,-147534.800,-17493.140,-39791.740,-25977.760,-35193.780,0.000
-38632.600,-38446.490,-147285.600,-147648.500,-17562.090,-39807.390,-26048.680,-35199.110,0.000
-38640.970,-38453.820,-147401.200,-147760.900,-17630.310,-39823.590,-26118.960,-35203.750,0.000
-38650.320,-38462.870,-147515.900,-147872.600,-17699.560,-39840.740,-26190.330,-35209.250,0.000
-38658.420,-38471.100,-147629.700,-147983.600,-17768.170,-39855.610,-26261.090,-35214.660,0.000
-38664.680,-38477.020,-147741.600,-148092.600,-17835.190,-39866.540,-26330.720,-35219.580,0.000
-38670.310,-38481.890,-147851.100,-148199.300,-17902.520,-39875.280,-26400.770,-35224.650,0.000
-38675.520,-38485.640,-147958.800,-148304.100,-17969.040,-39882.460,-26469.260,-35228.400,0.000
-38679.740,-38487.920,-148065.200,-148407.600,-18035.880,-39889.660,-26537.720,-35231.040,0.000
-38683.090,-38489.100,-148170.700,-148510.200,-18103.010,-39897.230,-26606.270,-35233.330,0.000
-38687.060,-38491.490,-148275.100,-148611.700,-18171.110,-39905.680,-26675.630,-35236.910,0.000
-38691.020,-38495.170,-148378.300,-148712.100,-18240.100,-39914.430,-26746.110,-35241.420,0.000
-38693.910,-38498.970,-148480.300,-148811.300,-18308.100,-39922.140,-26815.650,-35245.290,0.000
-38696.930,-38504.090,-148581.400,-148909.600,-18377.560,-39930.550,-26886.720,-35250.010,0.000
-38700.840,-38509.750,-148681.500,-149006.900,-18448.060,-39940.070,-26958.760,-35254.930,0.000
-38705.380,-38514.500,-148780.800,-149103.300,-18519.620,-39950.360,-27031.740,-35258.930,0.000
-38708.700,-38516.400,-148878.300,-149197.800,-18591.580,-39959.670,-27105.110,-35260.440,0.000
-38710.880,-38515.620,-148973.600,-149290.200,-18661.280,-39967.360,-27175.900,-35259.160,0.000
-38713.840,-38515.550,-149067.100,-149380.600,-18731.110,-39975.960,-27246.560,-35258.230,0.000
-38715.530,-38515.500,-149158.900,-149469.300,-18799.450,-39982.960,-27315.390,-35256.390,0.000
-38714.700,-38515.050,-149249.300,-149556.900,-18866.320,-39987.300,-27382.010,-35253.310,0.000
-38714.140,-38515.810,-149339.500,-149644.400,-18935.130,-39991.580,-27450.160,-35251.640,0.000
-38716.190,-38517.520,-149429.700,-149732.000,-19005.550,-39996.390,-27520.260,-35251.960,0.000
-38720.980,-38520.060,-149518.900,-149818.600,-19078.190,-40002.710,-27593.020,-35253.960,0.000
-38727.130,-38522.970,-149606.100,-149903.100,-19151.320,-40010.310,-27666.150,-35255.800,0.000
-38733.470,-38526.410,-149691.700,-149985.900,-19224.370,-40018.790,-27739.270,-35257.710,0.000
-38737.360,-38528.460,-149775.700,-150067.200,-19296.060,-40025.860,-27811.530,-35259.170,0.000
-38737.140,-38527.250,-149857.500,-150146.400,-19363.320,-40029.410,-27879.560,-35258.550,0.000
-38734.960,-38525.220,-149937.500,-150223.600,-19429.720,-40031.800,-27946.630,-35257.820,0.000
-38732.900,-38523.750,-150016.600,-150300.000,-19497.310,-40033.410,-28015.000,-35257.570,0.000
-38731.790,-38522.920,-150095.400,-150375.900,-19566.720,-40034.390,-28086.260,-35257.780,0.000
-38732.000,-38522.660,-150173.500,-150451.200,-19638.250,-40035.840,-28160.850,-35258.570,0.000
-38733.390,-38522.240,-150251.000,-150525.700,-19709.630,-40038.270,-28235.800,-35259.290,0.000
-38734.130,-38520.120,-150327.200,-150599.100,-19780.260,-40041.700,-28310.380,-35259.130,0.000
-38732.570,-38514.770,-150401.700,-150670.700,-19848.270,-40044.110,-28382.110,-35256.550,0.000
-38729.880,-38508.830,-150474.700,-150741.000,-19915.450,-40046.290,-28452.340,-35253.400,0.000
-38726.900,-38504.590,-150546.100,-150809.800,-19983.530,-40049.390,-28523.180,-35250.810,0.000
-38724.300,-38502.160,-150616.100,-150877.100,-20051.380,-40053.240,-28594.260,-35248.160,0.000
-38723.110,-38502.040,-150685.000,-150943.600,-20121.690,-40058.640,-28669.350,-35247.120,0.000
-38721.690,-38501.600,-150753.100,-151009.300,-20192.640,-40063.020,-28746.600,-35245.740,0.000
-38718.720,-38499.540,-150820.000,-151073.800,-20262.440,-40065.630,-28824.010,-35242.570,0.000
-38714.650,-38496.740,-150885.500,-151136.800,-20331.880,-40068.180,-28902.720,-35239.110,0.000
-38709.930,-38493.000,-150950.000,-151198.700,-20399.300,-40070.350,-28980.580,-35235.330,0.000
-38705.170,-38488.550,-151013.500,-151259.400,-20466.340,-40072.800,-29058.140,-35231.100,0.000
-38700.960,-38483.350,-151076.100,-151319.300,-20533.830,-40075.740,-29135.020,-35226.160,0.000
-38697.880,-38478.480,-151138.000,-151378.500,-20602.880,-40079.950,-29212.160,-35221.580,0.000
-38693.770,-38473.120,-151198.600,-151436.400,-20672.780,-40084.280,-29289.750,-35215.970,0.000
-38687.450,-38466.960,-151257.400,-151492.600,-20741.250,-40087.180,-29365.620,-35208.010,0.000
-38681.850,-38463.580,-151315.000,-151547.600,-20811.520,-40091.030,-29442.670,-35201.520,0.000
-38678.220,-38462.470,-151371.500,-151601.500,-20882.230,-40094.680,-29519.700,-35197.010,0.000
-38675.390,-38460.820,-151426.500,-151654.000,-20951.460,-40096.120,-29595.450,-35193.450,0.000
-38671.510,-38457.070,-151480.300,-151705.200,-21020.300,-40094.690,-29670.840,-35190.380,0.000
-38665.830,-38450.500,-151532.900,-151755.200,-21088.120,-40089.470,-29744.590,-35186.590,0.000
-38659.660,-38442.580,-151584.500,-151804.400,-21157.050,-40082.260,-29818.880,-35183.020,0.000
-38654.110,-38433.980,-151635.300,-151852.800,-21226.510,-40074.380,-29892.690,-35179.110,0.000
-38650.180,-38426.020,-151685.200,-151900.100,-21296.720,-40068.240,-29965.970,-35175.630,0.000
-38646.420,-38418.930,-151733.600,-151946.000,-21368.300,-40064.720,-30039.720,-35173.040,0.000
-38640.260,-38411.430,-151780.800,-151990.600,-21439.220,-40061.820,-30111.970,-35169.140,0.000
-38632.370,-38404.620,-151827.200,-152034.300,-21511.920,-40060.640,-30185.490,-35164.710,0.000
-38624.120,-38398.110,-151872.600,-152077.200,-21585.840,-40061.160,-30260.730,-35159.900,0.000
-38616.730,-38391.390,-151916.900,-152119.100,-21660.100,-40062.980,-30337.750,-35154.920,0.000
-38610.290,-38384.400,-151960.100,-152159.900,-21734.870,-40065.250,-30416.500,-35149.590,0.000
-38603.840,-38376.560,-152001.900,-152199.400,-21806.750,-40065.360,-30493.900,-35142.350,0.000
-38596.840,-38368.800,-152042.400,-152237.400,-21875.200,-40063.160,-30570.770,-35134.010,0.000
-38588.460,-38361.170,-152081.900,-152274.400,-21936.090,-40059.360,-30645.830,-35124.150,0.000
-38579.150,-38353.610,-152120.800,-152310.600,-21981.310,-40056.100,-30719.380,-35113.130,0.000
-38568.660,-38344.690,-152158.500,-152345.600,-22011.200,-40053.020,-30793.120,-35101.790,0.000
-38556.860,-38333.510,-152194.800,-152379.300,-22040.250,-40048.380,-30866.070,-35090.550,0.000
-38544.830,-38321.700,-152230.000,-152411.900,-22083.220,-40043.700,-30939.090,-35081.050,0.000
-38531.900,-38308.430,-152263.800,-152443.300,-22139.500,-40037.040,-31008.870,-35071.420,0.000
-38519.040,-38294.600,-152296.100,-152473.200,-22207.540,-40027.480,-31076.400,-35061.830,0.000
-38508.420,-38282.250,-152327.100,-152501.900,-22285.770,-40016.580,-31145.150,-35053.520,0.000
-38500.010,-38271.290,-152357.200,-152529.600,-22365.340,-40005.390,-31213.300,-35044.590,0.000
-38492.830,-38262.370,-152386.500,-152556.600,-22442.890,-39996.900,-31283.560,-35035.460,0.000
-38485.030,-38254.460,-152415.100,-152582.900,-22519.280,-39991.130,-31356.150,-35026.020,0.000
-38475.700,-38246.540,-152443.000,-152608.300,-22597.140,-39987.150,-31428.690,-35015.860,0.000
-38465.410,-38238.900,-152470.200,-152633.200,-22677.340,-39984.310,-31499.650,-35005.340,0.000
-38455.000,-38231.470,-152496.600,-152657.200,-22755.530,-39980.320,-31566.910,-34994.130,0.000
-38444.670,-38223.520,-152521.600,-152679.800,-22829.540,-39974.110,-31631.320,-34982.160,0.000
-38433.140,-38212.730,-152544.800,-152700.500,-22898.610,-39963.840,-31691.540,-34968.070,0.000
-38420.760,-38200.030,-152566.400,-152719.600,-22968.020,-39951.040,-31750.290,-34953.470,0.000
-38409.630,-38188.360,-152587.100,-152737.800,-23042.620,-39939.630,-31812.290,-34941.270,0.000
-38399.890,-38177.540,-152607.300,-152755.700,-23118.720,-39930.230,-31877.040,-34931.220,0.000
-38389.920,-38166.160,-152626.800,-152773.100,-23193.700,-39921.890,-31944.540,-34922.370,0.000
-38378.700,-38153.290,-152645.500,-152789.500,-23266.190,-39912.790,-32011.710,-34912.290,0.000
-38366.650,-38139.820,-152663.000,-152804.900,-23338.520,-39903.300,-32077.530,-34900.170,0.000
-38353.180,-38125.070,-152679.400,-152819.000,-23412.280,-39892.860,-32141.960,-34885.280,0.000
-38338.150,-38108.120,-152694.000,-152831.400,-23483.760,-39879.570,-32202.790,-34866.820,0.000
-38323.390,-38091.590,-152707.200,-152842.400,-23552.990,-39865.820,-32263.030,-34848.180,0.000
-38309.080,-38076.220,-152719.300,-152852.400,-23620.140,-39852.130,-32322.860,-34830.380,0.000
-38295.240,-38062.470,-152731.100,-152861.900,-23688.380,-39838.940,-32383.300,-34814.020,0.000
-38281.500,-38050.360,-152742.600,-152870.900,-23760.450,-39826.960,-32446.120,-34799.530,0.000
-38266.860,-38038.400,-152753.300,-152879.100,-23833.180,-39815.030,-32508.790,-34785.120,0.000
-38251.930,-38026.420,-152762.900,-152886.300,-23905.910,-39803.820,-32571.770,-34770.800,0.000
-38236.130,-38012.290,-152771.100,-152892.100,-23976.160,-39791.530,-32632.290,-34754.810,0.000
-38219.160,-37995.480,-152777.600,-152896.500,-24043.790,-39777.380,-32689.310,-34737.120,0.000
-38201.350,-37976.980,-152782.800,-152899.500,-24110.960,-39762.430,-32744.820,-34719.160,0.000
-38182.860,-37956.840,-152786.800,-152901.400,-24176.960,-39746.830,-32799.130,-34701.080,0.000
-38164.020,-37936.510,-152790.300,-152902.800,-24243.970,-39732.000,-32855.930,-34684.610,0.000
-38144.520,-37916.770,-152793.400,-152903.800,-24311.110,-39717.380,-32914.820,-34669.040,0.000
-38125.900,-37899.410,-152795.500,-152903.800,-24377.960,-39703.590,-32974.870,-34653.540,0.000
-38109.070,-37884.210,-152796.400,-152902.400,-24444.890,-39690.980,-33034.840,-34637.380,0.000
-38093.230,-37868.680,-152796.400,-152900.200,-24510.550,-39678.200,-33092.270,-34620.160,0.000
-38078.260,-37852.700,-152795.900,-152897.400,-24577.410,-39666.250,-33150.520,-34604.700,0.000
-38062.500,-37834.770,-152794.300,-152893.600,-24643.240,-39653.310,-33207.680,-34589.800,0.000
-38045.030,-37814.700,-152790.700,-152887.900,-24706.180,-39638.320,-33261.040,-34573.910,0.000
-38026.660,-37794.600,-152785.500,-152880.500,-24768.250,-39622.740,-33312.480,-34558.080,0.000
-38008.180,-37775.840,-152779.900,-152872.700,-24829.940,-39607.350,-33363.040,-34542.540,0.000
-37990.060,-37758.960,-152774.500,-152864.900,-24893.190,-39593.110,-33414.890,-34527.550,0.000
-37971.980,-37742.090,-152768.700,-152857.000,-24955.910,-39577.610,-33465.440,-34511.000,0.000
-37954.560,-37724.930,-152762.300,-152848.600,-25017.290,-39559.930,-33514.050,-34492.420,0.000
-37937.390,-37707.120,-152754.800,-152839.200,-25078.400,-39541.150,-33562.520,-34473.030,0.000
-37919.680,-37687.710,-152745.900,-152828.200,-25137.710,-39521.870,-33610.010,-34453.240,0.000
-37902.570,-37668.510,-152735.500,-152815.600,-25197.160,-39504.260,-33659.170,-34435.010,0.000
-37886.100,-37649.820,-152723.800,-152801.500,-25256.180,-39487.730,-33709.450,-34417.880,0.000
-37869.780,-37631.340,-152711.200,-152786.700,-25314.300,-39471.260,-33759.510,-34400.840,0.000
-37853.100,-37612.770,-152698.100,-152771.400,-25371.770,-39454.250,-33808.300,-34382.940,0.000
-37835.570,-37593.620,-152684.100,-152755.500,-25427.070,-39435.950,-33853.550,-34362.940,0.000
-37817.480,-37574.540,-152669.100,-152738.500,-25482.240,-39417.380,-33897.950,-34342.300,0.000
-37798.450,-37554.670,-152652.600,-152720.100,-25536.050,-39397.610,-33941.390,-34321.160,0.000
-37778.500,-37534.110,-152635.000,-152700.600,-25588.500,-39377.100,-33984.540,-34300.850,0.000
-37757.730,-37513.690,-152617.000,-152680.500,-25641.640,-39357.110,-34029.070,-34282.270,0.000
-37736.520,-37493.330,-152598.700,-152660.200,-25694.710,-39337.210,-34073.240,-34263.650,0.000
-37715.840,-37473.410,-152580.000,-152639.300,-25748.870,-39318.640,-34117.930,-34244.910,0.000
-37695.150,-37452.850,-152560.200,-152617.500,-25801.720,-39300.760,-34160.440,-34224.870,0.000
-37673.970,-37431.810,-152539.200,-152594.300,-25852.800,-39283.030,-34200.050,-34203.750,0.000
-37652.060,-37410.480,-152516.900,-152569.900,-25903.370,-39264.980,-34238.140,-34182.100,0.000
-37629.190,-37388.000,-152493.500,-152544.400,-25951.220,-39244.830,-34272.960,-34158.460,0.000
-37606.510,-37365.660,-152469.000,-152517.800,-25997.790,-39223.680,-34306.470,-34133.480,0.000
-37584.540,-37343.530,-152443.700,-152490.500,-26042.780,-39202.010,-34338.700,-34107.460,0.000
-37563.330,-37321.460,-152417.800,-152462.600,-26087.190,-39180.860,-34371.500,-34082.340,0.000
-37543.170,-37299.590,-152391.400,-152434.300,-26132.420,-39160.730,-34406.700,-34059.820,0.000
-37524.230,-37278.150,-152364.300,-152405.200,-26176.360,-39140.250,-34441.190,-34038.810,0.000
-37505.430,-37257.970,-152336.400,-152375.200,-26219.890,-39119.920,-34474.840,-34018.630,0.000
-37484.380,-37236.890,-152307.400,-152344.200,-26261.030,-39097.850,-34504.960,-33996.580,0.000
-37461.770,-37214.220,-152277.400,-152312.200,-26299.430,-39073.810,-34531.680,-33972.730,0.000
-37438.890,-37190.150,-152246.200,-152279.300,-26336.240,-39048.550,-34557.060,-33948.270,0.000
-37414.950,-37163.440,-152213.600,-152244.800,-26369.490,-39020.390,-34578.980,-33921.680,0.000
-37390.930,-37136.070,-152179.600,-152209.000,-26401.790,-38991.370,-34599.470,-33894.370,0.000
-37368.450,-37110.280,-152145.100,-152172.500,-26434.630,-38964.220,-34619.410,-33868.140,0.000
-37347.130,-37086.680,-152110.900,-152136.100,-26469.080,-38940.430,-34640.160,-33844.040,0.000
-37325.070,-37063.460,-152076.500,-152099.700,-26504.460,-38918.430,-34662.020,-33820.500,0.000
-37301.080,-37038.240,-152041.400,-152062.600,-26536.880,-38895.070,-34681.630,-33794.630,0.000
-37275.980,-37012.080,-152005.100,-152024.500,-26568.280,-38870.980,-34700.920,-33768.120,0.000
-37251.050,-36985.990,-151967.800,-151985.300,-26599.710,-38846.570,-34720.320,-33742.680,0.000
-37227.090,-36960.630,-151929.300,-151945.000,-26630.590,-38821.980,-34739.210,-33718.180,0.000
-37203.070,-36936.010,-151889.500,-151903.300,-26660.260,-38796.900,-34756.890,-33693.220,0.000
-37178.270,-36912.150,-151849.000,-151860.900,-26688.340,-38771.520,-34772.510,-33667.830,0.000
-37152.910,-36889.060,-151808.300,-151818.200,-26717.460,-38747.260,-34788.360,-33643.480,0.000
-37126.190,-36864.210,-151766.800,-151774.800,-26745.480,-38721.730,-34801.960,-33617.980,0.000
-37098.960,-36837.990,-151724.700,-151730.600,-26772.040,-38694.800,-34813.730,-33591.450,0.000
-37071.920,-36811.640,-151682.000,-151686.000,-26798.370,-38667.630,-34825.840,-33564.980,0.000
-37044.310,-36784.590,-151638.400,-151640.400,-26822.130,-38639.200,-34835.800,-33537.470,0.000
-37015.940,-36757.260,-151593.300,-151593.700,-26844.190,-38610.740,-34844.450,-33509.770,0.000
-36986.630,-36729.550,-151547.200,-151546.100,-26864.410,-38582.250,-34851.880,-33481.680,0.000
-36957.830,-36702.530,-151500.500,-151497.700,-26884.130,-38554.450,-34859.970,-33454.110,0.000
-36931.380,-36676.840,-151453.000,-151448.400,-26904.800,-38528.070,-34870.050,-33427.990,0.000
-36907.390,-36652.090,-151404.500,-151398.100,-26925.270,-38502.350,-34879.880,-33402.550,0.000
-36883.460,-36627.110,-151355.000,-151346.700,-26945.790,-38476.920,-34889.650,-33377.470,0.000
-36856.880,-36599.460,-151304.400,-151294.300,-26962.970,-38449.620,-34896.620,-33350.430,0.000
-36829.080,-36571.240,-151252.800,-151241.000,-26977.360,-38421.550,-34901.520,-33322.040,0.000
-36801.670,-36544.050,-151200.600,-151187.100,-26991.830,-38394.650,-34906.270,-33293.750,0.000
-36774.620,-36516.880,-151148.000,-151132.800,-27006.310,-38368.310,-34909.800,-33265.640,0.000
-36748.560,-36490.830,-151095.100,-151078.100,-27023.330,-38342.390,-34915.110,-33239.100,0.000
-36722.550,-36464.930,-151041.900,-151023.100,-27040.570,-38315.010,-34920.790,-33212.360,0.000
-36696.160,-36438.570,-150987.600,-150967.100,-27056.170,-38287.210,-34925.850,-33185.170,0.000
-36669.410,-36412.100,-150932.100,-150910.000,-27070.800,-38260.270,-34931.050,-33158.590,0.000
-36641.450,-36384.480,-150875.800,-150852.000,-27083.010,-38232.060,-34934.040,-33131.230,0.000
-36612.350,-36355.430,-150818.700,-150793.100,-27093.730,-38201.890,-34935.080,-33102.690,0.000
-36582.990,-36325.040,-150760.600,-150733.200,-27102.460,-38169.730,-34933.750,-33072.970,0.000
-36554.980,-36295.110,-150701.900,-150672.400,-27111.010,-38138.130,-34932.860,-33044.550,0.000
-36527.700,-36265.780,-150642.500,-150611.100,-27120.380,-38107.920,-34933.630,-33018.010,0.000
-36500.080,-36236.010,-150581.900,-150548.600,-27128.330,-38077.500,-34932.610,-32991.150,0.000
-36473.540,-36207.660,-150520.400,-150485.300,-27137.920,-38048.110,-34931.890,-32964.580,0.000
-36448.520,-36181.250,-150458.800,-150422.000,-27149.800,-38019.600,-34932.040,-32937.800,0.000
-36423.890,-36155.530,-150397.000,-150358.700,-27162.280,-37990.980,-34932.420,-32909.940,0.000
-36398.080,-36128.350,-150334.300,-150294.300,-27173.600,-37961.390,-34932.340,-32880.630,0.000
-36371.440,-36099.280,-150270.300,-150228.700,-27182.140,-37931.310,-34930.660,-32850.470,0.000
-36345.170,-36070.700,-150205.500,-150162.100,-27190.440,-37902.810,-34930.230,-32821.370,0.000
-36317.710,-36042.130,-150139.700,-150094.600,-27197.800,-37873.560,-34929.430,-32791.720,0.000
-36288.180,-36013.080,-150073.100,-150026.400,-27204.870,-37842.250,-34926.700,-32760.930,0.000
-36257.910,-35985.060,-150006.200,-149957.900,-27213.520,-37811.010,-34922.790,-32729.980,0.000
-36229.040,-35959.290,-149939.500,-149889.600,-27223.540,-37781.980,-34918.250,-32699.270,0.000
-36202.280,-35935.000,-149872.800,-149821.200,-27237.250,-37755.880,-34916.510,-32669.880,0.000
-36175.560,-35908.130,-149805.400,-149752.100,-27251.720,-37728.910,-34915.090,-32639.700,0.000
-36147.960,-35878.220,-149736.700,-149681.900,-27264.230,-37699.420,-34912.270,-32607.400,0.000
-36119.560,-35847.380,-149666.800,-149610.200,-27275.170,-37667.950,-34909.630,-32573.290,0.000
-36090.250,-35815.890,-149596.000,-149537.800,-27283.670,-37634.570,-34906.670,-32538.020,0.000
-36060.410,-35783.690,-149524.500,-149464.500,-27291.470,-37601.200,-34904.960,-32504.090,0.000
-36030.270,-35750.630,-149452.000,-149390.500,-27299.150,-37568.430,-34904.060,-32472.090,0.000
-36000.960,-35718.710,-149379.100,-149315.900,-27309.100,-37537.380,-34905.260,-32442.610,0.000
-35972.320,-35688.010,-149305.500,-149240.800,-27321.460,-37507.400,-34908.680,-32414.540,0.000
-35943.380,-35656.750,-149230.900,-149164.600,-27332.750,-37476.390,-34911.700,-32385.460,0.000
-35914.300,-35625.760,-149155.400,-149087.700,-27344.040,-37445.380,-34916.130,-32355.830,0.000
-35884.090,-35594.820,-149079.200,-149009.900,-27354.170,-37413.920,-34920.820,-32325.140,0.000
-35851.630,-35563.160,-149002.300,-148931.400,-27363.200,-37381.830,-34925.330,-32294.030,0.000
-35817.450,-35530.460,-148925.200,-148852.700,-27372.620,-37349.340,-34930.210,-32263.630,0.000
-35783.700,-35497.470,-148848.300,-148774.100,-27382.280,-37316.570,-34934.280,-32234.150,0.000
-35751.750,-35465.450,-148771.000,-148695.300,-27393.900,-37284.980,-34939.210,-32206.370,0.000
-35720.820,-35433.860,-148692.600,-148615.300,-27405.330,-37253.930,-34943.750,-32178.470,0.000
-35690.700,-35403.180,-148613.200,-148534.200,-27416.550,-37224.270,-34948.730,-32150.120,0.000
-35660.250,-35372.460,-148533.000,-148452.200,-27428.660,-37195.580,-34954.890,-32121.280,0.000
-35628.460,-35340.160,-148451.500,-148369.100,-27439.700,-37165.160,-34959.600,-32090.910,0.000
-35596.200,-35308.130,-148369.100,-148285.300,-27451.000,-37133.660,-34964.230,-32060.320,0.000
-35563.700,-35277.300,-148286.700,-148201.500,-27461.750,-37101.300,-34967.700,-32029.120,0.000
-35532.070,-35248.600,-148204.300,-148117.600,-27472.800,-37069.440,-34970.760,-31997.900,0.000
-35501.900,-35221.310,-148121.500,-148033.300,-27485.250,-37038.150,-34974.370,-31967.050,0.000
-35471.610,-35192.320,-148037.400,-147947.900,-27496.180,-37004.590,-34975.120,-31934.490,0.000
-35439.510,-35160.330,-147951.800,-147860.800,-27505.890,-36969.200,-34973.610,-31900.560,0.000
-35405.050,-35125.250,-147865.300,-147772.700,-27514.710,-36933.730,-34970.640,-31866.590,0.000
-35370.230,-35089.690,-147778.700,-147684.500,-27525.330,-36901.360,-34969.180,-31835.240,0.000
-35336.430,-35055.130,-147692.500,-147596.800,-27539.010,-36873.010,-34970.450,-31806.910,0.000
-35303.640,-35020.910,-147606.000,-147508.900,-27552.670,-36845.470,-34971.630,-31779.350,0.000
-35272.330,-34988.260,-147518.800,-147420.200,-27566.730,-36817.790,-34973.660,-31752.520,0.000
-35241.590,-34956.540,-147430.000,-147330.100,-27579.140,-36789.050,-34973.980,-31724.560,0.000
-35210.340,-34925.160,-147340.000,-147238.800,-27590.080,-36759.610,-34972.480,-31695.020,0.000
-35177.970,-34894.340,-147249.600,-147146.800,-27602.420,-36730.410,-34972.920,-31665.420,0.000
-35144.320,-34863.300,-147159.100,-147054.700,-27615.880,-36700.750,-34975.540,-31635.820,0.000
-35110.590,-34831.800,-147068.400,-146962.400,-27631.070,-36671.260,-34980.730,-31606.700,0.000
-35077.570,-34799.210,-146977.000,-146869.500,-27645.510,-36641.080,-34985.400,-31577.400,0.000
-35045.720,-34766.540,-146885.000,-146776.100,-27659.350,-36610.090,-34989.610,-31548.870,0.000
-35014.450,-34734.260,-146792.600,-146682.300,-27673.780,-36578.230,-34994.560,-31520.950,0.000
-34981.960,-34701.180,-146699.500,-146587.800,-27686.900,-36545.010,-34997.560,-31491.170,0.000
-34947.580,-34667.870,-146605.500,-146492.500,-27700.770,-36512.250,-34999.670,-31460.000,0.000
-34912.390,-34634.680,-146511.200,-146396.800,-27715.680,-36479.900,-35001.100,-31428.140,0.000
-34878.100,-34601.610,-146416.300,-146300.700,-27732.100,-36448.090,-35003.650,-31397.180,0.000
-34844.320,-34568.010,-146320.700,-146203.900,-27749.860,-36416.680,-35008.630,-31367.400,0.000
-34810.440,-34534.330,-146224.500,-146106.400,-27767.320,-36386.090,-35015.080,-31338.100,0.000
-34776.910,-34502.300,-146128.100,-146008.800,-27787.420,-36358.960,-35025.640,-31310.750,0.000
-34742.790,-34469.910,-146031.500,-145910.700,-27808.520,-36332.830,-35037.450,-31283.330,0.000
-34707.610,-34435.700,-145933.500,-145811.000,-27828.480,-36304.620,-35047.590,-31253.990,0.000
-34671.590,-34400.310,-145833.500,-145709.300,-27846.920,-36273.590,-35055.480,-31222.680,0.000
-34635.870,-34365.020,-145732.400,-145606.600,-27862.780,-36240.260,-35060.040,-31189.740,0.000
-34601.910,-34331.850,-145631.100,-145504.000,-27879.990,-36207.430,-35065.790,-31158.160,0.000
-34568.590,-34299.320,-145530.300,-145402.000,-27899.260,-36174.480,-35073.640,-31128.380,0.000
-34535.160,-34266.470,-145429.900,-145300.500,-27920.350,-36141.340,-35083.610,-31100.250,0.000
-34501.540,-34233.390,-145329.300,-145198.800,-27942.650,-36108.910,-35095.490,-31072.980,0.000
-34467.050,-34199.410,-145227.800,-145096.100,-27963.520,-36076.180,-35106.450,-31044.810,0.000
-34430.990,-34164.600,-145125.000,-144991.900,-27983.720,-36042.820,-35116.950,-31015.890,0.000
-34393.010,-34128.280,-145021.000,-144886.500,-28001.390,-36007.770,-35124.920,-30984.900,0.000
-34354.800,-34091.570,-144916.300,-144780.200,-28017.580,-35972.570,-35131.440,-30952.640,0.000
-34317.810,-34055.540,-144811.700,-144674.100,-28034.840,-35938.380,-35139.140,-30920.750,0.000
-34282.860,-34020.210,-144707.600,-144568.700,-28052.550,-35904.660,-35147.510,-30889.890,0.000
-34250.540,-33986.680,-144603.600,-144463.500,-28072.530,-35872.600,-35158.430,-30861.400,0.000
-34219.460,-33954.360,-144498.500,-144357.300,-28093.320,-35841.210,-35170.020,-30833.220,0.000
-34187.900,-33921.840,-144391.700,-144249.400,-28113.980,-35809.610,-35181.260,-30804.040,0.000
-34154.170,-33887.090,-144283.700,-144140.200,-28134.090,-35777.020,-35192.180,-30773.610,0.000
-34117.890,-33849.680,-144174.800,-144030.000,-28152.780,-35742.780,-35201.780,-30741.930,0.000
-34080.660,-33811.720,-144065.600,-143919.400,-28173.220,-35708.070,-35212.780,-30710.860,0.000
-34043.750,-33774.210,-143956.300,-143808.600,-28194.710,-35672.450,-35223.950,-30679.630,0.000
-34008.260,-33738.460,-143847.000,-143698.000,-28217.100,-35637.480,-35235.410,-30648.480,0.000
-33973.530,-33703.990,-143737.400,-143587.300,-28240.620,-35603.910,-35247.850,-30617.570,0.000
-33938.820,-33669.700,-143627.400,-143476.100,-28263.850,-35570.210,-35259.710,-30586.020,0.000
-33904.150,-33635.770,-143517.100,-143364.400,-28288.750,-35536.450,-35273.000,-30554.670,0.000
-33867.780,-33599.910,-143405.900,-143252.000,-28312.670,-35500.680,-35285.360,-30522.100,0.000
-33829.700,-33562.610,-143293.400,-143138.300,-28334.830,-35463.540,-35296.520,-30489.310,0.000
-33791.090,-33526.030,-143180.400,-143024.200,-28357.580,-35427.020,-35309.000,-30458.180,0.000
-33752.390,-33490.500,-143067.100,-142909.800,-28380.790,-35391.050,-35322.360,-30427.600,0.000
-33714.340,-33455.750,-142953.700,-142795.100,-28405.940,-35356.110,-35337.970,-30397.240,0.000
-33677.270,-33419.980,-142840.300,-142680.500,-28431.330,-35321.100,-35353.770,-30365.650,0.000
-33641.680,-33383.590,-142726.800,-142565.700,-28457.130,-35286.720,-35369.660,-30333.110,0.000
-33606.270,-33346.900,-142612.400,-142450.000,-28483.520,-35252.980,-35385.720,-30299.900,0.000
-33569.690,-33309.900,-142496.900,-142333.100,-28508.450,-35218.410,-35399.780,-30265.720,0.000
-33532.550,-33274.580,-142380.900,-142215.700,-28534.290,-35184.070,-35414.690,-30232.950,0.000
-33494.840,-33240.610,-142264.700,-142098.200,-28560.520,-35149.440,-35430.200,-30201.590,0.000
-33456.490,-33207.210,-142148.300,-141980.700,-28587.120,-35114.790,-35446.360,-30170.970,0.000
-33417.080,-33172.930,-142031.500,-141862.800,-28614.190,-35080.040,-35463.010,-30139.620,0.000
-33377.360,-33137.060,-141914.000,-141744.300,-28639.830,-35044.930,-35477.770,-30106.350,0.000
-33338.990,-33101.370,-141796.000,-141625.300,-28666.020,-35011.270,-35492.860,-30073.140,0.000
-33301.820,-33065.810,-141677.500,-141505.700,-28692.520,-34978.060,-35507.980,-30040.380,0.000
-33265.680,-33030.820,-141558.300,-141385.300,-28720.270,-34944.910,-35523.970,-30008.840,0.000
-33229.680,-32995.730,-141438.300,-141264.200,-28749.630,-34911.140,-35541.130,-29977.900,0.000
-33192.300,-32958.090,-141317.700,-141142.300,-28777.300,-34874.840,-35556.280,-29945.080,0.000
-33153.290,-32918.020,-141196.400,-141019.900,-28803.440,-34837.360,-35570.790,-29911.050,0.000
-33112.880,-32876.730,-141074.900,-140897.100,-28827.620,-34799.340,-35584.830,-29876.060,0.000
-33072.410,-32836.800,-140953.200,-140774.200,-28852.500,-34761.760,-35600.360,-29841.450,0.000
-33033.440,-32799.820,-140831.500,-140651.300,-28881.180,-34725.410,-35619.480,-29809.060,0.000
-32995.930,-32764.310,-140709.500,-140528.300,-28911.530,-34689.510,-35639.980,-29778.340,0.000
-32958.420,-32728.070,-140587.000,-140404.800,-28941.770,-34653.810,-35660.710,-29747.730,0.000
-32919.960,-32690.000,-140463.500,-140280.200,-28969.290,-34616.810,-35678.750,-29714.910,0.000
-32881.200,-32651.870,-140339.000,-140154.700,-28995.510,-34579.140,-35694.660,-29680.660,0.000
-32841.590,-32613.530,-140213.900,-140028.500,-29021.310,-34541.260,-35709.080,-29645.100,0.000
-32800.720,-32574.080,-140088.500,-139902.100,-29045.450,-34503.100,-35721.200,-29607.950,0.000
-32759.560,-32535.260,-139963.200,-139775.900,-29071.980,-34466.760,-35735.600,-29572.340,0.000
-32718.080,-32496.830,-139838.100,-139649.700,-29100.730,-34431.170,-35752.290,-29538.410,0.000
-32677.130,-32458.360,-139712.800,-139523.200,-29130.450,-34395.730,-35770.200,-29505.460,0.000
-32637.290,-32419.550,-139586.600,-139396.000,-29160.490,-34359.820,-35788.440,-29472.360,0.000
-32597.930,-32379.940,-139459.300,-139267.600,-29188.710,-34321.770,-35804.550,-29437.710,0.000
-32558.770,-32340.340,-139331.300,-139138.500,-29216.880,-34282.600,-35820.510,-29402.910,0.000
-32519.450,-32299.770,-139202.900,-139009.100,-29244.090,-34242.090,-35835.510,-29367.300,0.000
-32480.410,-32258.280,-139074.200,-138879.400,-29270.420,-34200.620,-35849.870,-29330.790,0.000
-32441.570,-32216.930,-138945.400,-138749.500,-29297.300,-34159.160,-35864.420,-29294.180,0.000
-32402.760,-32176.560,-138816.700,-138619.500,-29324.820,-34118.840,-35878.210,-29257.940,0.000
-32364.420,-32138.380,-138687.600,-138489.100,-29355.100,-34081.210,-35893.580,-29223.300,0.000
-32325.880,-32101.020,-138557.800,-138358.000,-29385.430,-34043.730,-35908.330,-29188.440,0.000
-32287.190,-32063.270,-138427.500,-138226.500,-29414.070,-34005.420,-35921.400,-29152.950,0.000
-32247.490,-32023.960,-138297.100,-138095.000,-29441.190,-33966.030,-35933.320,-29116.920,0.000
-32205.600,-31982.470,-138166.000,-137962.900,-29466.590,-33924.690,-35943.520,-29079.650,0.000
-32162.950,-31941.090,-138034.400,-137830.300,-29494.320,-33883.800,-35955.710,-29043.470,0.000
-32120.320,-31899.940,-137902.400,-137697.500,-29523.560,-33843.410,-35968.880,-29008.180,0.000
-32077.620,-31858.600,-137770.200,-137564.400,-29553.190,-33803.250,-35982.320,-28973.520,0.000
-32034.710,-31817.200,-137637.400,-137430.700,-29583.420,-33762.850,-35996.430,-28939.540,0.000
-31991.880,-31775.840,-137503.800,-137296.200,-29611.980,-33720.840,-36008.940,-28904.910,0.000
-31950.520,-31736.160,-137369.500,-137161.000,-29639.990,-33679.260,-36021.930,-28870.830,0.000
-31910.760,-31697.770,-137235.000,-137025.600,-29666.800,-33638.970,-36035.310,-28837.320,0.000
-31872.190,-31659.980,-137100.400,-136890.000,-29693.860,-33600.690,-36049.970,-28804.600,0.000
-31834.300,-31622.420,-136965.600,-136754.200,-29722.950,-33564.380,-36066.650,-28772.300,0.000
-31795.950,-31584.280,-136830.400,-136617.900,-29751.710,-33527.540,-36082.390,-28738.040,0.000
-31756.510,-31545.340,-136694.500,-136480.900,-29780.020,-33489.290,-36097.160,-28701.480,0.000
-31716.160,-31504.730,-136557.800,-136343.300,-29806.570,-33448.790,-36109.340,-28662.770,0.000
-31675.630,-31463.580,-136420.500,-136205.300,-29832.770,-33407.580,-36120.600,-28624.090,0.000
-31634.500,-31422.810,-136283.100,-136067.100,-29860.190,-33367.150,-36133.270,-28586.900,0.000
-31592.800,-31382.400,-136145.400,-135928.500,-29887.210,-33327.370,-36145.960,-28550.390,0.000
-31551.250,-31342.480,-136007.200,-135789.400,-29914.580,-33288.460,-36159.730,-28514.450,0.000
-31509.560,-31301.540,-135868.700,-135649.900,-29940.780,-33248.610,-36173.090,-28478.030,0.000
-31468.690,-31261.010,-135730.100,-135510.300,-29966.740,-33208.620,-36186.730,-28442.360,0.000
-31429.630,-31222.280,-135591.800,-135370.800,-29994.020,-33169.920,-36201.770,-28408.360,0.000
-31392.570,-31184.550,-135453.500,-135231.600,-30021.990,-33132.630,-36216.770,-28375.370,0.000
-31356.430,-31147.290,-135315.000,-135092.200,-30051.930,-33096.780,-36232.790,-28343.110,0.000
-31318.490,-31108.630,-135175.800,-134951.900,-30081.030,-33059.320,-36247.300,-28308.830,0.000
-31277.510,-31068.150,-135035.600,-134810.900,-30108.320,-33019.480,-36259.590,-28272.150,0.000
-31233.990,-31026.540,-134894.800,-134669.400,-30134.520,-32978.450,-36270.500,-28234.460,0.000
-31190.260,-30985.410,-134753.700,-134527.400,-30159.630,-32937.550,-36279.920,-28197.050,0.000
-31147.650,-30945.380,-134611.900,-134384.800,-30185.670,-32897.980,-36289.960,-28160.810,0.000
-31105.240,-30904.590,-134469.600,-134241.600,-30210.960,-32857.930,-36298.510,-28123.470,0.000
-31064.880,-30865.060,-134327.800,-134098.900,-30237.540,-32818.790,-36307.570,-28086.340,0.000
-31027.260,-30827.340,-134186.300,-133956.500,-30266.600,-32780.710,-36319.170,-28050.530,0.000
-30989.600,-30788.440,-134044.300,-133813.500,-30293.720,-32740.350,-36329.390,-28013.650,0.000
-30950.840,-30748.920,-133901.800,-133670.000,-30320.050,-32698.930,-36339.170,-27976.880,0.000
-30911.100,-30709.830,-133759.000,-133526.300,-30346.390,-32657.790,-36349.070,-27941.150,0.000
-30869.680,-30670.610,-133615.400,-133381.800,-30373.090,-32616.710,-36359.650,-27905.890,0.000
-30825.940,-30629.640,-133470.700,-133236.500,-30400.070,-32574.630,-36370.850,-27869.700,0.000
-30781.850,-30587.400,-133325.900,-133090.900,-30426.240,-32531.870,-36381.340,-27832.210,0.000
-30739.010,-30545.710,-133181.200,-132945.400,-30453.390,-32490.630,-36392.610,-27794.590,0.000
-30695.480,-30502.860,-133036.300,-132799.600,-30478.570,-32448.760,-36401.360,-27754.970,0.000
-30651.020,-30459.030,-132890.900,-132653.200,-30500.780,-32405.360,-36407.500,-27714.430,0.000
-30607.120,-30416.040,-132745.100,-132506.500,-30522.700,-32361.710,-36415.020,-27676.130,0.000
-30564.210,-30373.730,-132599.100,-132359.700,-30545.100,-32318.160,-36424.780,-27640.230,0.000
-30521.910,-30331.820,-132452.900,-132212.600,-30569.650,-32275.700,-36437.510,-27606.080,0.000
-30479.480,-30289.620,-132306.200,-132065.200,-30594.290,-32233.460,-36449.890,-27571.490,0.000
-30437.390,-30247.910,-132159.100,-131917.400,-30618.620,-32191.590,-36460.740,-27535.990,0.000
-30396.120,-30207.000,-132011.800,-131769.300,-30643.100,-32150.090,-36470.060,-27499.390,0.000
-30355.220,-30165.910,-131864.300,-131621.100,-30666.000,-32107.800,-36476.360,-27461.210,0.000
-30314.780,-30124.940,-131716.800,-131472.800,-30689.240,-32065.920,-36482.760,-27423.520,0.000
-30274.680,-30083.600,-131569.100,-131324.300,-30712.110,-32024.310,-36489.160,-27386.230,0.000
-30234.280,-30041.810,-131421.200,-131175.600,-30734.460,-31983.030,-36495.550,-27348.820,0.000
-30192.460,-29999.300,-131273.100,-131026.600,-30756.690,-31941.320,-36502.260,-27310.400,0.000
-30149.610,-29956.080,-131124.500,-130877.200,-30777.440,-31897.710,-36507.180,-27270.050,0.000
-30107.090,-29912.980,-130975.200,-130727.100,-30797.950,-31853.080,-36511.000,-27229.210,0.000
-30064.950,-29869.480,-130825.300,-130576.300,-30817.000,-31807.330,-36512.740,-27187.950,0.000
-30024.850,-29827.790,-130675.200,-130425.400,-30836.580,-31763.110,-36514.990,-27148.330,0.000
-29986.700,-29788.080,-130525.300,-130274.700,-30857.820,-31721.260,-36519.060,-27110.500,0.000
-29947.770,-29747.220,-130375.100,-130123.800,-30877.500,-31678.840,-36521.660,-27071.380,0.000
-29907.360,-29705.230,-130224.300,-129972.300,-30896.270,-31635.910,-36524.040,-27030.970,0.000
-29865.970,-29663.240,-130072.600,-129819.900,-30913.560,-31592.380,-36526.060,-26989.260,0.000
-29824.370,-29622.530,-129920.900,-129667.400,-30930.360,-31549.010,-36528.150,-26947.240,0.000
-29781.550,-29581.380,-129768.900,-129514.400,-30946.210,-31505.270,-36528.680,-26904.700,0.000
-29737.570,-29537.970,-129616.200,-129360.700,-30958.900,-31459.810,-36525.290,-26861.180,0.000
-29694.900,-29494.680,-129463.400,-129207.000,-30971.740,-31414.040,-36521.980,-26819.170,0.000
-29653.100,-29451.770,-129310.900,-129053.600,-30984.670,-31367.200,-36518.600,-26778.270,0.000
-29610.900,-29408.520,-129157.900,-128899.900,-30997.330,-31319.770,-36515.110,-26737.950,0.000
-29568.040,-29364.380,-129004.300,-128745.700,-31009.730,-31272.950,-36512.140,-26697.860,0.000
-29524.630,-29318.990,-128850.300,-128591.200,-31020.440,-31226.770,-36508.000,-26657.350,0.000
-29481.090,-29273.520,-128696.600,-128436.800,-31030.940,-31181.910,-36503.640,-26617.270,0.000
-29437.100,-29228.140,-128542.900,-128282.400,-31039.170,-31136.560,-36496.630,-26575.990,0.000
-29393.130,-29183.850,-128388.800,-128127.600,-31045.210,-31090.710,-36486.800,-26533.280,0.000
-29349.500,-29140.670,-128234.400,-127972.400,-31050.280,-31044.740,-36475.070,-26489.720,0.000
-29305.870,-29097.400,-128079.500,-127816.800,-31053.290,-30997.500,-36460.340,-26445.260,0.000
-29262.250,-29054.330,-127924.400,-127661.000,-31056.590,-30950.090,-36445.290,-26401.930,0.000
-29218.880,-29011.240,-127769.200,-127505.100,-31060.100,-30902.540,-36429.950,-26360.270,0.000
-29176.040,-28967.960,-127613.600,-127348.900,-31063.350,-30854.920,-36414.270,-26319.830,0.000
-29133.290,-28924.100,-127457.300,-127191.800,-31064.760,-30806.950,-36397.520,-26279.020,0.000
-29090.410,-28880.350,-127300.400,-127034.100,-31062.470,-30758.460,-36378.800,-26237.240,0.000
-29047.220,-28837.780,-127143.600,-126876.600,-31059.180,-30710.910,-36360.560,-26195.660,0.000
-29003.170,-28794.650,-126987.200,-126719.700,-31054.770,-30663.470,-36340.490,-26152.700,0.000
-28958.950,-28750.510,-126830.900,-126562.900,-31050.400,-30616.420,-36318.860,-26108.380,0.000
-28914.620,-28705.300,-126674.100,-126405.600,-31046.130,-30569.950,-36296.900,-26063.330,0.000
-28869.850,-28658.530,-126516.800,-126247.700,-31038.970,-30522.690,-36272.270,-26017.100,0.000
-28825.240,-28611.480,-126358.800,-126089.100,-31029.860,-30474.860,-36245.580,-25970.730,0.000
-28781.050,-28564.710,-126200.400,-125930.000,-31018.130,-30426.020,-36215.630,-25924.010,0.000
-28738.020,-28519.180,-126041.900,-125770.700,-31005.400,-30377.400,-36184.090,-25878.280,0.000
-28695.690,-28474.170,-125883.300,-125611.400,-30992.820,-30329.030,-36152.820,-25833.650,0.000
-28653.160,-28428.890,-125724.700,-125452.100,-30978.820,-30279.740,-36120.950,-25788.830,0.000
-28610.560,-28384.840,-125566.200,-125293.100,-30965.450,-30230.920,-36090.350,-25745.260,0.000
-28567.000,-28340.620,-125407.500,-125133.900,-30951.300,-30181.490,-36057.500,-25701.790,0.000
-28523.100,-28295.730,-125248.400,-124974.300,-30936.860,-30131.980,-36020.610,-25658.270,0.000
-28479.900,-28251.380,-125089.300,-124814.600,-30922.710,-30083.330,-35980.900,-25615.350,0.000
-28436.960,-28207.320,-124929.800,-124654.400,-30906.210,-30034.320,-35938.690,-25572.440,0.000
-28394.180,-28163.400,-124770.000,-124493.900,-30888.380,-29985.520,-35897.830,-25530.420,0.000
-28351.000,-28118.160,-124610.000,-124333.400,-30867.070,-29936.010,-35857.440,-25487.640,0.000
-28306.880,-28071.780,-124449.700,-124172.600,-30841.720,-29885.510,-35816.910,-25443.710,0.000
-28261.350,-28025.830,-124289.200,-124011.400,-30814.330,-29834.600,-35776.720,-25399.370,0.000
-28215.300,-27981.270,-124128.400,-123849.800,-30786.280,-29784.210,-35735.660,-25354.480,0.000
-28170.700,-27938.470,-123967.500,-123687.900,-30761.220,-29736.090,-35695.470,-25310.080,0.000
-28127.190,-27895.190,-123806.100,-123525.800,-30737.320,-29688.670,-35654.530,-25265.300,0.000
-28083.540,-27850.280,-123644.500,-123363.700,-30712.530,-29641.070,-35612.450,-25220.190,0.000
-28039.140,-27804.050,-123483.100,-123201.800,-30686.100,-29592.800,-35568.950,-25174.820,0.000
-27994.770,-27758.200,-123321.900,-123040.200,-30657.380,-29543.680,-35522.860,-25129.190,0.000
-27951.220,-27714.600,-123160.600,-122878.500,-30628.690,-29495.290,-35476.340,-25084.420,0.000
-27907.600,-27671.150,-122998.500,-122715.800,-30597.780,-29446.560,-35427.100,-25038.470,0.000
-27864.140,-27627.390,-122835.600,-122552.400,-30565.420,-29397.730,-35376.290,-24991.880,0.000
-27820.880,-27583.710,-122672.600,-122388.800,-30533.780,-29349.050,-35326.250,-24945.930,0.000
-27777.230,-27539.200,-122509.700,-122225.300,-30500.880,-29299.690,-35274.700,-24899.810,0.000
-27733.460,-27494.400,-122346.500,-122061.500,-30467.080,-29250.640,-35222.520,-24854.600,0.000
-27689.630,-27449.550,-122183.000,-121897.400,-30431.810,-29201.050,-35169.820,-24809.990,0.000
-27646.100,-27405.540,-122019.500,-121733.300,-30397.070,-29151.400,-35118.680,-24766.040,0.000
-27602.090,-27361.670,-121855.900,-121569.200,-30363.380,-29102.060,-35068.820,-24721.830,0.000
-27556.410,-27316.320,-121692.000,-121404.900,-30327.790,-29052.000,-35016.580,-24675.430,0.000
-27509.500,-27270.180,-121527.600,-121239.900,-30291.480,-29002.050,-34963.380,-24627.560,0.000
-27462.570,-27224.020,-121362.900,-121074.600,-30254.460,-28952.260,-34909.210,-24578.770,0.000
-27417.520,-27178.820,-121198.000,-120909.200,-30218.250,-28903.460,-34855.440,-24530.940,0.000
-27374.360,-27133.820,-121033.100,-120743.800,-30183.210,-28854.550,-34802.550,-24484.310,0.000
-27331.230,-27087.980,-120868.500,-120578.600,-30147.630,-28803.690,-34749.040,-24437.540,0.000
-27286.200,-27041.800,-120704.000,-120413.400,-30113.030,-28752.390,-34697.310,-24391.610,0.000
-27238.730,-26995.210,-120539.300,-120248.100,-30077.300,-28700.880,-34645.840,-24345.540,0.000
-27190.480,-26949.300,-120374.100,-120082.300,-30040.130,-28649.770,-34593.950,-24298.970,0.000
-27142.010,-26903.080,-120208.200,-119915.900,-30002.340,-28598.460,-34541.540,-24251.690,0.000
-27093.560,-26854.700,-120041.800,-119749.100,-29963.590,-28545.980,-34488.100,-24203.650,0.000
-27046.170,-26805.200,-119875.400,-119582.300,-29926.290,-28493.850,-34436.950,-24156.810,0.000
-27000.400,-26756.020,-119709.000,-119415.400,-29889.070,-28442.410,-34387.510,-24111.110,0.000
-26957.290,-26709.730,-119542.500,-119248.300,-29852.920,-28393.650,-34340.870,-24067.880,0.000
-26915.790,-26666.210,-119375.700,-119081.000,-29819.090,-28347.470,-34297.350,-24026.990,0.000
-26873.230,-26622.570,-119208.300,-118913.200,-29784.630,-28300.710,-34252.950,-23985.490,0.000
-26828.790,-26578.290,-119040.400,-118745.000,-29749.660,-28252.820,-34207.510,-23942.900,0.000
-26783.050,-26534.120,-118872.700,-118576.900,-29714.070,-28204.110,-34160.620,-23899.440,0.000
-26736.760,-26491.330,-118705.300,-118409.100,-29679.730,-28156.490,-34113.990,-23856.770,0.000
-26690.220,-26449.070,-118538.200,-118241.500,-29647.090,-28110.160,-34068.290,-23815.310,0.000
-26645.440,-26406.770,-118371.300,-118074.100,-29614.730,-28063.960,-34022.470,-23774.590,0.000
-26604.330,-26365.570,-118204.600,-117906.900,-29584.830,-28019.100,-33978.640,-23735.420,0.000
-26564.570,-26323.460,-118037.800,-117739.500,-29555.040,-27974.520,-33933.920,-23695.310,0.000
-26523.380,-26279.450,-117870.700,-117571.900,-29524.100,-27930.000,-33887.610,-23653.710,0.000
-26480.390,-26235.080,-117703.500,-117404.200,-29493.560,-27886.600,-33842.390,-23612.890,0.000
-26436.550,-26191.550,-117536.400,-117236.700,-29463.430,-27844.340,-33798.860,-23574.060,0.000
-26392.590,-26148.690,-117369.000,-117069.000,-29435.120,-27802.400,-33758.650,-23537.510,0.000
-26348.100,-26104.100,-117200.700,-116900.400,-29405.310,-27757.430,-33718.320,-23500.220,0.000
-26303.400,-26057.930,-117031.300,-116730.600,-29372.160,-27709.970,-33675.300,-23460.870,0.000
-26259.020,-26012.020,-116861.500,-116560.200,-29338.120,-27663.160,-33630.640,-23420.920,0.000
-26215.280,-25967.280,-116692.000,-116390.200,-29304.950,-27618.510,-33585.480,-23381.660,0.000
-26171.340,-25923.300,-116522.900,-116220.600,-29273.870,-27575.780,-33541.810,-23343.170,0.000
-26125.730,-25878.430,-116353.900,-116051.100,-29242.890,-27532.340,-33498.500,-23304.100,0.000
-26079.450,-25834.010,-116185.200,-115881.900,-29213.230,-27488.660,-33457.880,-23266.140,0.000
-26032.790,-25790.220,-116016.200,-115712.400,-29184.620,-27444.270,-33419.720,-23228.680,0.000
-25986.560,-25746.860,-115846.600,-115542.400,-29154.750,-27399.130,-33380.230,-23189.830,0.000
-25942.750,-25705.260,-115677.100,-115372.600,-29125.990,-27356.650,-33340.580,-23151.240,0.000
-25899.600,-25662.810,-115507.900,-115202.900,-29096.710,-27314.990,-33299.020,-23112.110,0.000
-25855.550,-25618.510,-115338.100,-115032.800,-29067.170,-27272.040,-33256.810,-23072.790,0.000
-25811.270,-25573.810,-115167.900,-114862.300,-29038.680,-27227.800,-33215.810,-23033.930,0.000
-25767.490,-25529.640,-114997.400,-114691.400,-29010.110,-27182.470,-33174.540,-22994.980,0.000
-25723.990,-25486.590,-114826.700,-114520.400,-28983.070,-27137.570,-33134.760,-22957.020,0.000
-25679.750,-25443.660,-114656.100,-114349.500,-28956.480,-27092.660,-33095.760,-22919.300,0.000
-25634.870,-25400.450,-114485.800,-114178.800,-28930.690,-27048.150,-33058.270,-22881.730,0.000
-25588.990,-25355.540,-114315.800,-114008.400,-28905.290,-27003.410,-33021.690,-22843.340,0.000
-25542.290,-25308.710,-114145.600,-113837.800,-28878.070,-26957.550,-32983.030,-22802.890,0.000
-25496.070,-25262.540,-113975.000,-113666.600,-28851.860,-26912.730,-32944.480,-22762.610,0.000
-25450.160,-25217.070,-113804.000,-113495.000,-28826.700,-26868.120,-32905.820,-22722.880,0.000
-25405.040,-25172.850,-113632.900,-113323.400,-28803.160,-26824.050,-32868.960,-22684.480,0.000
-25362.210,-25131.040,-113462.000,-113152.000,-28782.540,-26782.300,-32836.520,-22648.390,0.000
-25321.060,-25090.380,-113291.100,-112980.800,-28762.700,-26741.420,-32805.910,-22612.790,0.000
-25279.150,-25049.110,-113119.600,-112808.900,-28742.920,-26700.050,-32775.820,-22576.240,0.000
-25235.070,-25006.520,-112947.200,-112636.300,-28721.340,-26657.380,-32744.280,-22537.880,0.000
-25190.420,-24964.210,-112774.600,-112463.500,-28698.980,-26614.840,-32712.820,-22499.420,0.000
-25146.310,-24922.070,-112602.000,-112290.600,-28676.950,-26572.540,-32682.560,-22461.530,0.000
-25101.670,-24878.760,-112429.400,-112117.700,-28654.030,-26528.910,-32651.330,-22422.980,0.000
-25055.310,-24834.560,-112256.800,-111944.700,-28632.260,-26484.260,-32620.500,-22384.210,0.000
-25007.280,-24789.160,-112084.500,-111772.100,-28611.710,-26438.570,-32589.790,-22344.820,0.000
-24959.260,-24743.840,-111912.700,-111600.000,-28593.540,-26393.980,-32560.660,-22305.850,0.000
-24912.470,-24700.110,-111741.300,-111428.300,-28577.430,-26351.440,-32533.720,-22268.010,0.000
-24867.440,-24658.260,-111569.900,-111256.500,-28560.570,-26310.010,-32507.200,-22230.810,0.000
-24823.920,-24617.530,-111398.700,-111084.800,-28544.260,-26269.890,-32482.580,-22194.650,0.000
-24780.390,-24575.020,-111227.500,-110913.200,-28527.250,-26228.400,-32457.230,-22157.250,0.000
-24736.070,-24530.300,-111055.400,-110740.800,-28509.570,-26184.050,-32429.710,-22117.580,0.000
-24690.090,-24484.350,-110882.300,-110567.600,-28492.100,-26137.360,-32400.510,-22076.230,0.000
-24642.940,-24437.960,-110708.700,-110393.800,-28473.990,-26089.830,-32369.850,-22034.250,0.000
-24597.070,-24393.050,-110534.700,-110219.500,-28457.320,-26044.290,-32341.370,-21993.830,0.000
-24553.370,-24350.070,-110360.600,-110045.200,-28441.480,-26000.160,-32314.440,-21954.120,0.000
-24510.750,-24308.260,-110186.800,-109871.000,-28426.720,-25956.580,-32288.440,-21914.410,0.000
-24466.620,-24264.860,-110012.800,-109696.600,-28412.460,-25912.120,-32262.440,-21874.020,0.000
-24420.280,-24219.360,-109838.900,-109522.300,-28397.200,-25866.080,-32235.460,-21832.810,0.000
-24373.690,-24174.530,-109665.200,-109348.300,-28383.610,-25820.740,-32210.460,-21792.860,0.000
-24327.600,-24130.130,-109491.800,-109174.700,-28370.350,-25775.420,-32185.640,-21753.760,0.000
-24281.880,-24085.380,-109318.200,-109000.800,-28356.830,-25729.700,-32161.010,-21715.580,0.000
-24236.230,-24039.970,-109144.400,-108826.800,-28343.670,-25684.010,-32137.330,-21677.790,0.000
-24191.450,-23995.020,-108970.900,-108652.900,-28330.730,-25639.030,-32113.370,-21639.570,0.000
-24147.920,-23951.900,-108797.800,-108479.300,-28320.340,-25595.880,-32091.530,-21602.440,0.000
-24104.270,-23908.530,-108624.600,-108305.600,-28310.650,-25552.260,-32070.380,-21565.400,0.000
-24060.330,-23864.240,-108451.000,-108131.600,-28301.010,-25507.890,-32049.370,-21528.010,0.000
-24015.970,-23819.190,-108276.900,-107957.300,-28291.310,-25462.930,-32028.430,-21490.080,0.000
-23970.960,-23773.750,-108102.600,-107782.800,-28280.180,-25416.520,-32006.160,-21450.740,0.000
-23925.500,-23729.160,-107928.300,-107608.300,-28269.890,-25370.180,-31984.910,-21410.830,0.000
-23879.500,-23684.480,-107753.800,-107433.600,-28259.480,-25324.060,-31963.320,-21369.910,0.000
-23834.290,-23640.340,-107579.000,-107258.800,-28249.370,-25279.170,-31941.560,-21329.180,0.000
-23790.530,-23597.200,-107404.200,-107083.600,-28240.260,-25235.040,-31920.480,-21289.450,0.000
-23747.680,-23554.180,-107229.300,-106908.200,-28230.330,-25189.870,-31899.020,-21249.670,0.000
-23705.870,-23512.230,-107054.500,-106733.000,-28221.340,-25145.420,-31879.700,-21210.680,0.000
-23664.610,-23470.720,-106880.100,-106558.300,-28213.110,-25102.190,-31861.410,-21172.290,0.000
-23623.080,-23428.560,-106706.100,-106384.000,-28206.030,-25059.690,-31843.410,-21134.560,0.000
-23579.850,-23384.640,-106531.900,-106209.700,-28199.770,-25016.560,-31825.250,-21096.590,0.000
-23534.490,-23338.460,-106357.100,-106034.800,-28192.620,-24972.240,-31805.410,-21057.330,0.000
-23488.470,-23291.950,-106182.100,-105859.600,-28186.110,-24928.470,-31785.750,-21018.310,0.000
-23442.470,-23246.240,-106007.200,-105684.400,-28178.790,-24884.600,-31765.150,-20979.230,0.000
-23396.430,-23202.150,-105832.300,-105509.300,-28170.900,-24841.000,-31744.220,-20939.670,0.000
-23350.880,-23159.600,-105657.400,-105334.100,-28163.660,-24798.360,-31724.210,-20899.730,0.000
-23307.150,-23118.200,-105482.200,-105158.800,-28157.280,-24756.570,-31705.140,-20860.520,0.000
-23264.510,-23077.290,-105306.400,-104982.900,-28153.300,-24715.620,-31689.080,-20823.080,0.000
-23221.110,-23035.240,-105130.200,-104806.600,-28149.020,-24673.810,-31673.710,-20785.530,0.000
-23177.880,-22993.290,-104954.500,-104630.600,-28144.550,-24631.980,-31659.230,-20748.480,0.000
-23134.910,-22951.650,-104779.400,-104455.300,-28140.740,-24589.930,-31645.940,-20711.990,0.000
-23091.480,-22909.340,-104604.500,-104280.100,-28136.620,-24546.550,-31632.090,-20674.660,0.000
-23047.970,-22867.080,-104429.800,-104105.200,-28134.200,-24502.690,-31619.560,-20637.360,0.000
-23004.280,-22824.720,-104254.800,-103930.100,-28132.000,-24457.450,-31606.540,-20599.120,0.000
-22961.910,-22783.790,-104079.300,-103754.400,-28130.450,-24413.100,-31593.610,-20560.940,0.000
-22921.430,-22744.560,-103904.100,-103578.800,-28130.430,-24371.440,-31581.880,-20523.830,0.000
-22881.120,-22705.270,-103729.200,-103403.600,-28130.210,-24330.310,-31569.260,-20486.430,0.000
-22839.870,-22665.310,-103554.400,-103228.600,-28130.380,-24288.670,-31556.610,-20448.950,0.000
-22797.360,-22623.750,-103379.400,-103053.500,-28129.250,-24245.720,-31543.030,-20410.970,0.000
-22754.130,-22581.080,-103204.400,-102878.300,-28127.330,-24201.990,-31529.660,-20372.860,0.000
-22709.560,-22537.280,-103028.900,-102702.600,-28125.580,-24157.520,-31516.800,-20334.550,0.000
