EEG 1, EEG 2, EEG 3, EEG 4, EEG 5, EEG 6, EEG 7, EEG 8, ACC X, ACC Y, ACC Z, GYR X, GYR Y, GYR Z, BAT, CNT, VALID, DT, TRIG
182967.200,174089.500,218601.800,680789.400,217885.600,211882.600,190976.700,206383.800,-0.184,0.898,-0.293,0.000,0.000,0.000,66.667,1.000,1.000,0.000,0.000
178307.200,169672.500,212861.100,652332.100,212454.500,206535.300,186203.700,201317.100,-0.184,0.926,-0.311,0.000,0.000,0.000,66.667,2.000,1.000,18.173,0.000
174249.800,165824.600,207898.700,629524.100,207716.400,201885.300,182039.100,196853.900,-0.188,0.935,-0.315,-0.031,0.000,-0.031,66.667,3.000,1.000,2.269,0.000
170648.300,162407.100,203508.200,610215.600,203108.300,197487.200,178064.200,192503.600,-0.189,0.940,-0.322,-4.547,6.287,-6.805,66.667,4.000,1.000,2.610,0.000
167439.500,159358.600,199608.600,593711.700,198860.900,193466.300,174408.800,188505.800,-0.184,0.945,-0.322,-0.946,0.610,-0.977,66.667,5.000,1.000,3.706,0.000
164567.200,156628.500,196129.800,579786.200,195358.800,190058.300,171334.200,185233.300,-0.177,0.944,-0.327,-0.854,-0.549,-0.183,66.667,6.000,1.000,3.708,0.000
161977.000,154170.600,192999.200,567905.200,192517.400,187208.800,168792.800,182571.600,-0.172,0.947,-0.330,-1.068,-1.251,0.000,66.667,7.000,1.000,13.872,0.000
159618.400,151931.400,190152.600,557334.000,189899.400,184608.000,166468.600,180082.000,-0.165,0.947,-0.329,-1.434,-1.587,0.153,66.667,8.000,1.000,2.977,0.000
157448.100,149869.900,187533.000,547496.500,187108.100,181956.600,164060.800,177421.400,-0.163,0.952,-0.329,-1.831,-1.862,0.336,66.667,9.000,1.000,0.015,0.000
155468.500,147991.400,185143.000,538543.800,184416.400,179425.900,161760.400,174892.200,-0.161,0.950,-0.329,-2.228,-2.045,0.244,66.667,10.000,1.000,1.943,0.000
153656.600,146266.200,182957.800,530742.800,182223.700,177289.900,159836.000,172849.500,-0.154,0.947,-0.338,-2.808,-2.075,0.305,66.667,11.000,1.000,2.447,0.000
151991.400,144672.600,180943.200,523906.100,180487.800,175517.700,158256.300,171210.500,-0.156,0.942,-0.337,-2.899,-2.136,0.458,66.667,12.000,1.000,3.751,0.000
150392.000,143139.900,179022.600,517535.400,178786.100,173806.100,156735.500,169584.100,-0.152,0.938,-0.339,-3.265,-2.167,0.305,66.667,13.000,1.000,14.384,0.000
148927.300,141742.500,177259.300,511348.800,176861.400,171996.100,155095.100,167751.500,-0.153,0.937,-0.334,-3.296,-1.984,0.458,66.667,14.000,1.000,0.016,0.000
147577.200,140457.300,175631.300,505548.800,174948.800,170218.600,153466.500,165935.200,-0.154,0.927,-0.335,-3.479,-2.045,0.549,66.667,15.000,1.000,2.397,0.000
146320.800,139261.300,174122.300,500471.200,173433.100,168735.900,152135.600,164529.700,-0.159,0.920,-0.336,-3.540,-1.831,0.671,66.667,16.000,1.000,0.008,0.000
145152.100,138150.700,172723.700,496021.800,172304.600,167559.100,151103.400,163479.100,-0.168,0.913,-0.333,-3.296,-1.923,0.824,66.667,17.000,1.000,16.426,0.000
144036.600,137089.400,171392.200,491798.600,171181.600,166417.300,150091.300,162401.100,-0.172,0.906,-0.334,-3.418,-2.106,0.610,66.667,18.000,1.000,0.012,0.000
142982.700,136085.400,170130.400,487504.900,169760.100,165085.800,148876.000,161026.300,-0.179,0.904,-0.335,-2.930,-2.167,0.641,66.667,19.000,1.000,1.705,0.000
142023.700,135179.700,168979.200,483430.300,168334.800,163775.600,147667.800,159667.500,-0.182,0.898,-0.338,-2.808,-2.502,0.519,66.667,20.000,1.000,3.259,0.000
141126.800,134336.300,167906.100,479906.400,167263.600,162727.200,146714.200,158677.800,-0.188,0.897,-0.337,-2.502,-2.655,0.610,66.667,21.000,1.000,0.013,0.000
140250.600,133505.900,166864.400,476815.600,166487.700,161887.700,145976.900,157957.000,-0.189,0.898,-0.336,-2.197,-3.235,0.397,66.667,22.000,1.000,1.788,0.000
139432.800,132734.800,165891.600,473850.700,165719.200,161092.800,145277.400,157212.200,-0.188,0.903,-0.337,-1.953,-3.601,0.397,66.667,23.000,1.000,3.777,0.000
138706.200,132050.000,165014.600,470771.900,164691.500,160153.300,144422.900,156217.700,-0.191,0.907,-0.336,-1.556,-3.998,0.458,66.667,24.000,1.000,9.377,0.000
137988.000,131367.800,164153.500,467747.100,163561.300,159133.200,143480.000,155151.300,-0.187,0.914,-0.335,-1.617,-4.364,0.336,66.667,25.000,1.000,0.019,0.000
137299.200,130708.900,163332.800,465158.600,162740.000,158321.300,142748.900,154398.600,-0.189,0.919,-0.331,-1.343,-4.791,0.488,66.667,26.000,1.000,8.067,0.000
136659.000,130089.300,162569.400,462967.200,162230.000,157744.100,142253.600,153927.000,-0.184,0.920,-0.333,-1.678,-5.096,0.427,66.667,27.000,1.000,2.491,0.000
136048.900,129501.800,161839.400,460827.600,161690.700,157171.800,141756.400,153398.900,-0.185,0.927,-0.328,-1.740,-5.341,0.671,66.667,28.000,1.000,2.526,0.000
135473.800,128955.800,161148.100,458475.300,160847.400,156410.000,141057.900,152579.700,-0.182,0.931,-0.325,-2.014,-5.615,0.488,66.667,29.000,1.000,2.563,0.000
134934.300,128445.900,160499.600,456169.500,159937.900,155607.100,140315.000,151719.400,-0.181,0.941,-0.323,-2.319,-5.676,0.641,66.667,30.000,1.000,3.677,0.000
134438.900,127975.200,159903.600,454273.800,159341.800,155020.900,139783.900,151184.700,-0.181,0.946,-0.320,-2.808,-5.920,0.580,66.667,31.000,1.000,6.889,0.000
133976.600,127538.900,159345.500,452711.600,159031.200,154645.700,139467.800,150906.700,-0.173,0.947,-0.317,-3.632,-6.042,0.488,66.667,32.000,1.000,0.024,0.000
133538.200,127117.000,158816.800,451161.900,158684.800,154262.600,139139.400,150568.800,-0.172,0.948,-0.315,-4.150,-6.012,0.488,66.667,33.000,1.000,8.092,0.000
133094.100,126691.000,158284.300,449341.500,157995.400,153643.800,138568.000,149890.700,-0.164,0.943,-0.317,-5.005,-5.920,0.366,66.667,34.000,1.000,4.993,0.000
132697.100,126321.300,157809.000,447558.100,157260.600,153014.200,137976.800,149197.800,-0.164,0.944,-0.316,-5.310,-5.615,0.549,66.667,35.000,1.000,2.446,0.000
132305.700,125952.000,157345.900,446117.100,156798.300,152559.700,137553.900,148780.700,-0.152,0.941,-0.319,-5.829,-5.280,0.366,66.667,36.000,1.000,2.554,0.000
131906.500,125567.300,156876.700,444943.500,156573.200,152261.700,137307.600,148577.100,-0.149,0.938,-0.316,-6.256,-4.883,0.488,66.667,37.000,1.000,3.702,0.000
131550.900,125228.700,156452.900,443781.200,156334.300,151986.300,137078.200,148337.800,-0.144,0.929,-0.313,-6.592,-4.303,0.549,66.667,38.000,1.000,11.922,0.000
131220.800,124910.400,156054.000,442365.000,155784.000,151502.900,136632.000,147799.700,-0.138,0.923,-0.314,-7.019,-3.754,0.732,66.667,39.000,1.000,0.014,0.000
130922.800,124622.300,155687.600,440952.700,155161.600,150959.000,136125.500,147213.300,-0.138,0.917,-0.309,-6.958,-3.113,0.977,66.667,40.000,1.000,1.791,0.000
130614.500,124330.100,155320.800,439841.000,154792.400,150596.100,135789.200,146878.400,-0.139,0.910,-0.309,-7.141,-2.319,0.977,66.667,41.000,1.000,2.527,0.000
130318.400,124048.300,154972.200,439003.900,154676.000,150411.200,135627.800,146770.900,-0.146,0.907,-0.307,-6.927,-1.678,1.038,66.667,42.000,1.000,8.786,0.000
130073.400,123814.100,154678.200,438181.300,154560.600,150253.700,135499.500,146646.800,-0.145,0.903,-0.309,-7.080,-1.068,1.007,66.667,43.000,1.000,2.471,0.000
129867.600,123628.200,154423.500,437109.200,154155.300,149919.500,135190.300,146244.900,-0.147,0.904,-0.304,-6.927,-0.336,1.099,66.667,44.000,1.000,3.017,0.000
129630.900,123410.800,154141.100,435968.600,153622.600,149481.800,134772.900,145739.300,-0.147,0.906,-0.303,-7.141,0.244,0.946,66.667,45.000,1.000,0.007,0.000
129378.700,123172.500,153846.400,435115.900,153333.800,149196.800,134506.500,145486.100,-0.151,0.912,-0.299,-7.141,0.854,1.068,66.667,46.000,1.000,1.927,0.000
129159.600,122963.100,153586.500,434537.300,153312.600,149104.100,134441.200,145475.500,-0.152,0.919,-0.299,-7.233,1.312,1.068,66.667,47.000,1.000,7.590,0.000
128958.600,122773.000,153344.100,433921.200,153248.700,148997.500,134363.000,145399.300,-0.153,0.933,-0.298,-7.446,1.862,1.251,66.667,48.000,1.000,6.878,0.000
128761.700,122582.800,153107.000,433021.700,152864.300,148677.700,134068.500,145019.600,-0.159,0.943,-0.295,-7.599,2.197,1.312,66.667,49.000,1.000,0.020,0.000
128590.200,122415.000,152896.500,432097.100,152400.700,148305.500,133714.600,144589.000,-0.153,0.951,-0.299,-8.331,2.716,1.312,66.667,50.000,1.000,1.819,0.000
128441.100,122267.300,152710.300,431483.200,152212.500,148108.800,133544.100,144445.100,-0.152,0.957,-0.298,-8.545,3.326,1.495,66.667,51.000,1.000,11.253,0.000
128274.100,122104.200,152512.000,431094.800,152246.200,148070.500,133538.400,144491.200,-0.144,0.953,-0.298,-9.125,3.510,1.434,66.667,52.000,1.000,6.876,0.000
128115.300,121956.000,152324.100,430658.300,152239.800,148026.200,133506.300,144459.500,-0.137,0.957,-0.301,-9.430,4.211,1.587,66.667,53.000,1.000,0.085,0.000
127966.500,121811.000,152141.500,429922.300,151895.900,147735.200,133227.600,144110.600,-0.132,0.953,-0.299,-9.644,4.730,1.556,66.667,54.000,1.000,6.639,0.000
127831.800,121677.600,151972.900,429164.200,151488.900,147403.100,132910.000,143719.200,-0.122,0.950,-0.296,-9.888,5.554,1.495,66.667,55.000,1.000,2.600,0.000
127698.700,121546.000,151813.300,428676.600,151318.900,147231.500,132756.000,143589.200,-0.118,0.947,-0.288,-9.766,6.439,1.587,66.667,56.000,1.000,2.461,0.000
127584.300,121431.000,151676.800,428417.600,151380.700,147218.400,132767.800,143673.400,-0.112,0.947,-0.286,-9.827,7.324,1.526,66.667,57.000,1.000,2.521,0.000
127450.500,121305.700,151523.400,428108.200,151418.200,147212.700,132766.700,143680.100,-0.115,0.948,-0.279,-9.644,8.453,1.587,66.667,58.000,1.000,2.522,0.000
127322.500,121188.600,151372.200,427512.000,151140.600,146986.900,132553.800,143388.200,-0.114,0.946,-0.279,-9.888,9.460,1.587,66.667,59.000,1.000,8.732,0.000
127245.200,121123.400,151272.700,426898.000,150799.800,146730.500,132298.100,143062.300,-0.117,0.945,-0.278,-9.979,10.590,1.434,66.667,60.000,1.000,3.075,0.000
127140.800,121030.100,151152.600,426533.500,150682.000,146608.600,132185.600,142974.100,-0.124,0.944,-0.274,-9.827,11.475,1.373,66.667,61.000,1.000,0.012,0.000
127027.700,120923.700,151026.400,426378.100,150784.500,146632.500,132221.700,143073.200,-0.124,0.948,-0.282,-9.949,12.360,1.251,66.667,62.000,1.000,3.165,0.000
126937.200,120840.500,150921.900,426171.800,150848.400,146649.300,132255.200,143121.200,-0.134,0.954,-0.278,-9.766,13.214,1.312,66.667,63.000,1.000,14.349,0.000
126842.700,120751.800,150807.100,425670.800,150592.900,146455.500,132068.600,142859.200,-0.137,0.957,-0.279,-9.766,13.824,1.038,66.667,64.000,1.000,0.016,0.000
126779.800,120691.300,150723.800,425140.800,150271.200,146215.700,131831.600,142551.500,-0.147,0.960,-0.281,-9.888,14.343,0.885,66.667,65.000,1.000,1.842,0.000
126754.800,120666.000,150684.100,424914.800,150234.000,146170.000,131794.600,142540.100,-0.156,0.956,-0.282,-9.949,14.740,0.671,66.667,66.000,1.000,2.476,0.000
126680.000,120590.300,150597.800,424853.800,150368.800,146229.900,131868.200,142682.000,-0.161,0.948,-0.282,-9.979,15.045,0.519,66.667,67.000,1.000,2.468,0.000
126551.100,120461.400,150455.600,424668.700,150388.900,146208.000,131857.900,142686.900,-0.169,0.936,-0.281,-9.613,15.137,0.336,66.667,68.000,1.000,11.353,0.000
126511.200,120425.700,150399.200,424285.000,150194.300,146073.400,131728.800,142488.200,-0.173,0.926,-0.281,-9.491,15.167,0.000,66.667,69.000,1.000,8.020,0.000
126535.100,120456.000,150409.800,423902.800,149966.400,145923.100,131579.900,142277.200,-0.190,0.921,-0.282,-8.728,15.015,-0.153,66.667,70.000,1.000,0.009,0.000
126532.700,120456.600,150400.900,423750.000,149955.800,145905.200,131567.000,142291.100,-0.197,0.917,-0.280,-8.179,14.465,-0.549,66.667,71.000,1.000,1.940,0.000
126461.000,120384.400,150316.700,423730.800,150089.100,145967.000,131638.700,142426.200,-0.207,0.918,-0.282,-7.568,14.038,-0.488,66.667,72.000,1.000,2.516,0.000
126427.500,120345.000,150265.700,423678.800,150199.100,146035.500,131712.700,142514.600,-0.214,0.917,-0.282,-6.927,13.092,-0.549,66.667,73.000,1.000,2.445,0.000
126399.000,120316.000,150223.800,423351.400,150015.000,145902.400,131583.100,142323.400,-0.216,0.920,-0.280,-6.531,12.085,-0.580,66.667,74.000,1.000,2.531,0.000
126338.100,120258.600,150152.700,422919.800,149706.000,145666.800,131348.900,142030.400,-0.220,0.923,-0.275,-5.798,11.108,-0.549,66.667,75.000,1.000,2.462,0.000
126249.700,120167.700,150052.300,422719.200,149610.000,145560.700,131251.100,141960.800,-0.216,0.928,-0.278,-5.524,10.040,-0.336,66.667,76.000,1.000,3.724,0.000
126220.400,120136.600,150014.900,422782.800,149791.400,145678.200,131368.700,142145.600,-0.216,0.935,-0.281,-5.127,8.942,0.122,66.667,77.000,1.000,19.408,0.000
126182.000,120103.800,149968.100,422761.400,149908.500,145751.500,131447.800,142247.300,-0.207,0.939,-0.289,-5.005,7.843,0.244,66.667,78.000,1.000,0.015,0.000
126141.700,120071.900,149919.400,422455.800,149724.500,145620.100,131317.800,142052.100,-0.201,0.945,-0.287,-4.822,6.927,0.732,66.667,79.000,1.000,1.904,0.000
126114.000,120048.000,149883.700,422098.300,149456.600,145429.000,131124.600,141800.300,-0.190,0.943,-0.291,-4.852,5.890,1.160,66.667,80.000,1.000,4.985,0.000
126049.000,119985.800,149815.800,421952.900,149388.300,145360.300,131052.800,141764.900,-0.184,0.947,-0.291,-4.852,5.249,1.709,66.667,81.000,1.000,2.496,0.000
126026.300,119972.600,149793.200,422051.300,149585.100,145482.100,131184.900,141949.100,-0.177,0.942,-0.294,-4.700,4.486,2.136,66.667,82.000,1.000,2.450,0.000
125985.100,119935.800,149749.200,422047.700,149702.000,145554.000,131266.700,142048.700,-0.172,0.941,-0.300,-4.822,3.998,2.625,66.667,83.000,1.000,2.530,0.000
125960.700,119915.600,149717.600,421773.100,149525.800,145437.400,131150.500,141861.500,-0.165,0.941,-0.303,-4.669,3.448,3.204,66.667,84.000,1.000,2.492,0.000
125952.800,119910.100,149703.000,421452.900,149270.000,145264.500,130971.600,141616.000,-0.156,0.942,-0.306,-4.700,3.082,3.540,66.667,85.000,1.000,3.043,0.000
125936.400,119896.600,149681.100,421380.100,149253.300,145243.900,130950.700,141625.200,-0.154,0.948,-0.305,-4.547,2.838,3.967,66.667,86.000,1.000,0.007,0.000
125931.300,119885.400,149669.800,421509.600,149456.800,145369.500,131083.200,141834.400,-0.146,0.955,-0.310,-4.791,2.533,4.242,66.667,87.000,1.000,1.882,0.000
125900.500,119851.800,149631.700,421538.200,149577.700,145447.400,131165.000,141932.600,-0.147,0.962,-0.306,-4.791,2.502,4.578,66.667,88.000,1.000,8.770,0.000
125870.700,119818.400,149590.900,421271.800,149385.100,145313.000,131032.500,141736.100,-0.144,0.963,-0.305,-5.280,2.502,4.578,66.667,89.000,1.000,5.073,0.000
125848.500,119797.400,149563.000,420951.000,149118.600,145118.300,130847.000,141484.800,-0.149,0.961,-0.304,-5.524,2.380,4.456,66.667,90.000,1.000,2.422,0.000
125825.900,119775.600,149539.300,420888.900,149103.400,145090.800,130822.200,141486.400,-0.147,0.956,-0.307,-5.829,2.411,4.272,66.667,91.000,1.000,3.763,0.000
125812.300,119759.400,149524.800,421029.800,149309.100,145228.400,130963.300,141689.400,-0.155,0.951,-0.309,-6.042,2.380,4.028,66.667,92.000,1.000,9.386,0.000
125794.900,119741.500,149507.500,421091.500,149451.500,145331.900,131063.500,141810.700,-0.155,0.946,-0.312,-5.951,2.411,3.418,66.667,93.000,1.000,0.017,0.000
125809.100,119757.700,149517.900,420899.100,149326.000,145246.700,130985.200,141679.300,-0.154,0.941,-0.313,-5.981,2.380,2.655,66.667,94.000,1.000,1.819,0.000
125788.400,119737.500,149492.600,420598.600,149067.900,145066.000,130802.200,141431.800,-0.153,0.935,-0.310,-5.615,2.289,1.953,66.667,95.000,1.000,3.804,0.000
125738.300,119685.200,149438.000,420514.500,149014.300,145008.800,130743.900,141403.000,-0.149,0.932,-0.313,-5.646,2.289,1.190,66.667,96.000,1.000,21.792,0.000
125680.100,119622.200,149376.100,420622.400,149170.900,145088.700,130830.500,141563.300,-0.156,0.935,-0.310,-5.249,2.380,0.732,66.667,97.000,1.000,0.018,0.000
125624.800,119566.500,149316.100,420655.800,149272.200,145142.900,130889.200,141647.400,-0.159,0.934,-0.312,-5.219,2.258,0.183,66.667,98.000,1.000,3.103,0.000
125626.100,119574.500,149312.300,420457.700,149127.000,145050.400,130796.600,141497.500,-0.167,0.935,-0.314,-5.005,2.228,-0.092,66.667,99.000,1.000,0.008,0.000
125688.600,119645.700,149373.300,420248.600,148950.300,144955.300,130695.500,141332.100,-0.166,0.935,-0.313,-4.822,2.014,-0.549,66.667,100.000,1.000,0.003,0.000
125741.200,119705.800,149428.500,420282.500,149007.500,145007.700,130749.600,141413.900,-0.166,0.933,-0.313,-4.822,1.740,-0.854,66.667,101.000,1.000,2.532,0.000
125740.100,119707.700,149428.600,420458.200,149227.100,145152.300,130898.800,141629.100,-0.166,0.936,-0.310,-4.333,1.556,-1.038,66.667,102.000,1.000,2.508,0.000
125687.700,119657.900,149375.600,420500.700,149330.900,145215.400,130963.400,141713.500,-0.166,0.938,-0.313,-4.242,1.526,-1.404,66.667,103.000,1.000,2.562,0.000
125675.000,119648.700,149357.800,420289.300,149166.800,145112.000,130854.500,141541.600,-0.170,0.950,-0.312,-4.089,1.434,-1.556,66.667,104.000,1.000,25.029,0.000
125651.100,119621.400,149327.900,419994.900,148893.100,144909.100,130656.500,141284.500,-0.167,0.954,-0.314,-3.967,1.221,-1.648,66.667,105.000,1.000,5.504,0.000
125649.800,119613.900,149322.600,419976.500,148890.400,144898.000,130647.700,141302.700,-0.169,0.959,-0.313,-4.150,1.038,-1.617,66.667,106.000,1.000,0.009,0.000
125652.400,119611.900,149323.000,420167.400,149117.300,145042.600,130799.900,141526.300,-0.164,0.957,-0.308,-4.242,0.641,-1.617,66.667,107.000,1.000,3.707,0.000
125644.600,119602.600,149316.600,420266.700,149268.800,145148.400,130909.800,141653.700,-0.160,0.953,-0.309,-4.486,0.458,-1.526,66.667,108.000,1.000,0.012,0.000
125637.500,119593.900,149306.600,420067.700,149111.300,145049.100,130805.300,141485.000,-0.166,0.955,-0.310,-4.547,0.305,-1.404,66.667,109.000,1.000,0.003,0.000
125639.000,119599.400,149306.000,419802.900,148867.500,144881.100,130631.000,141252.700,-0.171,0.952,-0.312,-4.669,0.153,-1.343,66.667,110.000,1.000,0.003,0.000
125636.600,119596.900,149305.500,419800.100,148871.800,144871.900,130617.400,141272.200,-0.175,0.954,-0.308,-4.730,-0.183,-1.190,66.667,111.000,1.000,2.515,0.000
125617.800,119576.800,149289.500,419977.000,149082.400,145005.200,130754.500,141482.100,-0.180,0.954,-0.310,-4.913,-0.702,-1.068,66.667,112.000,1.000,0.010,0.000
125615.700,119573.300,149286.800,420082.700,149236.400,145114.100,130873.000,141622.200,-0.177,0.957,-0.309,-5.127,-1.160,-1.129,66.667,113.000,1.000,1.892,0.000
125617.300,119578.300,149284.600,419892.200,149085.600,145023.200,130783.000,141465.400,-0.172,0.963,-0.309,-5.280,-1.617,-1.251,66.667,114.000,1.000,2.501,0.000
125603.900,119563.900,149265.500,419618.600,148825.200,144846.100,130593.400,141210.200,-0.167,0.966,-0.309,-5.676,-2.075,-1.190,66.667,115.000,1.000,3.797,0.000
125598.300,119553.500,149255.800,419613.300,148823.300,144834.600,130580.300,141230.700,-0.168,0.974,-0.307,-6.134,-2.319,-1.099,66.667,116.000,1.000,13.725,0.000
125606.300,119555.300,149260.300,419821.800,149053.200,144982.700,130735.500,141462.200,-0.167,0.972,-0.302,-6.775,-2.563,-1.007,66.667,117.000,1.000,3.622,0.000
125608.000,119551.700,149258.300,419931.000,149207.600,145087.800,130850.800,141597.200,-0.170,0.968,-0.299,-7.568,-2.838,-0.671,66.667,118.000,1.000,0.012,0.000
125568.300,119508.400,149211.800,419698.200,149006.200,144937.800,130692.200,141385.200,-0.168,0.959,-0.289,-8.209,-3.113,-0.366,66.667,119.000,1.000,0.005,0.000
125549.700,119492.200,149189.700,419420.200,148735.500,144749.200,130486.900,141124.800,-0.166,0.945,-0.288,-8.881,-3.296,-0.244,66.667,120.000,1.000,2.641,0.000
125567.700,119517.300,149209.300,419439.200,148765.800,144775.600,130517.700,141172.300,-0.172,0.933,-0.281,-9.155,-3.418,-0.122,66.667,121.000,1.000,3.742,0.000
125588.500,119541.700,149231.700,419670.800,149022.600,144943.900,130692.700,141427.200,-0.176,0.919,-0.286,-9.216,-3.571,-0.153,66.667,122.000,1.000,8.671,0.000
125594.500,119545.900,149235.200,419786.300,149184.300,145049.700,130807.800,141564.300,-0.181,0.911,-0.291,-9.064,-3.693,-0.214,66.667,123.000,1.000,2.558,0.000
125640.800,119594.000,149277.600,419640.400,149071.200,144995.000,130749.400,141439.900,-0.183,0.909,-0.289,-8.759,-4.242,-0.458,66.667,124.000,1.000,3.767,0.000
125633.000,119586.100,149266.400,419379.000,148811.500,144819.900,130560.800,141187.100,-0.182,0.910,-0.291,-8.209,-4.578,-0.580,66.667,125.000,1.000,9.414,0.000
125619.600,119572.300,149253.200,419378.300,148806.400,144799.400,130541.400,141209.700,-0.180,0.918,-0.291,-7.507,-4.852,-0.580,66.667,126.000,1.000,0.014,0.000
125610.600,119566.500,149249.400,419588.100,149034.900,144944.000,130700.400,141436.300,-0.175,0.931,-0.288,-7.080,-5.219,-0.488,66.667,127.000,1.000,1.808,0.000
125590.300,119544.500,149224.400,419683.400,149172.300,145034.500,130802.800,141553.000,-0.172,0.946,-0.283,-6.775,-5.371,-0.244,66.667,128.000,1.000,8.778,0.000
125582.700,119535.900,149209.400,419480.400,149003.800,144928.100,130698.800,141376.500,-0.161,0.954,-0.284,-6.653,-5.585,0.000,66.667,129.000,1.000,3.053,0.000
125607.500,119566.800,149230.200,419252.800,148779.300,144793.100,130547.500,141163.700,-0.153,0.954,-0.284,-6.897,-5.493,0.549,66.667,130.000,1.000,0.009,0.000
125603.900,119558.000,149226.400,419265.700,148788.700,144779.500,130543.400,141195.300,-0.144,0.951,-0.278,-6.775,-5.310,0.824,66.667,131.000,1.000,1.900,0.000
125600.100,119548.800,149224.100,419476.600,149017.800,144922.000,130698.700,141430.300,-0.139,0.949,-0.281,-6.622,-5.035,1.160,66.667,132.000,1.000,11.205,0.000
125567.700,119518.600,149193.300,419562.800,149140.400,144995.000,130778.500,141530.100,-0.143,0.954,-0.280,-6.409,-4.547,1.556,66.667,133.000,1.000,3.201,0.000
125549.000,119498.300,149172.100,419359.300,148962.300,144884.200,130657.200,141344.700,-0.144,0.956,-0.280,-6.470,-4.242,1.801,66.667,134.000,1.000,0.009,0.000
125568.700,119521.800,149190.500,419126.900,148735.700,144743.200,130502.100,141118.900,-0.149,0.954,-0.276,-6.409,-4.059,2.197,66.667,135.000,1.000,1.817,0.000
125550.300,119502.100,149173.800,419130.200,148729.600,144724.200,130483.100,141133.500,-0.149,0.946,-0.276,-6.348,-3.784,2.380,66.667,136.000,1.000,8.767,0.000
125555.900,119507.100,149183.000,419357.800,148965.800,144880.800,130646.400,141380.100,-0.142,0.936,-0.279,-6.134,-3.693,2.441,66.667,137.000,1.000,4.448,0.000
125549.500,119503.300,149179.200,419470.900,149116.200,144984.200,130755.900,141510.800,-0.139,0.932,-0.280,-5.585,-3.357,2.686,66.667,138.000,1.000,0.010,0.000
125525.100,119483.300,149155.800,419263.800,148940.200,144867.600,130641.900,141329.900,-0.136,0.929,-0.285,-5.157,-3.143,2.716,66.667,139.000,1.000,8.057,0.000
125552.800,119517.800,149182.500,419045.600,148730.600,144750.600,130511.000,141129.700,-0.141,0.935,-0.282,-4.608,-2.808,2.930,66.667,140.000,1.000,2.445,0.000
125583.400,119548.200,149216.900,419101.100,148779.600,144785.200,130540.500,141192.000,-0.141,0.940,-0.281,-4.150,-2.594,2.808,66.667,141.000,1.000,3.729,0.000
125561.000,119524.400,149199.300,419299.000,148988.600,144902.300,130668.400,141398.700,-0.140,0.944,-0.284,-3.967,-2.441,2.899,66.667,142.000,1.000,8.825,0.000
125544.800,119510.100,149185.300,419399.900,149122.900,144987.400,130762.000,141513.600,-0.135,0.951,-0.283,-3.571,-2.197,3.021,66.667,143.000,1.000,3.129,0.000
125572.200,119542.900,149211.800,419246.400,148996.600,144923.700,130697.500,141377.500,-0.128,0.959,-0.285,-3.448,-1.953,2.960,66.667,144.000,1.000,0.030,0.000
125559.400,119533.100,149195.900,418997.800,148750.200,144759.500,130524.700,141140.600,-0.126,0.969,-0.282,-3.296,-1.801,2.899,66.667,145.000,1.000,1.748,0.000
125529.500,119506.300,149165.400,418995.400,148736.700,144724.700,130495.200,141151.100,-0.117,0.979,-0.281,-3.876,-1.495,2.747,66.667,146.000,1.000,13.825,0.000
125504.900,119479.800,149140.800,419182.000,148933.000,144832.300,130622.200,141356.400,-0.115,0.981,-0.274,-4.181,-1.129,2.991,66.667,147.000,1.000,3.095,0.000
125549.300,119523.400,149184.200,419339.800,149122.100,144982.500,130780.900,141525.100,-0.109,0.981,-0.273,-4.852,-0.641,3.113,66.667,148.000,1.000,0.010,0.000
125558.500,119535.000,149191.900,419168.100,148978.900,144904.500,130697.700,141372.600,-0.109,0.977,-0.276,-5.280,-0.031,3.204,66.667,149.000,1.000,1.793,0.000
125551.900,119530.600,149183.600,418919.600,148738.700,144744.300,130533.100,141139.200,-0.110,0.973,-0.279,-5.676,0.275,3.143,66.667,150.000,1.000,2.582,0.000
125538.600,119524.200,149172.400,418934.000,148742.400,144735.400,130521.000,141169.600,-0.115,0.966,-0.281,-6.012,0.671,2.838,66.667,151.000,1.000,8.746,0.000
125511.400,119479.000,149142.800,419119.200,148936.900,144851.500,130634.100,141358.800,-0.117,0.960,-0.275,-6.073,0.885,2.716,66.667,152.000,1.000,4.371,0.000
125510.200,119477.300,149139.900,419225.900,149077.000,144935.200,130732.400,141477.300,-0.117,0.956,-0.275,-6.287,1.160,2.350,66.667,153.000,1.000,0.082,0.000
125519.400,119493.100,149147.900,419054.300,148936.700,144858.600,130649.200,141327.900,-0.125,0.957,-0.272,-6.226,1.373,1.984,66.667,154.000,1.000,8.618,0.000
125519.600,119493.600,149149.700,418824.800,148708.600,144718.300,130495.700,141119.400,-0.127,0.959,-0.271,-6.622,1.526,1.587,66.667,155.000,1.000,0.019,0.000
125528.700,119503.200,149163.800,418863.000,148737.300,144732.700,130514.200,141176.100,-0.135,0.961,-0.268,-6.470,1.617,1.190,66.667,156.000,1.000,1.886,0.000
125573.700,119544.600,149208.500,419125.400,149000.800,144904.800,130690.900,141422.500,-0.133,0.960,-0.269,-6.805,1.617,0.732,66.667,157.000,1.000,2.500,0.000
125529.800,119495.300,149165.200,419201.100,149101.400,144946.200,130745.000,141496.400,-0.135,0.961,-0.266,-7.080,1.495,0.488,66.667,158.000,1.000,8.572,0.000
125519.300,119487.900,149156.400,419013.800,148943.500,144849.700,130647.700,141327.700,-0.131,0.957,-0.262,-7.355,1.373,0.244,66.667,159.000,1.000,9.491,0.000
125501.700,119468.800,149135.800,418760.700,148694.500,144689.300,130474.600,141093.100,-0.132,0.954,-0.264,-7.538,1.495,0.000,66.667,160.000,1.000,0.011,0.000
125491.500,119452.900,149120.800,418775.800,148695.700,144679.400,130462.800,141121.600,-0.130,0.949,-0.265,-7.263,1.587,-0.397,66.667,161.000,1.000,1.942,0.000
125484.800,119440.700,149113.200,418981.700,148909.700,144809.300,130605.600,141339.800,-0.125,0.945,-0.267,-7.477,1.709,-0.610,66.667,162.000,1.000,2.465,0.000
125502.900,119454.800,149127.500,419107.300,149062.500,144915.700,130724.000,141476.700,-0.125,0.936,-0.262,-7.355,1.740,-0.458,66.667,163.000,1.000,2.512,0.000
125552.100,119505.400,149172.300,418979.300,148958.600,144882.600,130678.300,141361.600,-0.120,0.928,-0.264,-7.568,1.862,-0.549,66.667,164.000,1.000,6.220,0.000
125557.400,119515.000,149174.400,418758.500,148733.300,144744.100,130519.500,141147.300,-0.126,0.923,-0.260,-7.263,2.167,-0.397,66.667,165.000,1.000,4.347,0.000
125526.900,119488.400,149142.600,418753.400,148718.000,144714.000,130483.900,141151.200,-0.130,0.919,-0.261,-7.080,2.441,-0.519,66.667,166.000,1.000,0.010,0.000
125536.500,119495.800,149152.600,418973.000,148947.000,144851.800,130639.600,141378.300,-0.138,0.924,-0.260,-6.714,2.563,-0.671,66.667,167.000,1.000,8.120,0.000
125537.500,119493.400,149153.000,419080.700,149083.000,144939.900,130740.300,141497.700,-0.142,0.926,-0.260,-6.683,2.563,-0.946,66.667,168.000,1.000,4.343,0.000
125524.400,119481.300,149136.100,418887.400,148914.300,144836.300,130629.700,141316.600,-0.147,0.931,-0.264,-6.653,2.869,-1.160,66.667,169.000,1.000,0.007,0.000
125564.700,119524.600,149172.200,418699.700,148727.000,144736.000,130514.500,141138.400,-0.152,0.930,-0.268,-6.470,2.716,-1.373,66.667,170.000,1.000,5.645,0.000
125578.500,119535.400,149184.400,418755.600,148761.700,144760.500,130531.000,141202.800,-0.155,0.922,-0.277,-6.409,2.441,-1.801,66.667,171.000,1.000,3.805,0.000
125544.500,119497.400,149149.700,418928.300,148945.600,144852.500,130641.800,141385.300,-0.159,0.921,-0.279,-5.768,2.136,-1.984,66.667,172.000,1.000,14.292,0.000
125531.800,119482.800,149138.500,419021.800,149074.600,144924.600,130735.500,141491.800,-0.160,0.926,-0.282,-5.310,1.770,-2.441,66.667,173.000,1.000,0.065,0.000
125527.200,119483.000,149133.700,418846.800,148921.600,144839.800,130638.200,141325.100,-0.165,0.940,-0.278,-4.639,1.465,-2.930,66.667,174.000,1.000,1.892,0.000
125495.900,119449.600,149100.100,418596.300,148665.800,144671.600,130448.400,141079.300,-0.161,0.948,-0.276,-4.517,0.946,-3.387,66.667,175.000,1.000,2.437,0.000
125489.000,119439.300,149091.000,418617.600,148678.900,144666.900,130444.400,141106.500,-0.161,0.953,-0.277,-4.791,0.641,-3.479,66.667,176.000,1.000,2.516,0.000
125507.400,119458.300,149111.900,418844.800,148917.900,144828.400,130614.000,141341.400,-0.162,0.950,-0.279,-5.219,0.397,-3.479,66.667,177.000,1.000,3.710,0.000
125495.300,119448.500,149101.800,418939.800,149041.400,144914.200,130707.600,141447.500,-0.160,0.950,-0.283,-5.585,0.061,-3.418,66.667,178.000,1.000,11.337,0.000
125486.500,119441.300,149091.000,418761.600,148883.100,144830.200,130608.000,141284.300,-0.158,0.954,-0.285,-5.615,-0.244,-3.662,66.667,179.000,1.000,3.034,0.000
125492.200,119446.200,149095.400,418552.600,148667.500,144687.000,130462.000,141080.500,-0.160,0.959,-0.282,-5.798,-0.702,-4.028,66.667,180.000,1.000,0.010,0.000
125523.600,119478.900,149127.800,418618.900,148721.900,144724.100,130496.900,141147.200,-0.163,0.962,-0.282,-5.890,-0.885,-4.517,66.667,181.000,1.000,1.917,0.000
125564.200,119516.900,149170.700,418866.400,148977.900,144902.200,130683.000,141403.900,-0.160,0.961,-0.283,-6.134,-1.282,-4.974,66.667,182.000,1.000,2.476,0.000
125534.200,119486.400,149142.400,418941.700,149080.200,144969.800,130746.400,141487.700,-0.157,0.959,-0.281,-6.378,-1.587,-5.341,66.667,183.000,1.000,8.795,0.000
125512.700,119465.100,149119.800,418750.700,148914.800,144860.600,130630.400,141313.500,-0.154,0.954,-0.276,-6.714,-1.709,-5.402,66.667,184.000,1.000,11.458,0.000
125516.100,119467.200,149122.600,418543.000,148704.500,144723.100,130480.900,141106.500,-0.157,0.951,-0.271,-6.897,-1.984,-5.615,66.667,185.000,1.000,0.012,0.000
125488.900,119444.100,149098.800,418553.500,148707.500,144710.000,130470.000,141125.900,-0.164,0.944,-0.270,-6.958,-2.258,-5.676,66.667,186.000,1.000,2.234,0.000
125492.400,119450.100,149103.200,418757.400,148920.500,144840.000,130608.200,141332.000,-0.170,0.937,-0.270,-6.958,-2.350,-5.829,66.667,187.000,1.000,3.116,0.000
125503.400,119467.800,149115.500,418872.300,149060.900,144934.000,130711.800,141446.100,-0.175,0.934,-0.273,-6.927,-2.655,-5.920,66.667,188.000,1.000,0.011,0.000
125500.900,119468.400,149111.900,418707.400,148914.600,144848.200,130620.600,141290.500,-0.175,0.933,-0.273,-6.866,-3.082,-5.890,66.667,189.000,1.000,5.638,0.000
125492.200,119464.300,149102.300,418492.300,148695.400,144705.300,130465.000,141082.600,-0.175,0.935,-0.271,-6.683,-3.448,-5.951,66.667,190.000,1.000,4.337,0.000
125491.800,119467.700,149104.500,418525.800,148717.000,144711.600,130470.800,141121.300,-0.177,0.935,-0.271,-6.470,-3.723,-5.646,66.667,191.000,1.000,0.012,0.000
125493.300,119472.500,149110.100,418732.500,148925.300,144841.400,130609.600,141333.500,-0.185,0.937,-0.267,-6.592,-3.845,-5.341,66.667,192.000,1.000,10.612,0.000
125491.500,119472.000,149107.500,418830.500,149048.900,144925.000,130701.500,141442.000,-0.190,0.944,-0.263,-6.622,-4.089,-4.791,66.667,193.000,1.000,3.136,0.000
125490.800,119476.700,149103.600,418670.900,148904.300,144852.000,130615.600,141289.800,-0.182,0.950,-0.264,-6.836,-4.456,-4.456,66.667,194.000,1.000,0.007,0.000
125494.800,119477.500,149106.100,418475.300,148698.200,144719.900,130478.600,141098.400,-0.165,0.956,-0.267,-6.805,-4.547,-4.211,66.667,195.000,1.000,1.881,0.000
125484.000,119464.000,149099.200,418502.100,148713.000,144731.700,130479.900,141126.300,-0.169,0.956,-0.265,-6.561,-4.456,-4.639,66.667,196.000,1.000,8.803,0.000
125490.400,119470.000,149108.100,418702.400,148918.100,144863.500,130622.600,141341.300,-0.169,0.962,-0.269,-6.409,-4.242,-4.578,66.667,197.000,1.000,3.141,0.000
125496.100,119471.200,149114.000,418806.000,149043.500,144946.300,130720.700,141453.500,-0.171,0.968,-0.266,-6.958,-4.242,-3.662,66.667,198.000,1.000,0.012,0.000
125500.600,119474.100,149116.000,418652.900,148904.300,144864.200,130628.800,141306.500,-0.163,0.963,-0.269,-7.843,-4.303,-2.686,66.667,199.000,1.000,1.852,0.000
125504.200,119486.300,149121.100,418458.800,148712.100,144750.600,130494.300,141109.500,-0.160,0.962,-0.267,-7.965,-4.333,-2.014,66.667,200.000,1.000,21.888,0.000
125495.900,119475.900,149115.700,418486.000,148732.600,144735.900,130494.200,141144.500,-0.156,0.962,-0.264,-7.965,-4.120,-1.831,66.667,201.000,1.000,0.020,0.000
125482.500,119461.300,149104.400,418665.400,148916.100,144834.300,130599.500,141332.000,-0.153,0.963,-0.255,-8.240,-3.540,-1.556,66.667,202.000,1.000,2.360,0.000
125474.700,119455.900,149099.900,418752.800,149028.500,144903.100,130676.600,141429.700,-0.151,0.951,-0.259,-8.362,-3.326,-1.099,66.667,203.000,1.000,0.010,0.000
125453.600,119432.200,149080.500,418577.100,148869.800,144796.400,130571.700,141264.900,-0.149,0.954,-0.261,-8.484,-2.777,-0.854,66.667,204.000,1.000,2.539,0.000
125426.500,119404.200,149051.300,418354.800,148638.600,144645.800,130399.900,141040.000,-0.161,0.961,-0.257,-8.057,-2.319,-0.702,66.667,205.000,1.000,0.009,0.000
125418.600,119396.400,149042.900,418384.000,148653.800,144646.500,130402.000,141073.600,-0.162,0.971,-0.257,-7.935,-1.984,-1.221,66.667,206.000,1.000,1.883,0.000
125471.600,119449.900,149096.900,418626.900,148904.600,144823.900,130587.200,141330.000,-0.159,0.988,-0.254,-7.782,-1.587,-1.526,66.667,207.000,1.000,14.328,0.000
125501.600,119484.700,149125.800,418746.400,149045.600,144932.600,130703.700,141452.200,-0.149,0.991,-0.247,-8.026,-1.282,-1.831,66.667,208.000,1.000,0.010,0.000
125533.000,119515.900,149154.600,418626.200,148941.000,144883.900,130656.600,141340.400,-0.142,0.985,-0.245,-8.118,-0.763,-2.075,66.667,209.000,1.000,8.769,0.000
125587.000,119572.500,149206.700,418482.200,148800.900,144823.000,130581.000,141210.100,-0.146,0.974,-0.239,-7.813,0.122,-2.625,66.667,210.000,1.000,0.008,0.000
125561.300,119545.500,149181.700,418495.700,148800.300,144811.100,130566.700,141226.000,-0.144,0.963,-0.243,-7.660,0.702,-3.296,66.667,211.000,1.000,12.442,0.000
125525.700,119509.100,149146.400,418646.900,148954.100,144890.800,130655.800,141383.600,-0.151,0.955,-0.248,-7.477,1.465,-3.265,66.667,212.000,1.000,0.011,0.000
125505.000,119488.000,149123.700,418711.000,149045.300,144942.900,130715.500,141461.700,-0.156,0.956,-0.249,-7.629,1.709,-3.052,66.667,213.000,1.000,2.504,0.000
125505.600,119490.600,149122.200,418556.100,148905.700,144867.100,130627.100,141315.000,-0.151,0.957,-0.245,-7.599,2.075,-2.930,66.667,214.000,1.000,0.005,0.000
125504.400,119490.500,149119.000,418368.200,148712.100,144751.600,130491.600,141126.000,-0.152,0.957,-0.245,-7.355,2.472,-3.204,66.667,215.000,1.000,6.339,0.000
125515.400,119499.900,149129.500,418418.500,148749.400,144766.800,130508.300,141180.100,-0.153,0.949,-0.245,-7.111,2.838,-3.479,66.667,216.000,1.000,0.007,0.000
125498.500,119478.900,149114.700,418587.900,148926.600,144861.600,130623.900,141357.200,-0.159,0.946,-0.251,-6.927,3.143,-3.754,66.667,217.000,1.000,13.709,0.000
125514.300,119494.300,149133.300,418690.400,149056.300,144948.800,130724.500,141468.000,-0.158,0.945,-0.249,-6.592,3.448,-4.211,66.667,218.000,1.000,0.021,0.000
125535.800,119517.100,149152.200,418554.600,148937.000,144884.300,130647.600,141335.200,-0.156,0.945,-0.248,-6.226,3.784,-4.578,66.667,219.000,1.000,2.473,0.000
125503.500,119485.500,149119.800,418340.300,148716.400,144736.800,130484.100,141121.900,-0.161,0.946,-0.252,-5.920,3.998,-5.096,66.667,220.000,1.000,0.015,0.000
125498.800,119480.900,149116.700,418375.800,148741.600,144745.800,130489.300,141165.400,-0.163,0.945,-0.254,-5.676,4.181,-5.463,66.667,221.000,1.000,1.861,0.000
125486.800,119469.100,149106.300,418549.300,148924.900,144846.800,130606.900,141349.700,-0.167,0.939,-0.253,-5.585,4.303,-5.920,66.667,222.000,1.000,8.728,0.000
125488.000,119470.800,149108.900,418638.000,149036.300,144917.300,130686.500,141446.900,-0.174,0.932,-0.257,-5.310,4.211,-6.531,66.667,223.000,1.000,3.193,0.000
125486.700,119472.400,149108.000,418492.300,148904.600,144842.800,130604.600,141303.400,-0.178,0.927,-0.253,-4.883,4.028,-6.836,66.667,224.000,1.000,0.009,0.000
125482.600,119472.400,149104.100,418308.400,148714.100,144725.700,130472.700,141120.900,-0.181,0.922,-0.258,-4.700,3.906,-6.927,66.667,225.000,1.000,5.566,0.000
125516.000,119504.200,149140.100,418380.900,148775.500,144773.500,130520.200,141204.100,-0.186,0.922,-0.256,-4.730,3.571,-6.897,66.667,226.000,1.000,9.406,0.000
125520.300,119508.100,149147.200,418565.000,148966.600,144894.700,130650.000,141398.000,-0.189,0.922,-0.255,-4.730,3.113,-6.805,66.667,227.000,1.000,0.008,0.000
125500.500,119490.000,149129.900,418628.000,149055.800,144950.500,130716.000,141471.400,-0.191,0.926,-0.258,-4.761,2.594,-6.744,66.667,228.000,1.000,2.368,0.000
125501.400,119493.300,149130.900,418483.300,148923.100,144879.200,130631.900,141330.400,-0.196,0.927,-0.259,-4.761,2.167,-6.775,66.667,229.000,1.000,0.005,0.000
125483.400,119477.800,149109.500,418287.000,148719.400,144747.100,130487.800,141127.300,-0.199,0.929,-0.255,-5.066,1.587,-6.775,66.667,230.000,1.000,10.743,0.000
125471.900,119469.500,149100.200,418315.700,148741.100,144755.200,130495.800,141168.200,-0.204,0.928,-0.254,-5.402,1.068,-6.531,66.667,231.000,1.000,2.417,0.000
125479.400,119480.700,149111.400,418504.800,148941.800,144885.000,130632.100,141360.800,-0.207,0.924,-0.259,-5.890,0.427,-6.073,66.667,232.000,1.000,2.469,0.000
125499.300,119501.400,149131.300,418602.100,149063.400,144977.200,130723.400,141464.500,-0.210,0.919,-0.263,-6.287,-0.183,-5.585,66.667,233.000,1.000,8.825,0.000
125480.600,119478.800,149106.300,418427.600,148902.000,144862.000,130602.100,141289.700,-0.207,0.924,-0.266,-6.653,-0.793,-5.066,66.667,234.000,1.000,3.106,0.000
125469.600,119463.600,149094.500,418240.000,148707.300,144730.200,130462.600,141102.800,-0.204,0.934,-0.271,-6.775,-1.251,-4.395,66.667,235.000,1.000,0.010,0.000
125477.300,119469.100,149103.000,418287.300,148751.000,144749.300,130484.800,141160.000,-0.198,0.938,-0.275,-7.019,-1.740,-3.906,66.667,236.000,1.000,1.861,0.000
125489.000,119477.000,149112.400,418472.500,148940.800,144854.300,130605.500,141350.900,-0.195,0.938,-0.273,-6.805,-1.953,-3.387,66.667,237.000,1.000,15.645,0.000
125470.700,119456.200,149092.300,418528.700,149019.600,144898.700,130664.800,141418.500,-0.196,0.936,-0.271,-6.744,-2.075,-2.930,66.667,238.000,1.000,0.018,0.000
125465.800,119452.800,149082.400,418366.800,148877.300,144810.100,130577.200,141261.600,-0.191,0.936,-0.279,-6.775,-2.441,-1.526,66.667,239.000,1.000,1.900,0.000
125485.600,119471.600,149098.800,418205.500,148714.800,144713.100,130478.200,141111.600,-0.189,0.927,-0.284,-7.324,-2.686,0.244,66.667,240.000,1.000,2.448,0.000
125500.900,119486.000,149116.500,418260.200,148764.300,144742.200,130511.700,141175.300,-0.191,0.915,-0.277,-7.080,-2.808,1.495,66.667,241.000,1.000,4.347,0.000
125480.100,119464.400,149096.900,418413.400,148930.400,144825.300,130615.100,141331.100,-0.192,0.912,-0.271,-6.104,-2.777,1.801,66.667,242.000,1.000,0.008,0.000
125454.400,119436.300,149069.200,418470.200,149011.000,144867.100,130662.900,141380.900,-0.191,0.916,-0.269,-5.066,-2.625,2.228,66.667,243.000,1.000,8.172,0.000
125446.000,119430.500,149058.300,418311.600,148874.800,144785.500,130576.900,141223.700,-0.194,0.925,-0.271,-4.364,-2.502,2.808,66.667,244.000,1.000,3.062,0.000
125470.000,119452.400,149080.400,418159.200,148722.100,144690.300,130484.500,141079.400,-0.189,0.938,-0.263,-4.089,-2.411,3.662,66.667,245.000,1.000,0.007,0.000
125470.000,119450.100,149081.900,418193.800,148757.400,144704.000,130503.400,141133.700,-0.176,0.953,-0.259,-3.937,-2.441,4.822,66.667,246.000,1.000,8.175,0.000
125419.000,119401.000,149035.700,418316.600,148897.800,144760.000,130581.000,141281.500,-0.158,0.969,-0.257,-4.242,-2.411,5.829,66.667,247.000,1.000,2.467,0.000
125457.000,119442.200,149073.300,418434.300,149033.000,144861.000,130698.900,141403.200,-0.152,0.981,-0.247,-4.028,-2.106,5.829,66.667,248.000,1.000,3.751,0.000
125493.300,119483.600,149108.600,418328.900,148929.900,144819.300,130650.200,141288.600,-0.153,0.984,-0.239,-3.845,-1.038,4.547,66.667,249.000,1.000,9.323,0.000
125501.700,119494.800,149117.300,418159.000,148754.400,144720.000,130530.600,141119.000,-0.155,0.990,-0.247,-3.052,-0.031,3.784,66.667,250.000,1.000,0.012,0.000
125489.000,119476.700,149105.300,418189.600,148768.600,144723.300,130527.300,141156.100,-0.166,0.988,-0.237,-2.960,0.732,2.991,66.667,251.000,1.000,1.871,0.000
125468.300,119453.500,149083.700,418337.400,148925.800,144814.100,130626.200,141318.000,-0.172,0.974,-0.231,-3.204,1.190,2.411,66.667,252.000,1.000,11.361,0.000
125498.800,119486.600,149113.000,418433.500,149047.700,144913.000,130725.300,141423.900,-0.177,0.952,-0.241,-3.326,1.709,2.197,66.667,253.000,1.000,3.056,0.000
125507.200,119496.400,149120.700,418291.300,148920.600,144837.900,130650.500,141286.000,-0.171,0.943,-0.251,-2.991,1.770,2.289,66.667,254.000,1.000,0.009,0.000
125496.700,119485.800,149108.300,418107.500,148736.500,144721.300,130521.400,141095.400,-0.169,0.953,-0.249,-2.502,1.526,2.441,66.667,255.000,1.000,1.829,0.000
125496.400,119482.400,149109.300,418153.000,148770.900,144734.500,130538.800,141149.000,-0.164,0.965,-0.235,-2.716,1.617,2.045,66.667,256.000,1.000,9.416,0.000
125487.600,119472.400,149104.400,418324.100,148947.200,144838.700,130658.600,141332.300,-0.164,0.963,-0.226,-2.441,1.953,1.831,66.667,257.000,1.000,0.023,0.000
125507.400,119494.600,149124.800,418413.600,149062.700,144928.900,130752.700,141436.400,-0.141,0.970,-0.239,-2.594,2.228,1.892,66.667,258.000,1.000,1.893,0.000
125503.500,119490.900,149117.500,418259.600,148918.000,144848.600,130655.900,141283.400,-0.141,0.968,-0.237,-2.625,2.625,1.556,66.667,259.000,1.000,3.666,0.000
125483.800,119470.500,149095.000,418071.200,148722.600,144725.600,130516.700,141101.400,-0.149,0.958,-0.244,-2.380,2.930,1.190,66.667,260.000,1.000,14.427,0.000
125473.500,119461.900,149086.000,418110.200,148749.900,144736.300,130523.700,141139.300,-0.168,0.937,-0.230,-2.625,3.540,0.885,66.667,261.000,1.000,0.020,0.000
125483.600,119475.300,149099.000,418300.200,148945.100,144862.800,130661.600,141334.900,-0.150,0.936,-0.240,-3.082,3.632,1.831,66.667,262.000,1.000,1.777,0.000
125481.700,119474.200,149098.200,418374.000,149039.900,144921.500,130728.500,141418.400,-0.136,0.943,-0.255,-2.014,3.632,2.136,66.667,263.000,1.000,25.173,0.000
125498.100,119487.900,149111.500,418241.100,148920.900,144853.300,130651.100,141287.700,-0.108,0.973,-0.279,-0.610,3.113,1.495,66.667,264.000,1.000,3.625,0.000
125514.700,119499.200,149126.300,418090.200,148764.200,144766.400,130552.800,141139.000,-0.138,0.974,-0.253,-0.061,3.937,0.031,66.667,265.000,1.000,3.090,0.000
125498.600,119486.800,149111.100,418118.100,148783.100,144780.700,130558.800,141173.200,-0.151,0.961,-0.218,-1.099,4.578,-0.122,66.667,266.000,1.000,0.012,0.000
125465.200,119455.500,149082.600,418260.700,148929.100,144859.100,130650.200,141332.400,-0.167,0.939,-0.215,-1.953,5.157,0.824,66.667,267.000,1.000,3.046,0.000
125466.700,119455.900,149084.400,418331.200,149022.600,144912.500,130723.600,141413.100,-0.167,0.930,-0.241,-1.801,5.371,0.916,66.667,268.000,1.000,0.009,0.000
125461.800,119453.600,149077.300,418182.900,148887.800,144834.500,130635.500,141272.400,-0.176,0.935,-0.248,-1.007,5.035,0.183,66.667,269.000,1.000,0.003,0.000
125474.900,119469.900,149088.700,418035.200,148731.900,144747.700,130529.100,141115.800,-0.177,0.939,-0.242,-1.099,4.944,-0.366,66.667,270.000,1.000,3.113,0.000
125479.000,119474.200,149093.300,418089.000,148769.000,144759.500,130548.600,141165.700,-0.176,0.946,-0.241,-1.373,4.883,-0.244,66.667,271.000,1.000,0.007,0.000
125467.100,119458.700,149081.500,418249.300,148934.800,144852.100,130655.300,141333.900,-0.174,0.941,-0.252,-1.190,4.700,-0.549,66.667,272.000,1.000,2.571,0.000
125469.300,119460.000,149082.400,418315.500,149025.300,144910.400,130721.900,141416.900,-0.171,0.947,-0.257,-0.946,4.242,-1.160,66.667,273.000,1.000,0.005,0.000
125491.500,119479.700,149101.200,418190.000,148913.900,144854.900,130653.600,141294.200,-0.170,0.952,-0.259,-0.122,3.723,-1.801,66.667,274.000,1.000,1.816,0.000
125455.700,119444.200,149061.600,417989.600,148705.800,144718.300,130499.100,141085.400,-0.162,0.961,-0.253,-0.214,3.265,-2.319,66.667,275.000,1.000,13.821,0.000
125435.200,119423.400,149040.800,418020.200,148721.600,144724.100,130500.900,141119.900,-0.162,0.970,-0.247,-0.031,3.082,-2.716,66.667,276.000,1.000,4.264,0.000
125434.500,119424.100,149040.000,418189.300,148899.100,144838.800,130626.200,141303.100,-0.157,0.973,-0.248,-0.244,3.021,-3.082,66.667,277.000,1.000,0.010,0.000
125458.900,119445.800,149063.900,418281.000,149011.900,144913.400,130716.700,141404.400,-0.158,0.977,-0.257,-0.580,2.899,-3.265,66.667,278.000,1.000,7.599,0.000
125496.400,119479.800,149098.800,418173.700,148914.600,144870.900,130668.700,141303.300,-0.157,0.974,-0.257,-0.702,2.808,-3.296,66.667,279.000,1.000,0.009,0.000
125514.800,119498.800,149116.000,418037.500,148759.200,144786.900,130566.200,141160.300,-0.154,0.975,-0.259,-0.702,2.563,-3.632,66.667,280.000,1.000,8.655,0.000
125527.100,119510.400,149129.600,418109.200,148808.900,144817.000,130595.400,141230.100,-0.152,0.979,-0.255,-0.763,2.441,-3.967,66.667,281.000,1.000,0.009,0.000
125511.600,119490.800,149114.700,418265.500,148970.000,144912.700,130700.700,141391.700,-0.147,0.976,-0.250,-1.190,2.563,-4.120,66.667,282.000,1.000,2.567,0.000
125487.200,119468.800,149089.100,418303.300,149030.600,144946.500,130738.700,141428.100,-0.156,0.973,-0.250,-1.404,3.082,-4.059,66.667,283.000,1.000,0.006,0.000
125481.100,119461.400,149081.500,418160.600,148893.700,144861.500,130647.400,141283.700,-0.171,0.959,-0.247,-1.953,3.235,-4.303,66.667,284.000,1.000,10.636,0.000
125483.600,119460.200,149078.900,418007.200,148724.600,144763.700,130526.000,141130.900,-0.181,0.950,-0.247,-1.892,3.265,-4.730,66.667,285.000,1.000,3.048,0.000
125490.600,119467.600,149085.600,418070.900,148773.300,144795.800,130558.200,141201.600,-0.186,0.947,-0.251,-1.862,3.113,-5.035,66.667,286.000,1.000,0.010,0.000
125494.200,119468.700,149091.600,418251.200,148961.400,144911.500,130697.900,141386.800,-0.189,0.952,-0.249,-2.014,2.716,-4.761,66.667,287.000,1.000,5.682,0.000
125486.600,119465.400,149083.500,418308.300,149038.400,144960.800,130755.400,141442.400,-0.179,0.953,-0.249,-2.014,2.258,-4.822,66.667,288.000,1.000,4.336,0.000
125492.500,119474.600,149087.300,418173.700,148910.100,144888.600,130672.700,141297.500,-0.174,0.960,-0.248,-1.801,2.380,-5.432,66.667,289.000,1.000,0.016,0.000
125486.600,119470.100,149082.400,418012.600,148737.200,144778.000,130548.800,141133.800,-0.169,0.966,-0.250,-1.282,2.411,-6.378,66.667,290.000,1.000,1.931,0.000
125474.000,119461.500,149075.200,418052.800,148766.600,144789.800,130564.100,141185.300,-0.163,0.963,-0.258,-1.038,2.808,-7.538,66.667,291.000,1.000,7.481,0.000
125457.900,119444.700,149062.300,418216.900,148932.300,144886.800,130670.400,141354.700,-0.165,0.953,-0.259,-0.305,3.082,-8.606,66.667,292.000,1.000,2.489,0.000
125436.700,119422.500,149039.000,418264.900,148990.800,144912.500,130706.700,141396.600,-0.158,0.940,-0.262,0.183,3.357,-9.888,66.667,293.000,1.000,8.712,0.000
125424.000,119419.500,149025.600,418114.300,148846.400,144836.000,130608.900,141245.700,-0.152,0.939,-0.257,1.038,3.510,-10.437,66.667,294.000,1.000,3.053,0.000
125424.200,119421.600,149027.200,417954.000,148684.900,144743.500,130494.800,141094.600,-0.149,0.935,-0.261,0.977,3.540,-9.949,66.667,295.000,1.000,0.006,0.000
125428.300,119423.200,149034.200,418003.400,148736.700,144774.900,130526.000,141159.800,-0.168,0.926,-0.270,0.763,3.784,-9.155,66.667,296.000,1.000,4.363,0.000
125479.900,119474.600,149087.100,418221.200,148965.600,144924.800,130680.600,141390.700,-0.189,0.910,-0.281,1.129,3.632,-8.911,66.667,297.000,1.000,2.559,0.000
125522.800,119518.900,149132.000,418319.900,149095.000,145019.300,130779.600,141499.600,-0.198,0.902,-0.280,2.228,3.479,-9.430,66.667,298.000,1.000,8.704,0.000
125482.300,119481.200,149093.300,418138.800,148927.000,144899.900,130655.700,141311.000,-0.215,0.887,-0.274,3.418,3.143,-9.949,66.667,299.000,1.000,2.478,0.000
125455.100,119453.200,149063.000,417949.500,148727.700,144767.700,130499.300,141115.000,-0.213,0.881,-0.271,4.547,2.502,-10.132,66.667,300.000,1.000,8.769,0.000
125442.700,119434.900,149048.800,417990.100,148749.100,144771.000,130502.600,141159.000,-0.212,0.891,-0.260,5.951,1.923,-10.132,66.667,301.000,1.000,3.057,0.000
125492.700,119485.600,149099.200,418208.900,148975.600,144938.200,130676.900,141397.800,-0.208,0.904,-0.252,6.622,1.434,-9.979,66.667,302.000,1.000,0.015,0.000
125538.500,119533.300,149142.000,418301.900,149098.300,145036.900,130781.800,141510.500,-0.210,0.927,-0.251,6.958,0.977,-9.308,66.667,303.000,1.000,8.238,0.000
125511.600,119509.700,149111.900,418138.500,148933.800,144936.800,130667.500,141345.100,-0.213,0.943,-0.254,6.805,0.580,-8.850,66.667,304.000,1.000,3.032,0.000
125505.100,119499.200,149105.200,417991.800,148761.600,144833.800,130548.400,141185.300,-0.209,0.959,-0.252,6.714,0.397,-8.148,66.667,305.000,1.000,0.007,0.000
125510.600,119501.200,149113.000,418052.100,148809.400,144857.100,130578.100,141243.000,-0.203,0.962,-0.256,5.676,-0.092,-6.775,66.667,306.000,1.000,1.902,0.000
125467.400,119460.600,149072.700,418179.700,148941.600,144917.500,130648.100,141374.300,-0.203,0.960,-0.263,3.876,-0.732,-4.456,66.667,307.000,1.000,13.856,0.000
125460.700,119458.300,149068.300,418242.200,149020.100,144974.700,130702.100,141429.400,-0.201,0.959,-0.266,2.258,-1.404,-1.892,66.667,308.000,1.000,2.972,0.000
125490.700,119489.800,149096.300,418128.100,148913.400,144916.700,130639.300,141319.300,-0.196,0.953,-0.273,0.458,-2.167,0.824,66.667,309.000,1.000,0.014,0.000
125478.900,119471.800,149080.000,417952.400,148727.300,144784.200,130496.900,141137.500,-0.194,0.951,-0.270,-0.793,-2.747,3.326,66.667,310.000,1.000,1.950,0.000
125477.900,119468.200,149077.100,417996.300,148760.300,144797.800,130504.800,141188.300,-0.196,0.943,-0.272,-2.014,-3.235,5.157,66.667,311.000,1.000,2.493,0.000
125497.200,119483.800,149097.900,418189.900,148954.100,144921.400,130641.100,141385.200,-0.197,0.935,-0.274,-2.777,-3.723,6.927,66.667,312.000,1.000,8.773,0.000
125513.500,119498.200,149112.900,418268.800,149051.200,144988.300,130724.800,141474.100,-0.196,0.934,-0.281,-3.479,-4.364,8.606,66.667,313.000,1.000,6.843,0.000
125499.100,119483.900,149093.700,418105.600,148900.900,144899.300,130625.500,141313.900,-0.191,0.942,-0.283,-3.967,-5.035,9.979,66.667,314.000,1.000,0.007,0.000
125490.700,119474.300,149080.800,417935.400,148717.700,144763.600,130483.500,141126.800,-0.182,0.961,-0.287,-5.096,-5.890,11.963,66.667,315.000,1.000,1.849,0.000
125499.100,119487.200,149091.000,417990.100,148762.800,144783.800,130515.700,141180.000,-0.167,0.972,-0.290,-6.531,-6.653,13.550,66.667,316.000,1.000,2.525,0.000
125494.400,119479.400,149090.500,418151.200,148941.700,144888.300,130646.500,141357.700,-0.162,0.978,-0.291,-7.385,-7.019,14.191,66.667,317.000,1.000,9.983,0.000
125498.700,119480.700,149094.500,418219.100,149029.600,144936.200,130717.300,141425.400,-0.159,0.977,-0.288,-7.721,-7.050,13.824,66.667,318.000,1.000,3.135,0.000
125488.400,119473.100,149081.800,418109.000,148889.200,144847.000,130640.400,141283.200,-0.166,0.966,-0.286,-7.782,-6.866,13.153,66.667,319.000,1.000,0.004,0.000
125494.400,119475.400,149081.000,417970.600,148722.000,144736.900,130503.800,141105.000,-0.178,0.944,-0.290,-7.599,-6.836,11.963,66.667,320.000,1.000,10.637,0.000
125500.700,119478.400,149087.700,418021.100,148770.300,144752.200,130514.800,141165.900,-0.184,0.926,-0.285,-7.080,-6.744,11.139,66.667,321.000,1.000,3.159,0.000
125498.400,119472.100,149086.900,418158.600,148950.800,144858.100,130633.500,141341.900,-0.181,0.918,-0.276,-6.470,-6.836,10.529,66.667,322.000,1.000,0.016,0.000
125481.100,119454.000,149069.100,418185.200,149018.500,144902.900,130677.700,141386.900,-0.167,0.929,-0.268,-5.829,-6.897,9.949,66.667,323.000,1.000,1.836,0.000
125490.700,119462.800,149076.800,418037.000,148895.500,144834.500,130600.600,141253.100,-0.143,0.961,-0.257,-5.157,-6.775,8.972,66.667,324.000,1.000,11.783,0.000
125514.600,119489.700,149100.200,417899.100,148755.800,144737.900,130509.200,141112.200,-0.127,0.977,-0.241,-4.456,-5.768,7.050,66.667,325.000,1.000,0.012,0.000
125510.800,119491.800,149102.800,417949.300,148798.000,144753.500,130531.900,141162.800,-0.117,0.990,-0.236,-3.540,-4.333,4.730,66.667,326.000,1.000,1.918,0.000
125508.900,119495.800,149108.600,418112.500,148978.000,144852.200,130653.200,141345.500,-0.130,0.983,-0.239,-3.448,-2.686,3.021,66.667,327.000,1.000,5.035,0.000
125506.700,119490.700,149104.300,418156.100,149049.800,144899.000,130708.800,141410.000,-0.143,0.964,-0.242,-3.937,-1.617,2.594,66.667,328.000,1.000,2.501,0.000
125505.300,119487.600,149097.700,417996.800,148909.800,144818.600,130617.300,141270.000,-0.138,0.952,-0.251,-4.425,-0.977,3.052,66.667,329.000,1.000,2.470,0.000
125513.000,119492.800,149098.000,417836.100,148748.300,144714.700,130501.800,141115.200,-0.140,0.956,-0.252,-4.303,-0.549,3.662,66.667,330.000,1.000,11.283,0.000
125507.500,119481.700,149087.000,417874.600,148779.300,144717.900,130516.800,141165.400,-0.133,0.959,-0.244,-4.303,-0.061,3.265,66.667,331.000,1.000,3.074,0.000
125509.300,119478.700,149087.800,418041.000,148952.600,144817.900,130634.600,141340.100,-0.119,0.970,-0.246,-3.754,0.854,3.143,66.667,332.000,1.000,0.013,0.000
125515.000,119483.900,149093.700,418107.100,149033.500,144878.300,130702.600,141391.300,-0.143,0.963,-0.235,-3.296,2.045,2.228,66.667,333.000,1.000,8.139,0.000
125510.400,119477.500,149086.600,417964.500,148893.700,144795.900,130615.800,141241.800,-0.132,0.958,-0.243,-3.357,2.991,1.648,66.667,334.000,1.000,2.414,0.000
125521.900,119492.800,149097.500,417821.900,148743.500,144714.400,130518.200,141108.500,-0.160,0.952,-0.254,-2.655,3.723,1.984,66.667,335.000,1.000,2.576,0.000
125527.700,119495.800,149100.900,417880.000,148789.600,144745.400,130551.500,141172.400,-0.166,0.939,-0.252,-2.563,3.937,1.129,66.667,336.000,1.000,2.422,0.000
125519.300,119480.300,149092.300,418030.400,148957.900,144841.900,130668.400,141355.300,-0.189,0.917,-0.247,-2.136,4.242,1.343,66.667,337.000,1.000,13.872,0.000
125524.600,119487.200,149097.600,418088.600,149045.400,144900.300,130739.600,141416.700,-0.162,0.934,-0.271,-1.801,4.028,2.655,66.667,338.000,1.000,2.990,0.000
125527.200,119490.100,149098.400,417952.900,148919.700,144827.200,130659.400,141277.900,-0.140,0.976,-0.293,-0.793,3.113,3.052,66.667,339.000,1.000,0.013,0.000
125509.000,119469.500,149080.000,417784.900,148741.300,144712.600,130527.800,141108.500,-0.127,1.015,-0.261,0.854,2.808,0.092,66.667,340.000,1.000,1.938,0.000
125524.600,119484.800,149097.000,417855.700,148798.600,144757.100,130568.700,141176.700,-0.161,0.999,-0.220,0.824,3.540,-2.716,66.667,341.000,1.000,2.545,0.000
125543.800,119501.700,149116.600,418043.000,148989.500,144881.500,130707.500,141366.800,-0.184,0.950,-0.216,-1.251,4.700,-1.923,66.667,342.000,1.000,11.865,0.000
125550.400,119511.800,149128.700,418106.100,149077.000,144946.500,130775.200,141446.400,-0.175,0.910,-0.263,-2.869,4.974,0.305,66.667,343.000,1.000,0.017,0.000
125534.200,119503.100,149115.100,417951.600,148937.500,144864.700,130678.600,141299.500,-0.159,0.921,-0.304,-1.282,3.906,0.427,66.667,344.000,1.000,4.864,0.000
125531.100,119504.400,149113.600,417799.800,148780.000,144769.800,130567.500,141141.100,-0.135,0.973,-0.301,1.434,2.686,-2.136,66.667,345.000,1.000,0.008,0.000
125520.100,119489.600,149107.700,417850.800,148822.900,144787.400,130594.900,141191.800,-0.143,1.008,-0.264,2.167,2.625,-4.089,66.667,346.000,1.000,2.583,0.000
125513.800,119483.900,149103.600,418028.900,148996.200,144892.800,130709.400,141369.700,-0.168,0.993,-0.231,0.122,3.326,-4.395,66.667,347.000,1.000,0.013,0.000
125514.500,119484.900,149103.900,418078.800,149067.800,144942.000,130766.500,141441.500,-0.192,0.941,-0.223,-2.380,4.059,-3.265,66.667,348.000,1.000,13.070,0.000
125544.000,119518.300,149132.500,417953.800,148963.200,144907.300,130715.200,141338.900,-0.190,0.929,-0.253,-2.991,3.632,-2.289,66.667,349.000,1.000,3.068,0.000
125527.000,119499.200,149114.300,417788.000,148786.600,144788.500,130582.100,141166.300,-0.188,0.923,-0.281,-2.380,3.357,-2.991,66.667,350.000,1.000,0.009,0.000
125495.700,119465.700,149083.800,417816.800,148801.900,144772.200,130574.500,141186.500,-0.179,0.936,-0.281,-1.282,2.655,-3.540,66.667,351.000,1.000,1.878,0.000
125488.800,119460.300,149078.100,417986.300,148967.300,144868.900,130682.200,141351.500,-0.177,0.940,-0.262,-1.495,2.319,-3.815,66.667,352.000,1.000,14.413,0.000
125482.800,119454.700,149072.600,418037.300,149033.500,144917.500,130736.000,141413.100,-0.179,0.918,-0.249,-2.167,2.319,-3.143,66.667,353.000,1.000,0.010,0.000
125477.900,119454.300,149067.200,417881.800,148890.400,144830.900,130640.100,141272.700,-0.181,0.908,-0.258,-2.258,2.258,-2.350,66.667,354.000,1.000,2.491,0.000
125469.600,119450.100,149057.900,417712.500,148717.500,144725.100,130518.000,141114.400,-0.193,0.911,-0.272,-1.312,2.258,-2.350,66.667,355.000,1.000,0.007,0.000
125473.000,119453.500,149061.500,417776.200,148766.200,144753.800,130547.900,141168.200,-0.191,0.926,-0.275,-0.580,1.892,-2.563,66.667,356.000,1.000,8.377,0.000
125484.300,119465.000,149072.600,417963.900,148957.900,144883.400,130680.000,141353.900,-0.188,0.939,-0.269,-0.458,1.526,-2.411,66.667,357.000,1.000,23.547,0.000
125461.100,119438.900,149046.500,417992.900,149008.700,144913.600,130717.700,141387.600,-0.189,0.952,-0.268,-0.549,1.160,-1.801,66.667,358.000,1.000,0.024,0.000
125435.000,119409.400,149018.100,417823.600,148844.800,144805.300,130600.600,141227.400,-0.192,0.960,-0.263,-0.427,1.007,-2.014,66.667,359.000,1.000,0.009,0.000
125437.900,119412.700,149021.800,417673.300,148683.800,144704.900,130490.400,141078.200,-0.194,0.966,-0.259,-0.458,0.977,-2.350,66.667,360.000,1.000,4.987,0.000
125460.600,119437.300,149047.500,417750.400,148750.700,144758.700,130541.000,141163.600,-0.195,0.970,-0.261,-0.580,0.885,-2.563,66.667,361.000,1.000,3.570,0.000
125494.200,119470.500,149081.000,417954.800,148961.200,144902.700,130697.500,141373.700,-0.192,0.978,-0.263,-0.885,0.702,-2.655,66.667,362.000,1.000,0.007,0.000
125538.800,119512.600,149125.100,418055.700,149084.700,145001.600,130807.200,141477.100,-0.187,0.980,-0.263,-1.373,0.488,-2.441,66.667,363.000,1.000,0.003,0.000
125514.300,119487.900,149100.000,417896.300,148928.200,144899.300,130696.000,141310.800,-0.181,0.976,-0.265,-2.045,0.366,-2.014,66.667,364.000,1.000,2.625,0.000
125499.000,119474.700,149085.700,417740.000,148751.400,144773.900,130555.600,141139.500,-0.178,0.969,-0.261,-2.686,0.366,-1.801,66.667,365.000,1.000,2.433,0.000
125435.700,119414.900,149026.600,417736.300,148736.500,144722.300,130515.000,141148.400,-0.174,0.966,-0.263,-3.143,0.488,-1.648,66.667,366.000,1.000,2.561,0.000
125395.400,119374.400,148989.700,417872.800,148886.800,144806.800,130617.900,141291.000,-0.171,0.959,-0.264,-3.448,0.580,-1.434,66.667,367.000,1.000,2.516,0.000
125403.500,119383.600,148997.800,417937.500,148970.600,144873.200,130684.400,141347.300,-0.172,0.948,-0.260,-3.540,0.702,-1.343,66.667,368.000,1.000,2.523,0.000
125503.100,119487.400,149097.000,417894.600,148937.800,144899.900,130701.300,141311.000,-0.175,0.934,-0.259,-3.418,0.916,-1.495,66.667,369.000,1.000,11.240,0.000
125553.200,119537.100,149145.100,417791.100,148823.500,144857.700,130638.800,141201.700,-0.183,0.926,-0.260,-2.899,1.129,-2.014,66.667,370.000,1.000,3.006,0.000
125555.300,119534.500,149145.500,417855.100,148868.400,144882.000,130660.600,141261.300,-0.188,0.919,-0.267,-2.502,1.160,-2.563,66.667,371.000,1.000,0.009,0.000
125534.400,119508.500,149123.500,418009.300,149021.800,144963.100,130755.000,141420.900,-0.187,0.920,-0.268,-2.014,0.885,-2.777,66.667,372.000,1.000,1.983,0.000
125508.300,119485.200,149098.300,418040.800,149068.800,144988.200,130779.400,141455.200,-0.184,0.924,-0.266,-1.373,0.854,-3.082,66.667,373.000,1.000,6.174,0.000
125499.100,119479.400,149088.400,417889.300,148919.800,144893.700,130675.600,141303.200,-0.184,0.933,-0.263,-0.885,0.854,-3.784,66.667,374.000,1.000,3.136,0.000
125474.000,119457.000,149064.200,417718.500,148725.300,144760.000,130528.000,141123.500,-0.176,0.942,-0.264,-0.031,1.038,-4.883,66.667,375.000,1.000,0.010,0.000
125469.600,119455.900,149061.900,417782.100,148765.700,144767.100,130541.200,141192.700,-0.169,0.953,-0.261,0.549,1.068,-5.920,66.667,376.000,1.000,13.177,0.000
125477.600,119467.200,149071.900,417962.700,148951.000,144883.900,130668.800,141376.300,-0.172,0.958,-0.265,0.580,1.190,-6.348,66.667,377.000,1.000,3.124,0.000
125491.300,119474.800,149084.400,418029.100,149038.000,144945.100,130732.900,141446.000,-0.181,0.945,-0.265,0.336,1.160,-6.775,66.667,378.000,1.000,0.009,0.000
125492.000,119476.600,149086.500,417888.600,148900.200,144866.800,130636.700,141307.800,-0.195,0.934,-0.265,0.458,0.946,-6.622,66.667,379.000,1.000,1.852,0.000
125502.500,119490.600,149096.200,417743.800,148743.200,144778.300,130521.700,141164.100,-0.203,0.917,-0.263,0.061,0.458,-6.104,66.667,380.000,1.000,2.485,0.000
125480.300,119467.800,149076.600,417775.800,148775.100,144792.200,130535.400,141214.100,-0.223,0.897,-0.270,-0.244,-0.275,-4.669,66.667,381.000,1.000,3.683,0.000
125461.600,119444.900,149056.900,417932.600,148937.300,144878.600,130630.200,141363.500,-0.228,0.891,-0.286,-0.214,-1.282,-3.815,66.667,382.000,1.000,13.832,0.000
125469.900,119457.800,149065.400,417991.800,149020.200,144944.800,130699.900,141428.700,-0.226,0.899,-0.286,1.404,-2.258,-4.120,66.667,383.000,1.000,3.123,0.000
125498.200,119488.900,149094.300,417869.900,148913.900,144900.500,130656.400,141316.500,-0.219,0.917,-0.275,3.174,-3.052,-5.157,66.667,384.000,1.000,0.012,0.000
125493.000,119484.500,149085.800,417716.400,148740.500,144794.900,130538.500,141152.500,-0.202,0.949,-0.256,4.486,-3.540,-6.378,66.667,385.000,1.000,1.818,0.000
125491.000,119478.800,149081.500,417777.600,148774.500,144806.600,130547.300,141212.900,-0.183,0.983,-0.234,4.822,-3.723,-6.958,66.667,386.000,1.000,2.535,0.000
125512.200,119500.600,149104.300,417976.100,148970.500,144935.300,130681.700,141413.100,-0.177,0.996,-0.224,3.418,-3.754,-6.531,66.667,387.000,1.000,3.679,0.000
125477.400,119464.400,149070.800,418000.500,149011.400,144950.900,130700.800,141438.800,-0.182,0.986,-0.236,0.977,-3.540,-4.974,66.667,388.000,1.000,14.406,0.000
125443.300,119428.800,149036.000,417812.300,148840.700,144825.300,130577.000,141262.900,-0.189,0.971,-0.249,-1.526,-3.510,-2.350,66.667,389.000,1.000,0.012,0.000
125469.500,119462.500,149060.800,417662.800,148700.300,144730.100,130481.500,141126.400,-0.187,0.960,-0.260,-3.571,-3.906,0.061,66.667,390.000,1.000,1.917,0.000
125474.300,119468.000,149066.300,417720.000,148757.400,144759.700,130506.600,141187.200,-0.180,0.958,-0.260,-4.913,-4.242,1.923,66.667,391.000,1.000,2.500,0.000
125474.700,119471.200,149071.200,417893.000,148941.000,144886.700,130640.000,141363.900,-0.173,0.963,-0.258,-5.493,-4.303,3.235,66.667,392.000,1.000,2.580,0.000
125480.600,119480.600,149077.900,417952.100,149022.600,144943.600,130698.300,141416.600,-0.162,0.972,-0.258,-5.737,-4.059,4.150,66.667,393.000,1.000,11.136,0.000
125476.300,119469.400,149072.800,417811.200,148878.100,144850.000,130599.400,141269.500,-0.150,0.973,-0.256,-6.134,-3.479,5.066,66.667,394.000,1.000,2.909,0.000
125465.100,119457.800,149059.900,417646.700,148696.200,144731.000,130465.500,141102.600,-0.141,0.966,-0.253,-6.805,-2.869,6.104,66.667,395.000,1.000,0.008,0.000
125462.500,119456.500,149057.500,417700.100,148737.000,144754.900,130485.700,141167.200,-0.134,0.953,-0.252,-7.874,-2.228,7.568,66.667,396.000,1.000,5.913,0.000
125478.100,119470.000,149074.400,417897.000,148932.400,144878.600,130625.300,141375.200,-0.126,0.935,-0.255,-8.881,-1.343,8.942,66.667,397.000,1.000,2.413,0.000
125464.300,119457.800,149059.700,417938.700,148991.500,144921.300,130668.300,141410.000,-0.127,0.920,-0.264,-9.552,-0.580,10.437,66.667,398.000,1.000,2.531,0.000
125474.400,119467.000,149064.600,417793.400,148860.900,144843.400,130585.400,141256.400,-0.127,0.903,-0.278,-9.857,0.153,11.932,66.667,399.000,1.000,6.824,0.000
125505.100,119486.900,149090.300,417669.000,148724.400,144757.700,130499.100,141121.000,-0.130,0.887,-0.289,-9.308,0.824,12.604,66.667,400.000,1.000,0.008,0.000
125490.500,119468.800,149074.200,417714.200,148756.600,144768.300,130504.300,141163.600,-0.115,0.882,-0.292,-7.904,1.282,12.604,66.667,401.000,1.000,4.449,0.000
125492.400,119470.200,149076.300,417905.000,148946.500,144882.800,130632.900,141347.900,-0.119,0.874,-0.294,-6.134,1.801,12.329,66.667,402.000,1.000,3.667,0.000
125508.400,119484.700,149094.500,417971.000,149046.700,144951.900,130718.600,141424.800,-0.139,0.871,-0.287,-4.547,2.991,12.299,66.667,403.000,1.000,9.424,0.000
125476.500,119456.800,149062.800,417774.300,148879.000,144842.100,130596.700,141233.700,-0.159,0.876,-0.285,-3.296,3.448,12.177,66.667,404.000,1.000,0.020,0.000
125480.800,119462.800,149067.900,417624.400,148724.900,144722.600,130489.800,141090.300,-0.173,0.902,-0.285,-1.740,3.632,11.719,66.667,405.000,1.000,1.795,0.000
125467.900,119446.200,149057.500,417672.800,148764.800,144719.900,130514.000,141150.500,-0.186,0.942,-0.273,-0.275,3.601,9.674,66.667,406.000,1.000,3.825,0.000
125469.300,119448.400,149060.800,417840.300,148944.900,144830.300,130641.100,141321.200,-0.183,0.976,-0.254,0.977,3.510,7.141,66.667,407.000,1.000,10.613,0.000
125490.700,119471.700,149081.800,417917.800,149042.000,144901.100,130720.900,141393.800,-0.181,1.004,-0.263,1.068,3.632,5.310,66.667,408.000,1.000,0.011,0.000
125477.900,119459.000,149065.800,417747.800,148885.700,144804.000,130611.800,141228.900,-0.198,1.007,-0.271,0.732,3.479,3.723,66.667,409.000,1.000,1.776,0.000
125478.000,119461.000,149066.800,417580.500,148718.500,144700.800,130493.200,141084.300,-0.198,0.989,-0.281,0.031,2.869,2.258,66.667,410.000,1.000,3.740,0.000
125486.300,119470.400,149076.700,417643.600,148774.700,144736.300,130526.900,141160.300,-0.198,0.987,-0.292,0.275,2.045,1.526,66.667,411.000,1.000,9.436,0.000
125484.200,119468.500,149075.300,417812.200,148950.200,144842.800,130642.700,141333.100,-0.216,0.973,-0.264,0.183,1.587,0.122,66.667,412.000,1.000,0.010,0.000
125487.700,119473.700,149081.000,417874.400,149028.500,144895.900,130710.400,141396.500,-0.201,0.960,-0.254,-0.580,1.007,0.183,66.667,413.000,1.000,1.887,0.000
125483.200,119468.400,149076.300,417717.800,148891.100,144814.600,130625.900,141253.300,-0.197,0.969,-0.273,-1.068,0.366,1.556,66.667,414.000,1.000,8.708,0.000
125487.100,119473.600,149081.900,417566.100,148735.900,144717.800,130516.100,141107.500,-0.193,0.986,-0.268,-1.556,-0.397,1.343,66.667,415.000,1.000,3.048,0.000
125476.700,119464.900,149077.900,417625.700,148785.100,144743.700,130540.600,141158.300,-0.167,1.006,-0.272,-2.014,-1.099,0.854,66.667,416.000,1.000,0.006,0.000
125471.400,119459.500,149076.800,417797.100,148962.700,144855.200,130655.300,141331.100,-0.171,1.018,-0.281,-2.350,-1.251,0.641,66.667,417.000,1.000,1.941,0.000
125481.400,119469.000,149083.400,417854.600,149038.700,144917.400,130721.700,141397.000,-0.170,1.018,-0.264,-3.510,-1.282,-0.336,66.667,418.000,1.000,8.793,0.000
125481.600,119469.000,149079.400,417706.600,148896.000,144836.500,130637.600,141250.900,-0.155,1.000,-0.262,-4.791,-1.312,-0.519,66.667,419.000,1.000,2.437,0.000
125483.600,119474.900,149081.900,417558.500,148737.500,144745.000,130536.400,141110.700,-0.157,0.973,-0.265,-5.707,-0.793,-0.214,66.667,420.000,1.000,3.761,0.000
125474.500,119458.500,149071.200,417606.300,148772.000,144757.000,130536.100,141156.400,-0.141,0.959,-0.272,-6.409,-0.458,-0.366,66.667,421.000,1.000,26.858,0.000
125467.900,119453.400,149064.600,417769.600,148942.000,144866.900,130659.700,141326.000,-0.110,0.966,-0.289,-6.012,-0.153,-0.305,66.667,422.000,1.000,0.013,0.000
125481.200,119461.300,149072.800,417829.400,149023.600,144918.300,130705.500,141386.100,-0.118,0.972,-0.280,-5.005,0.183,-1.678,66.667,423.000,1.000,13.792,0.000
125476.600,119447.200,149064.600,417679.600,148874.900,144814.000,130602.900,141224.000,-0.132,0.936,-0.249,-5.890,1.160,-3.571,66.667,424.000,1.000,0.009,0.000
125459.100,119430.600,149044.800,417508.100,148692.800,144696.600,130473.200,141051.700,-0.130,0.894,-0.232,-7.141,2.441,-2.380,66.667,425.000,1.000,2.417,0.000
125443.500,119417.400,149029.800,417546.100,148727.700,144703.800,130479.700,141104.900,-0.125,0.868,-0.259,-7.355,3.876,-0.793,66.667,426.000,1.000,0.011,0.000
125423.400,119404.200,149015.800,417699.100,148891.900,144800.700,130588.400,141276.100,-0.107,0.894,-0.305,-4.517,4.364,-1.099,66.667,427.000,1.000,4.447,0.000
125446.200,119433.000,149041.400,417775.300,148994.500,144892.900,130683.000,141354.500,-0.114,0.935,-0.306,-1.831,4.608,-3.693,66.667,428.000,1.000,5.032,0.000
125474.600,119465.100,149069.100,417663.700,148891.900,144851.700,130638.900,141237.800,-0.151,0.943,-0.250,-0.977,5.402,-5.219,66.667,429.000,1.000,2.467,0.000
125508.500,119501.000,149100.400,417555.300,148761.100,144778.900,130562.600,141125.000,-0.161,0.921,-0.215,-2.533,6.500,-4.211,66.667,430.000,1.000,2.471,0.000
125546.700,119538.600,149139.300,417653.700,148849.700,144845.700,130627.700,141237.500,-0.177,0.920,-0.235,-2.472,6.897,-2.869,66.667,431.000,1.000,2.532,0.000
125553.400,119545.200,149146.800,417825.000,149035.500,144967.500,130755.100,141425.900,-0.207,0.921,-0.256,-0.702,7.355,-4.120,66.667,432.000,1.000,2.491,0.000
125538.800,119528.100,149130.800,417853.700,149089.200,145000.200,130796.700,141464.600,-0.222,0.916,-0.247,0.244,6.927,-5.127,66.667,433.000,1.000,2.503,0.000
125521.000,119510.000,149108.900,417702.700,148934.800,144902.800,130684.200,141292.100,-0.219,0.921,-0.231,0.000,6.348,-4.303,66.667,434.000,1.000,2.466,0.000
125515.800,119506.600,149104.800,417561.700,148768.600,144786.600,130559.000,141131.400,-0.221,0.930,-0.230,0.061,5.737,-2.991,66.667,435.000,1.000,2.542,0.000
125508.300,119498.600,149102.500,417624.600,148817.800,144807.000,130584.500,141204.600,-0.221,0.935,-0.244,0.488,4.852,-2.289,66.667,436.000,1.000,2.403,0.000
125504.000,119493.900,149101.000,417782.400,148994.100,144915.400,130704.500,141385.500,-0.215,0.947,-0.249,1.129,3.906,-2.106,66.667,437.000,1.000,3.181,0.000
125514.100,119505.200,149110.400,417831.300,149069.300,144968.700,130767.200,141440.400,-0.207,0.958,-0.246,1.556,3.235,-1.984,66.667,438.000,1.000,0.010,0.000
125510.700,119499.800,149101.700,417691.800,148925.300,144889.000,130674.100,141288.900,-0.199,0.967,-0.248,1.770,2.869,-1.801,66.667,439.000,1.000,1.808,0.000
125532.200,119520.200,149117.700,417570.200,148785.800,144812.700,130580.600,141158.000,-0.194,0.977,-0.252,1.740,2.319,-1.495,66.667,440.000,1.000,8.813,0.000
125502.500,119486.000,149086.500,417601.200,148809.400,144810.100,130582.200,141190.100,-0.189,0.980,-0.246,1.587,1.801,-1.404,66.667,441.000,1.000,3.129,0.000
125504.300,119486.500,149086.900,417768.100,148989.100,144923.000,130706.200,141376.200,-0.184,0.980,-0.244,1.526,1.404,-1.221,66.667,442.000,1.000,0.008,0.000
125544.300,119529.000,149124.300,417861.000,149101.000,145011.200,130802.500,141473.900,-0.180,0.976,-0.246,1.129,1.068,-1.038,66.667,443.000,1.000,1.823,0.000
125538.000,119522.300,149116.000,417719.300,148959.000,144928.600,130707.600,141323.900,-0.174,0.973,-0.250,0.793,0.824,-0.854,66.667,444.000,1.000,8.826,0.000
125511.400,119494.300,149091.600,417547.600,148777.600,144806.700,130576.500,141146.300,-0.167,0.971,-0.247,0.458,0.610,-0.732,66.667,445.000,1.000,11.816,0.000
125516.000,119501.200,149100.800,417618.500,148839.200,144840.300,130620.000,141222.300,-0.159,0.971,-0.253,0.092,0.397,-0.671,66.667,446.000,1.000,0.017,0.000
125506.500,119491.000,149091.300,417784.300,149008.200,144941.100,130734.600,141395.600,-0.158,0.971,-0.257,-0.183,0.549,-0.793,66.667,447.000,1.000,1.820,0.000
125481.400,119467.700,149066.400,417814.100,149051.600,144963.200,130763.300,141432.300,-0.159,0.973,-0.261,-0.214,0.671,-1.343,66.667,448.000,1.000,7.518,0.000
125486.800,119472.600,149069.500,417678.500,148910.900,144881.600,130670.500,141289.700,-0.162,0.973,-0.268,0.000,1.007,-2.777,66.667,449.000,1.000,2.505,0.000
125486.400,119469.100,149064.500,417534.100,148743.500,144769.400,130551.100,141136.000,-0.164,0.987,-0.271,0.732,1.312,-4.669,66.667,450.000,1.000,2.500,0.000
125498.700,119479.800,149076.600,417616.700,148809.400,144807.800,130593.800,141222.300,-0.153,0.989,-0.270,0.916,1.526,-6.195,66.667,451.000,1.000,5.002,0.000
125502.000,119483.400,149080.500,417801.600,148993.100,144922.700,130715.300,141401.500,-0.137,0.979,-0.274,0.336,1.526,-6.927,66.667,452.000,1.000,2.522,0.000
125499.100,119484.900,149080.600,417850.300,149057.900,144977.800,130760.500,141452.100,-0.133,0.956,-0.272,-0.366,1.617,-6.805,66.667,453.000,1.000,3.099,0.000
125475.900,119459.400,149057.000,417679.800,148891.800,144872.800,130643.500,141284.000,-0.135,0.928,-0.275,-1.465,1.587,-5.676,66.667,454.000,1.000,0.010,0.000
125469.900,119451.800,149049.800,417526.500,148719.000,144743.200,130508.300,141123.800,-0.155,0.898,-0.280,-2.289,1.556,-3.845,66.667,455.000,1.000,1.891,0.000
125461.100,119441.600,149041.100,417578.600,148760.300,144757.800,130517.600,141187.000,-0.175,0.892,-0.284,-2.777,1.404,-2.808,66.667,456.000,1.000,11.301,0.000
125449.100,119427.000,149029.700,417745.500,148927.700,144866.400,130624.400,141354.600,-0.187,0.897,-0.288,-2.167,1.373,-2.686,66.667,457.000,1.000,3.096,0.000
125445.200,119427.700,149025.400,417791.100,148988.700,144911.000,130673.800,141398.000,-0.190,0.910,-0.284,-1.434,1.038,-3.418,66.667,458.000,1.000,0.022,0.000
125451.000,119433.500,149030.100,417649.700,148849.000,144833.500,130582.500,141249.100,-0.184,0.921,-0.277,-0.916,0.946,-3.815,66.667,459.000,1.000,1.838,0.000
125432.100,119413.300,149008.000,417473.200,148659.300,144711.300,130440.200,141075.600,-0.190,0.926,-0.269,-0.885,0.732,-3.815,66.667,460.000,1.000,8.760,0.000
125426.700,119410.900,149002.900,417526.300,148702.000,144729.100,130454.700,141132.000,-0.197,0.928,-0.272,-0.793,0.610,-4.181,66.667,461.000,1.000,4.323,0.000
125475.500,119457.500,149055.700,417745.000,148935.300,144891.600,130629.300,141360.300,-0.198,0.933,-0.269,-0.824,0.427,-4.303,66.667,462.000,1.000,0.008,0.000
125534.100,119515.800,149116.800,417850.200,149065.500,144994.000,130752.700,141479.800,-0.196,0.941,-0.267,-1.038,0.153,-3.784,66.667,463.000,1.000,13.140,0.000
125521.000,119509.800,149104.400,417697.400,148917.100,144904.800,130649.600,141318.200,-0.197,0.954,-0.267,-1.648,-0.122,-3.082,66.667,464.000,1.000,4.923,0.000
125512.900,119507.400,149099.000,417545.800,148755.400,144810.300,130531.900,141165.200,-0.195,0.964,-0.262,-2.289,-0.366,-2.319,66.667,465.000,1.000,0.011,0.000
125488.900,119486.200,149076.200,417587.100,148786.100,144821.100,130538.800,141216.900,-0.192,0.972,-0.264,-2.960,-0.580,-1.465,66.667,466.000,1.000,0.006,0.000
125475.500,119471.300,149063.200,417740.100,148953.600,144919.100,130650.500,141380.700,-0.195,0.974,-0.265,-3.845,-0.763,-0.763,66.667,467.000,1.000,3.142,0.000
125469.600,119470.400,149058.300,417776.600,149011.400,144957.700,130696.400,141420.800,-0.198,0.971,-0.267,-4.517,-0.885,0.275,66.667,468.000,1.000,0.007,0.000
125473.200,119476.300,149061.900,417632.600,148869.000,144876.800,130603.600,141265.900,-0.195,0.964,-0.268,-5.157,-1.068,1.160,66.667,469.000,1.000,10.680,0.000
125462.100,119464.600,149050.300,417472.100,148692.200,144760.200,130473.800,141103.300,-0.189,0.958,-0.274,-5.402,-1.343,1.984,66.667,470.000,1.000,9.320,0.000
125453.600,119452.000,149041.700,417527.800,148741.300,144777.600,130500.200,141170.700,-0.186,0.954,-0.269,-5.219,-1.526,2.350,66.667,471.000,1.000,0.008,0.000
125440.600,119437.800,149027.400,417686.700,148908.100,144870.900,130607.100,141333.000,-0.187,0.949,-0.266,-5.035,-1.556,2.533,66.667,472.000,1.000,8.752,0.000
125446.900,119444.900,149032.300,417734.800,148973.600,144916.700,130657.000,141378.400,-0.184,0.948,-0.265,-4.852,-1.617,2.899,66.667,473.000,1.000,0.013,0.000
125463.400,119458.700,149043.600,417598.500,148841.200,144844.200,130578.000,141242.200,-0.179,0.942,-0.267,-4.730,-1.801,3.265,66.667,474.000,1.000,2.531,0.000
125467.800,119460.800,149043.000,417452.100,148678.700,144738.300,130461.000,141094.800,-0.172,0.935,-0.262,-4.547,-1.862,3.754,66.667,475.000,1.000,0.018,0.000
125467.900,119459.100,149044.800,417524.200,148736.400,144767.400,130488.800,141163.900,-0.164,0.931,-0.259,-4.700,-1.617,4.150,66.667,476.000,1.000,10.017,0.000
125467.000,119459.100,149049.000,417700.500,148918.100,144880.700,130612.700,141345.800,-0.155,0.929,-0.258,-4.730,-1.373,4.639,66.667,477.000,1.000,0.013,0.000
125486.200,119479.100,149067.600,417756.400,148998.100,144948.600,130684.000,141410.800,-0.147,0.927,-0.259,-4.761,-0.885,5.157,66.667,478.000,1.000,21.805,0.000
125485.600,119479.800,149062.200,417599.500,148853.100,144862.000,130584.700,141261.300,-0.142,0.927,-0.261,-4.944,-0.336,5.707,66.667,479.000,1.000,0.021,0.000
125486.500,119483.000,149063.700,417455.800,148697.600,144763.200,130467.400,141099.700,-0.135,0.929,-0.264,-4.944,0.336,6.348,66.667,480.000,1.000,0.011,0.000
125502.500,119496.800,149081.500,417540.900,148776.200,144811.400,130521.300,141192.600,-0.135,0.930,-0.264,-5.066,1.068,6.348,66.667,481.000,1.000,2.504,0.000
125493.700,119487.600,149065.600,417697.600,148942.900,144900.000,130636.000,141354.800,-0.133,0.928,-0.264,-5.188,1.709,6.470,66.667,482.000,1.000,3.606,0.000
125484.600,119468.800,149049.100,417729.800,148991.500,144922.500,130678.300,141382.700,-0.130,0.918,-0.266,-5.310,2.502,6.653,66.667,483.000,1.000,0.008,0.000
125482.000,119458.000,149043.700,417582.700,148852.300,144824.800,130583.800,141237.000,-0.131,0.905,-0.273,-5.096,3.296,6.897,66.667,484.000,1.000,0.003,0.000
125489.800,119462.800,149052.900,417450.500,148712.500,144723.200,130485.300,141099.000,-0.138,0.891,-0.281,-4.730,3.845,7.263,66.667,485.000,1.000,2.598,0.000
125481.900,119455.900,149045.500,417498.700,148771.000,144745.600,130517.500,141159.000,-0.153,0.892,-0.283,-4.059,4.303,7.843,66.667,486.000,1.000,2.491,0.000
125478.900,119449.900,149041.900,417665.100,148951.400,144849.000,130645.300,141325.000,-0.164,0.914,-0.285,-3.265,4.364,8.148,66.667,487.000,1.000,3.685,0.000
125481.400,119455.900,149045.600,417711.000,149022.000,144890.500,130703.600,141371.600,-0.176,0.943,-0.286,-2.502,4.211,7.507,66.667,488.000,1.000,9.416,0.000
125482.500,119458.100,149044.800,417557.800,148884.400,144810.300,130619.500,141232.100,-0.180,0.963,-0.272,-2.045,3.906,6.073,66.667,489.000,1.000,0.008,0.000
125488.500,119466.300,149051.800,417423.200,148732.400,144725.500,130518.200,141092.000,-0.176,0.974,-0.275,-1.465,3.937,4.364,66.667,490.000,1.000,1.872,0.000
125461.100,119438.200,149025.300,417459.900,148756.700,144735.900,130523.400,141132.900,-0.182,0.988,-0.282,-0.580,3.723,2.625,66.667,491.000,1.000,8.708,0.000
125431.400,119412.400,148998.200,417593.000,148897.900,144815.900,130621.700,141275.500,-0.175,1.011,-0.284,0.427,3.113,0.397,66.667,492.000,1.000,4.410,0.000
125417.800,119405.600,148987.300,417618.400,148942.200,144853.000,130661.800,141319.200,-0.172,1.033,-0.273,0.732,2.716,-2.045,66.667,493.000,1.000,0.010,0.000
125479.400,119468.600,149048.200,417536.100,148865.100,144847.300,130644.200,141245.300,-0.181,1.035,-0.251,0.183,2.472,-3.479,66.667,494.000,1.000,13.103,0.000
125522.300,119524.500,149090.600,417441.600,148753.500,144795.100,130578.500,141145.500,-0.167,0.995,-0.243,-2.502,2.472,-3.326,66.667,495.000,1.000,8.143,0.000
125502.400,119501.300,149075.000,417496.700,148798.300,144814.200,130595.100,141200.300,-0.173,0.994,-0.281,-2.594,2.167,-1.923,66.667,496.000,1.000,0.013,0.000
125482.200,119479.400,149060.000,417642.500,148963.800,144915.400,130704.200,141359.000,-0.194,0.973,-0.286,-2.838,1.923,-3.235,66.667,497.000,1.000,1.879,0.000
125479.000,119488.500,149062.100,417690.600,149029.500,144973.400,130768.300,141415.500,-0.185,0.977,-0.272,-2.441,0.763,-3.479,66.667,498.000,1.000,2.420,0.000
125458.900,119470.400,149040.100,417525.100,148873.100,144886.500,130656.300,141241.200,-0.184,0.944,-0.237,-4.547,1.007,-3.021,66.667,499.000,1.000,2.565,0.000
125445.700,119446.900,149027.900,417377.500,148704.500,144742.100,130509.700,141081.700,-0.161,0.935,-0.238,-5.157,0.671,-0.946,66.667,500.000,1.000,2.437,0.000
125430.500,119429.300,149017.400,417438.600,148746.900,144736.400,130521.800,141148.700,-0.177,0.938,-0.248,-4.974,1.099,-0.549,66.667,501.000,1.000,2.554,0.000
125435.900,119435.900,149026.400,417608.500,148927.500,144858.600,130651.700,141335.100,-0.182,0.932,-0.268,-4.669,0.824,-0.854,66.667,502.000,1.000,10.549,0.000
125434.300,119441.600,149028.100,417642.800,148990.200,144908.400,130703.300,141382.500,-0.180,0.929,-0.266,-4.822,0.671,-0.671,66.667,503.000,1.000,0.011,0.000
125429.900,119439.300,149022.800,417500.200,148853.600,144830.300,130608.900,141227.600,-0.172,0.936,-0.276,-4.395,0.336,-0.519,66.667,504.000,1.000,1.883,0.000
125429.200,119435.400,149021.700,417373.600,148706.100,144737.700,130509.800,141091.900,-0.176,0.946,-0.281,-2.869,0.122,-1.495,66.667,505.000,1.000,2.572,0.000
125433.800,119441.600,149024.500,417442.100,148765.000,144778.300,130549.800,141168.800,-0.171,0.948,-0.272,-1.892,-0.031,-2.380,66.667,506.000,1.000,8.774,0.000
125428.400,119442.800,149019.200,417588.700,148931.400,144886.300,130662.000,141327.100,-0.168,0.936,-0.250,-1.923,0.000,-2.655,66.667,507.000,1.000,6.864,0.000
125430.800,119442.200,149018.700,417625.400,148984.900,144923.900,130708.600,141371.000,-0.156,0.927,-0.241,-2.258,0.153,-1.953,66.667,508.000,1.000,0.081,0.000
125431.100,119462.600,149020.300,417489.800,148848.400,144849.100,130616.300,141228.000,-0.158,0.936,-0.253,-1.831,0.519,-1.556,66.667,509.000,1.000,1.739,0.000
125423.500,119432.800,149010.300,417353.800,148692.000,144742.300,130505.900,141080.200,-0.161,0.934,-0.260,-1.556,0.793,-1.587,66.667,510.000,1.000,2.449,0.000
125424.700,119426.400,149009.500,417409.400,148742.800,144764.500,130540.100,141152.200,-0.162,0.931,-0.264,-1.556,0.824,-1.038,66.667,511.000,1.000,14.530,0.000
125424.600,119427.000,149011.000,417568.500,148907.400,144862.300,130652.100,141322.000,-0.161,0.936,-0.261,-1.465,0.854,-0.916,66.667,512.000,1.000,0.013,0.000
125430.500,119433.300,149015.800,417609.700,148966.300,144901.500,130699.100,141360.900,-0.166,0.944,-0.259,-0.763,1.068,-1.312,66.667,513.000,1.000,1.762,0.000
125440.200,119448.400,149026.200,417476.300,148842.000,144828.900,130620.500,141229.800,-0.170,0.953,-0.258,-0.427,1.251,-1.587,66.667,514.000,1.000,2.502,0.000
125446.600,119458.500,149033.000,417345.300,148700.500,144735.700,130519.300,141090.600,-0.174,0.959,-0.256,-0.519,1.251,-1.465,66.667,515.000,1.000,2.486,0.000
125439.800,119451.800,149028.800,417404.400,148760.300,144761.900,130552.000,141162.500,-0.174,0.960,-0.256,-0.916,1.221,-1.282,66.667,516.000,1.000,3.744,0.000
125445.400,119456.600,149037.200,417578.000,148941.900,144874.000,130677.400,141345.100,-0.176,0.958,-0.259,-0.824,1.282,-1.282,66.667,517.000,1.000,9.440,0.000
125444.700,119450.100,149037.700,417613.700,149001.900,144917.200,130725.400,141384.000,-0.174,0.958,-0.265,-0.977,1.160,-1.373,66.667,518.000,1.000,0.010,0.000
125444.300,119451.000,149036.700,417477.200,148871.300,144838.500,130639.300,141245.400,-0.171,0.955,-0.266,-1.221,1.007,-1.251,66.667,519.000,1.000,1.764,0.000
125439.500,119449.000,149033.300,417349.900,148728.600,144738.200,130536.300,141108.500,-0.171,0.950,-0.266,-1.373,0.854,-0.977,66.667,520.000,1.000,3.801,0.000
125435.500,119448.400,149031.600,417408.500,148784.300,144769.600,130571.400,141177.300,-0.169,0.951,-0.268,-1.282,0.977,-0.732,66.667,521.000,1.000,11.859,0.000
125423.100,119438.200,149022.900,417545.300,148935.100,144863.700,130678.900,141332.900,-0.176,0.960,-0.273,-1.007,1.007,-0.885,66.667,522.000,1.000,0.017,0.000
125416.800,119436.200,149019.400,417573.300,148981.500,144906.500,130723.700,141360.600,-0.177,0.970,-0.273,-0.732,0.946,-1.190,66.667,523.000,1.000,1.848,0.000
125418.100,119438.700,149019.900,417453.100,148866.100,144845.800,130644.500,141235.500,-0.179,0.971,-0.267,-0.641,0.824,-1.648,66.667,524.000,1.000,3.733,0.000
125411.100,119422.600,149010.200,417333.300,148735.300,144761.100,130543.700,141110.100,-0.177,0.960,-0.261,-1.099,0.763,-1.801,66.667,525.000,1.000,6.895,0.000
125410.500,119436.800,149012.800,417401.100,148797.200,144804.400,130586.900,141188.600,-0.176,0.955,-0.258,-1.343,0.854,-1.770,66.667,526.000,1.000,0.012,0.000
125393.800,119430.700,148999.500,417519.800,148936.300,144903.100,130690.700,141329.000,-0.174,0.956,-0.258,-1.404,0.885,-1.984,66.667,527.000,1.000,13.657,0.000
125392.100,119429.700,148995.800,417545.300,148972.500,144930.600,130718.300,141354.700,-0.168,0.950,-0.264,-1.556,0.793,-2.014,66.667,528.000,1.000,0.016,0.000
125402.900,119448.000,149001.800,417437.000,148856.800,144865.500,130640.700,141238.500,-0.164,0.944,-0.266,-1.892,0.977,-1.831,66.667,529.000,1.000,4.990,0.000
125408.200,119440.300,149000.800,417328.800,148732.500,144784.400,130552.900,141129.600,-0.161,0.938,-0.262,-2.045,1.129,-1.648,66.667,530.000,1.000,0.011,0.000
125403.200,119441.300,148995.500,417379.200,148786.500,144810.000,130586.900,141195.400,-0.164,0.940,-0.251,-1.892,1.526,-1.556,66.667,531.000,1.000,1.883,0.000
125395.600,119438.000,148991.500,417511.300,148932.300,144909.800,130692.400,141338.400,-0.158,0.945,-0.252,-1.984,1.862,-1.709,66.667,532.000,1.000,2.483,0.000
125392.200,119439.000,148991.200,417526.300,148968.800,144942.500,130723.600,141359.500,-0.155,0.944,-0.251,-2.319,2.258,-1.617,66.667,533.000,1.000,11.241,0.000
125403.800,119452.100,149002.500,417423.200,148854.300,144863.600,130647.200,141240.000,-0.154,0.938,-0.253,-2.563,2.625,-1.312,66.667,534.000,1.000,3.706,0.000
125401.300,119446.900,149000.100,417321.500,148726.500,144769.400,130550.400,141120.700,-0.156,0.936,-0.260,-2.502,3.021,-0.977,66.667,535.000,1.000,0.006,0.000
125397.100,119441.400,148994.700,417368.300,148783.300,144798.400,130581.000,141187.000,-0.160,0.938,-0.258,-2.380,3.479,-0.916,66.667,536.000,1.000,0.010,0.000
125399.200,119440.400,148996.600,417501.500,148935.300,144890.300,130685.100,141330.800,-0.162,0.936,-0.259,-2.136,4.028,-0.671,66.667,537.000,1.000,10.061,0.000
125402.400,119448.400,149000.700,417521.200,148975.600,144920.100,130717.700,141356.500,-0.167,0.935,-0.261,-2.014,4.242,-0.427,66.667,538.000,1.000,5.214,0.000
125411.400,119470.800,149009.200,417405.600,148857.200,144846.400,130634.900,141229.500,-0.169,0.934,-0.257,-1.770,4.639,-0.397,66.667,539.000,1.000,2.305,0.000
125425.900,119485.800,149024.000,417309.900,148742.200,144773.900,130550.400,141124.800,-0.172,0.938,-0.254,-1.495,4.730,-0.458,66.667,540.000,1.000,2.576,0.000
125419.500,119460.900,149019.800,417379.700,148801.500,144805.000,130586.100,141201.000,-0.173,0.940,-0.258,-1.373,4.852,-0.549,66.667,541.000,1.000,6.143,0.000
125420.600,119468.400,149025.600,417525.200,148953.400,144900.600,130689.500,141352.800,-0.172,0.946,-0.257,-1.343,4.974,-0.580,66.667,542.000,1.000,2.511,0.000
125406.900,119455.100,149012.300,417527.000,148975.000,144916.000,130711.600,141358.200,-0.170,0.952,-0.256,-1.343,5.219,-0.397,66.667,543.000,1.000,2.488,0.000
125402.300,119457.300,149007.100,417391.600,148853.500,144845.400,130633.700,141229.500,-0.167,0.959,-0.258,-1.312,5.371,-0.366,66.667,544.000,1.000,2.529,0.000
125398.400,119445.800,148999.500,417276.800,148720.700,144751.900,130530.400,141096.600,-0.164,0.965,-0.260,-1.373,5.524,-0.305,66.667,545.000,1.000,9.350,0.000
125388.300,119438.300,148993.200,417344.100,148777.400,144782.500,130560.200,141170.700,-0.159,0.970,-0.260,-1.495,5.646,-0.122,66.667,546.000,1.000,0.013,0.000
125389.400,119446.900,148997.000,417483.800,148933.100,144887.500,130673.500,141323.700,-0.156,0.974,-0.263,-1.953,5.707,0.031,66.667,547.000,1.000,13.805,0.000
125382.000,119447.000,148986.500,417482.800,148959.000,144901.200,130696.700,141335.300,-0.155,0.970,-0.263,-2.228,5.890,0.305,66.667,548.000,1.000,0.025,0.000
125398.000,119453.800,148997.700,417373.200,148847.400,144839.500,130623.400,141222.300,-0.160,0.964,-0.259,-2.594,6.073,0.580,66.667,549.000,1.000,8.014,0.000
125433.500,119492.500,149031.400,417301.300,148756.800,144791.800,130560.200,141138.100,-0.164,0.955,-0.262,-2.777,6.348,0.977,66.667,550.000,1.000,0.014,0.000
125455.500,119512.500,149051.400,417391.600,148841.100,144850.500,130621.000,141233.500,-0.169,0.950,-0.262,-2.777,6.256,1.099,66.667,551.000,1.000,0.006,0.000
125448.800,119507.100,149043.100,417514.600,148981.900,144947.800,130722.300,141372.300,-0.175,0.945,-0.261,-2.594,6.256,1.190,66.667,552.000,1.000,2.510,0.000
125443.800,119499.900,149035.500,417526.000,149011.800,144969.900,130749.300,141387.300,-0.180,0.943,-0.263,-2.350,6.195,1.282,66.667,553.000,1.000,3.749,0.000
125435.800,119487.400,149026.200,417402.200,148884.800,144886.400,130661.300,141256.800,-0.181,0.943,-0.268,-2.106,5.920,1.251,66.667,554.000,1.000,4.963,0.000
125435.400,119496.800,149024.300,417293.800,148758.000,144801.600,130566.600,141139.600,-0.183,0.939,-0.265,-1.801,5.615,1.404,66.667,555.000,1.000,2.544,0.000
125427.200,119481.300,149016.000,417357.700,148813.700,144828.400,130600.400,141214.800,-0.182,0.936,-0.265,-1.495,5.249,1.556,66.667,556.000,1.000,9.324,0.000
125420.500,119473.900,149010.500,417490.300,148956.000,144916.300,130701.200,141362.800,-0.181,0.933,-0.266,-1.038,5.005,1.770,66.667,557.000,1.000,0.016,0.000
125410.400,119476.400,149003.200,417487.200,148979.400,144937.200,130724.000,141363.500,-0.179,0.930,-0.271,-0.763,4.730,1.801,66.667,558.000,1.000,8.782,0.000
125412.900,119478.200,149007.100,417376.100,148860.100,144865.500,130642.600,141241.000,-0.179,0.929,-0.271,-0.519,4.578,1.953,66.667,559.000,1.000,0.011,0.000
125410.200,119463.200,149002.700,417268.700,148730.800,144776.100,130545.000,141125.700,-0.178,0.929,-0.279,-0.214,4.242,1.953,66.667,560.000,1.000,6.183,0.000
125415.700,119477.700,149011.400,417333.300,148797.600,144824.500,130589.700,141196.800,-0.177,0.926,-0.281,0.244,4.089,1.923,66.667,561.000,1.000,0.013,0.000
125419.800,119482.700,149017.200,417475.200,148953.500,144928.700,130703.400,141350.300,-0.177,0.927,-0.280,0.641,3.937,2.014,66.667,562.000,1.000,8.772,0.000
125423.300,119480.200,149020.500,417499.100,148991.600,144962.100,130740.800,141380.200,-0.175,0.938,-0.279,0.885,3.662,1.923,66.667,563.000,1.000,0.009,0.000
125433.900,119497.200,149027.000,417379.200,148876.100,144888.900,130657.800,141253.800,-0.176,0.943,-0.279,0.854,3.540,1.984,66.667,564.000,1.000,8.712,0.000
125429.100,119494.100,149025.000,417272.500,148752.500,144804.300,130567.100,141136.400,-0.176,0.952,-0.277,0.885,3.326,1.923,66.667,565.000,1.000,0.012,0.000
125417.200,119483.800,149017.200,417337.900,148810.000,144833.000,130599.100,141207.900,-0.177,0.956,-0.276,0.793,3.174,1.862,66.667,566.000,1.000,2.440,0.000
125414.500,119484.600,149017.200,417471.000,148960.300,144936.100,130707.000,141353.900,-0.178,0.963,-0.282,0.519,3.113,1.862,66.667,567.000,1.000,0.006,0.000
125412.400,119484.900,149015.300,417481.300,148994.600,144959.900,130739.400,141368.300,-0.180,0.970,-0.280,0.275,2.869,1.709,66.667,568.000,1.000,4.367,0.000
125414.200,119493.200,149015.200,417361.400,148873.400,144876.400,130653.700,141242.900,-0.181,0.978,-0.281,0.000,2.777,1.526,66.667,569.000,1.000,3.765,0.000
125417.800,119499.400,149015.900,417256.700,148750.200,144782.600,130548.200,141129.700,-0.182,0.982,-0.280,-0.275,2.594,1.282,66.667,570.000,1.000,8.755,0.000
125413.400,119477.900,149007.100,417318.300,148804.600,144808.800,130570.300,141199.800,-0.179,0.984,-0.277,-0.610,2.380,1.221,66.667,571.000,1.000,3.123,0.000
125408.000,119470.600,149002.500,417448.900,148951.100,144904.000,130680.700,141350.300,-0.175,0.973,-0.277,-1.373,2.380,1.007,66.667,572.000,1.000,0.012,0.000
125408.900,119473.000,149006.000,417466.000,148988.300,144929.300,130720.700,141376.400,-0.173,0.966,-0.280,-1.495,2.411,0.946,66.667,573.000,1.000,10.585,0.000
125411.000,119483.300,149007.100,417346.700,148863.300,144855.500,130637.000,141252.300,-0.168,0.961,-0.277,-1.495,2.411,0.885,66.667,574.000,1.000,3.125,0.000
125413.900,119483.400,149009.500,417247.000,148745.800,144782.800,130563.200,141146.400,-0.161,0.958,-0.274,-1.495,2.441,0.854,66.667,575.000,1.000,0.008,0.000
125414.400,119486.800,149009.200,417314.500,148812.000,144824.100,130602.700,141223.000,-0.155,0.957,-0.275,-1.495,2.563,1.007,66.667,576.000,1.000,1.831,0.000
125391.400,119458.800,148984.100,417425.000,148939.700,144905.600,130684.100,141348.600,-0.150,0.952,-0.273,-1.587,2.747,0.977,66.667,577.000,1.000,11.478,0.000
125396.200,119462.400,148988.300,417445.000,148976.100,144936.200,130715.600,141364.700,-0.143,0.946,-0.273,-1.770,3.082,0.946,66.667,578.000,1.000,4.810,0.000
125399.800,119464.600,148990.200,417323.900,148848.900,144852.500,130627.100,141235.600,-0.137,0.940,-0.267,-1.648,3.632,0.977,66.667,579.000,1.000,2.424,0.000
125401.900,119472.800,148990.300,417212.400,148720.600,144764.600,130530.900,141116.900,-0.130,0.938,-0.265,-1.556,4.303,0.946,66.667,580.000,1.000,2.538,0.000
125406.100,119465.500,148995.900,417295.900,148792.300,144811.200,130581.800,141201.800,-0.125,0.939,-0.264,-1.434,4.761,0.885,66.667,581.000,1.000,2.467,0.000
125409.300,119474.600,149002.500,417432.300,148947.400,144919.700,130689.100,141346.900,-0.119,0.943,-0.261,-1.373,5.402,0.793,66.667,582.000,1.000,6.417,0.000
125426.500,119500.400,149019.800,417458.100,148998.000,144967.100,130731.300,141375.800,-0.115,0.947,-0.255,-1.465,6.134,0.702,66.667,583.000,1.000,25.529,0.000
125420.600,119491.400,149014.000,417330.400,148872.500,144886.300,130639.300,141243.900,-0.115,0.948,-0.257,-1.648,6.866,0.580,66.667,584.000,1.000,0.027,0.000
125436.000,119499.400,149027.800,417238.300,148763.700,144807.800,130557.100,141138.300,-0.119,0.942,-0.259,-1.740,7.660,0.336,66.667,585.000,1.000,1.879,0.000
125436.200,119507.500,149029.000,417309.500,148830.900,144842.000,130596.000,141218.200,-0.129,0.932,-0.266,-1.953,8.392,0.244,66.667,586.000,1.000,2.447,0.000
125428.300,119504.300,149025.300,417444.900,148981.900,144942.000,130704.600,141368.600,-0.138,0.918,-0.273,-1.801,8.911,0.031,66.667,587.000,1.000,2.512,0.000
125410.400,119483.900,149010.700,417441.500,149003.400,144960.000,130727.400,141378.600,-0.153,0.910,-0.276,-1.312,9.094,-0.366,66.667,588.000,1.000,2.515,0.000
125408.100,119488.900,149010.300,417323.100,148879.600,144875.600,130643.200,141250.100,-0.167,0.909,-0.278,-0.671,9.125,-0.763,66.667,589.000,1.000,2.473,0.000
125409.500,119495.800,149014.500,417225.400,148760.700,144790.300,130556.500,141141.800,-0.181,0.909,-0.277,0.031,8.911,-1.190,66.667,590.000,1.000,2.488,0.000
125410.000,119498.700,149020.100,417304.900,148833.500,144834.200,130608.800,141233.300,-0.197,0.907,-0.271,0.397,8.392,-1.556,66.667,591.000,1.000,2.510,0.000
125415.600,119505.500,149026.800,417453.100,148995.000,144943.100,130723.700,141396.000,-0.208,0.899,-0.268,0.671,7.813,-1.862,66.667,592.000,1.000,2.416,0.000
125423.000,119512.400,149028.800,417467.700,149024.300,144966.300,130743.800,141402.700,-0.220,0.896,-0.267,0.946,7.019,-2.197,66.667,593.000,1.000,2.547,0.000
125431.100,119519.800,149033.200,417355.600,148903.100,144884.900,130662.500,141276.400,-0.231,0.895,-0.266,1.404,5.981,-2.533,66.667,594.000,1.000,3.121,0.000
125441.300,119524.700,149039.000,417266.800,148785.800,144798.500,130575.000,141170.300,-0.238,0.901,-0.270,1.892,4.669,-2.869,66.667,595.000,1.000,0.007,0.000
125427.600,119522.000,149029.600,417345.000,148849.000,144837.200,130614.400,141248.700,-0.241,0.912,-0.264,2.075,3.296,-2.960,66.667,596.000,1.000,1.879,0.000
125413.600,119482.000,149012.000,417461.100,148990.800,144935.700,130716.300,141385.300,-0.240,0.926,-0.260,2.441,2.136,-3.265,66.667,597.000,1.000,14.301,0.000
125414.400,119487.400,149012.700,417463.800,149024.500,144974.400,130756.200,141399.400,-0.239,0.943,-0.260,2.350,0.916,-3.448,66.667,598.000,1.000,0.017,0.000
125414.100,119499.300,149014.400,417342.600,148903.900,144898.000,130678.000,141271.500,-0.234,0.956,-0.263,1.740,-0.336,-3.082,66.667,599.000,1.000,8.801,0.000
125410.000,119493.000,149009.800,417231.200,148778.000,144802.300,130588.900,141157.400,-0.224,0.961,-0.260,0.671,-1.617,-2.563,66.667,600.000,1.000,0.010,0.000
125413.700,119498.600,149015.000,417311.500,148851.000,144855.000,130646.000,141255.300,-0.211,0.967,-0.258,-0.122,-2.594,-2.075,66.667,601.000,1.000,1.862,0.000
125393.400,119465.300,148989.900,417425.400,148972.600,144916.400,130700.900,141376.400,-0.197,0.970,-0.253,-1.007,-3.510,-1.495,66.667,602.000,1.000,6.278,0.000
125397.600,119467.800,148988.500,417431.000,148990.800,144931.800,130700.600,141364.700,-0.179,0.973,-0.249,-1.923,-4.059,-0.763,66.667,603.000,1.000,13.674,0.000
125412.100,119486.100,148999.800,417311.900,148871.400,144857.500,130630.600,141241.200,-0.164,0.974,-0.244,-2.899,-4.242,-0.275,66.667,604.000,1.000,0.011,0.000
125416.400,119487.600,149001.100,417205.000,148742.500,144759.200,130534.900,141132.000,-0.148,0.972,-0.243,-4.089,-4.211,0.427,66.667,605.000,1.000,0.003,0.000
125414.300,119492.500,149002.000,417275.500,148812.500,144804.100,130578.600,141212.400,-0.138,0.972,-0.242,-4.913,-3.815,1.007,66.667,606.000,1.000,5.705,0.000
125410.900,119484.700,149004.600,417419.200,148976.900,144924.900,130703.400,141368.000,-0.130,0.972,-0.246,-5.829,-3.296,1.556,66.667,607.000,1.000,0.008,0.000
125415.100,119483.900,149007.900,417431.200,149009.200,144949.600,130733.000,141386.500,-0.124,0.974,-0.250,-6.561,-2.411,1.831,66.667,608.000,1.000,1.830,0.000
125404.100,119479.100,148997.000,417282.500,148869.900,144853.900,130631.700,141241.000,-0.119,0.976,-0.258,-7.172,-1.740,2.106,66.667,609.000,1.000,5.035,0.000
125402.500,119480.700,148994.500,417173.300,148741.100,144757.300,130531.600,141123.000,-0.117,0.977,-0.264,-7.599,-0.824,1.953,66.667,610.000,1.000,2.400,0.000
125408.200,119482.800,149000.800,417259.300,148816.000,144800.300,130583.200,141212.500,-0.117,0.980,-0.274,-7.721,0.244,1.648,66.667,611.000,1.000,2.548,0.000
125414.600,119490.000,149007.500,417397.900,148972.000,144907.900,130700.400,141368.800,-0.115,0.979,-0.283,-7.813,1.312,1.465,66.667,612.000,1.000,2.447,0.000
125424.900,119503.900,149015.800,417413.700,149006.800,144938.600,130735.400,141391.900,-0.114,0.966,-0.292,-7.660,2.289,1.282,66.667,613.000,1.000,6.327,0.000
125420.600,119495.100,149009.700,417281.200,148871.500,144850.900,130640.900,141249.400,-0.115,0.945,-0.295,-7.202,3.265,1.221,66.667,614.000,1.000,9.382,0.000
125425.200,119499.700,149018.700,417194.200,148755.400,144770.300,130550.200,141149.000,-0.132,0.917,-0.297,-6.226,4.333,1.038,66.667,615.000,1.000,0.011,0.000
125408.200,119488.200,149006.200,417247.800,148817.300,144806.700,130588.100,141226.600,-0.152,0.891,-0.294,-5.005,5.005,0.702,66.667,616.000,1.000,2.370,0.000
125395.400,119488.800,148998.300,417373.200,148963.200,144910.200,130698.000,141372.200,-0.171,0.871,-0.291,-3.632,5.493,0.275,66.667,617.000,1.000,0.008,0.000
125381.600,119463.600,148986.100,417380.900,148982.800,144927.700,130722.500,141380.800,-0.187,0.859,-0.288,-2.106,5.585,-0.427,66.667,618.000,1.000,13.239,0.000
125378.800,119464.400,148986.100,417255.900,148851.600,144835.900,130629.200,141244.300,-0.199,0.860,-0.280,-0.549,5.524,-1.007,66.667,619.000,1.000,4.992,0.000
125383.200,119479.600,148992.900,417158.600,148728.600,144747.300,130530.100,141135.500,-0.209,0.864,-0.275,0.916,5.249,-1.617,66.667,620.000,1.000,2.474,0.000
125381.800,119475.100,148992.200,417236.100,148796.500,144795.300,130570.900,141212.200,-0.219,0.876,-0.274,2.228,5.035,-2.228,66.667,621.000,1.000,2.515,0.000
125378.900,119473.100,148989.900,417366.800,148947.500,144907.700,130682.000,141358.600,-0.227,0.894,-0.277,3.052,4.547,-2.533,66.667,622.000,1.000,2.580,0.000
125388.000,119480.900,148997.800,417383.900,148982.700,144944.700,130716.000,141371.100,-0.231,0.911,-0.278,3.235,3.937,-2.594,66.667,623.000,1.000,2.444,0.000
125386.000,119468.600,148987.600,417250.400,148841.300,144832.900,130614.500,141220.400,-0.230,0.929,-0.280,3.479,3.082,-2.563,66.667,624.000,1.000,4.960,0.000
125401.300,119488.100,148995.500,417141.800,148720.000,144745.300,130522.500,141107.700,-0.222,0.945,-0.286,3.510,2.380,-2.716,66.667,625.000,1.000,6.788,0.000
125408.600,119489.600,149002.100,417213.800,148795.600,144795.000,130572.000,141195.400,-0.212,0.965,-0.282,3.418,1.648,-2.655,66.667,626.000,1.000,0.010,0.000
125396.500,119478.900,148993.800,417338.500,148943.400,144896.400,130678.800,141341.500,-0.197,0.979,-0.283,2.991,1.068,-2.594,66.667,627.000,1.000,1.877,0.000
125401.500,119477.700,148996.400,417347.000,148970.400,144924.300,130706.200,141351.200,-0.181,0.990,-0.283,2.380,0.702,-2.289,66.667,628.000,1.000,3.855,0.000
125399.000,119474.000,148989.700,417211.100,148827.200,144828.600,130607.400,141208.100,-0.173,1.001,-0.286,1.678,0.885,-1.526,66.667,629.000,1.000,9.286,0.000
125393.200,119471.900,148982.100,417097.300,148692.600,144729.400,130503.700,141085.500,-0.170,1.018,-0.292,0.793,0.977,-0.824,66.667,630.000,1.000,0.011,0.000
125393.000,119480.300,148984.000,417177.000,148768.200,144772.800,130549.800,141170.600,-0.163,1.034,-0.290,-0.397,1.068,-0.336,66.667,631.000,1.000,5.684,0.000
125404.500,119483.400,148995.000,417322.100,148944.100,144892.200,130684.300,141335.100,-0.159,1.045,-0.295,-1.709,1.251,0.458,66.667,632.000,1.000,11.255,0.000
125414.800,119491.200,149002.900,417339.300,148979.600,144919.100,130722.300,141360.300,-0.156,1.046,-0.292,-3.296,1.373,1.160,66.667,633.000,1.000,2.461,0.000
125420.900,119496.400,149006.500,417210.400,148850.300,144835.600,130631.500,141224.600,-0.154,1.041,-0.295,-4.944,1.526,1.984,66.667,634.000,1.000,2.561,0.000
125424.300,119499.900,149007.500,417102.500,148722.400,144743.100,130526.600,141101.500,-0.152,1.031,-0.298,-6.287,1.648,2.594,66.667,635.000,1.000,4.972,0.000
125420.400,119491.200,149004.100,417179.000,148788.300,144776.600,130552.600,141174.600,-0.154,1.020,-0.304,-7.324,1.831,3.204,66.667,636.000,1.000,10.019,0.000
125424.100,119494.100,149009.700,417322.300,148946.600,144886.300,130674.800,141331.300,-0.154,1.004,-0.309,-8.179,1.801,3.632,66.667,637.000,1.000,2.503,0.000
125432.500,119511.100,149019.200,417328.000,148981.000,144933.300,130721.800,141356.100,-0.153,0.982,-0.312,-8.698,1.831,3.693,66.667,638.000,1.000,3.058,0.000
125439.300,119523.300,149026.400,417205.200,148855.100,144858.900,130634.300,141229.500,-0.151,0.957,-0.306,-8.820,1.831,3.601,66.667,639.000,1.000,0.074,0.000
125421.500,119497.600,149008.600,417087.500,148709.500,144742.100,130512.100,141098.600,-0.146,0.931,-0.299,-8.514,2.014,3.326,66.667,640.000,1.000,4.288,0.000
125410.800,119497.600,149001.500,417160.300,148771.300,144779.100,130547.000,141176.100,-0.144,0.901,-0.292,-7.904,2.197,2.777,66.667,641.000,1.000,2.426,0.000
125402.100,119493.400,148993.300,417289.500,148916.500,144877.100,130651.700,141321.000,-0.146,0.880,-0.285,-6.958,2.502,2.136,66.667,642.000,1.000,2.521,0.000
125405.200,119468.800,148991.300,417302.900,148939.600,144891.700,130675.400,141339.100,-0.152,0.867,-0.282,-5.798,2.655,1.434,66.667,643.000,1.000,2.532,0.000
125404.100,119473.400,148987.000,417169.100,148801.700,144798.700,130578.400,141197.400,-0.159,0.863,-0.277,-4.456,2.777,0.793,66.667,644.000,1.000,7.528,0.000
125407.100,119490.100,148991.100,417064.200,148682.400,144713.700,130488.500,141087.700,-0.162,0.868,-0.273,-3.143,2.716,0.122,66.667,645.000,1.000,2.544,0.000
125408.000,119484.900,148993.500,417148.400,148762.800,144764.800,130542.700,141178.700,-0.160,0.883,-0.272,-1.892,2.594,-0.549,66.667,646.000,1.000,2.435,0.000
125413.800,119495.500,149001.200,417296.200,148926.800,144880.700,130663.900,141332.200,-0.157,0.900,-0.269,-0.916,2.441,-1.007,66.667,647.000,1.000,3.010,0.000
125405.500,119485.100,148992.200,417288.400,148944.800,144895.200,130683.000,141330.700,-0.152,0.917,-0.269,-0.214,2.411,-1.190,66.667,648.000,1.000,0.006,0.000
125406.500,119484.100,148991.500,417153.400,148808.200,144801.000,130587.500,141192.600,-0.145,0.934,-0.266,0.214,2.563,-1.495,66.667,649.000,1.000,1.952,0.000
125417.400,119495.000,149001.300,417059.300,148692.700,144717.400,130496.400,141091.700,-0.140,0.945,-0.267,0.488,2.747,-1.587,66.667,650.000,1.000,14.418,0.000
125410.400,119488.800,148994.700,417134.200,148762.400,144757.200,130535.600,141166.500,-0.134,0.959,-0.266,0.610,3.021,-1.556,66.667,651.000,1.000,0.013,0.000
125410.100,119497.100,148997.100,417276.900,148925.600,144872.700,130653.900,141322.300,-0.128,0.967,-0.266,0.641,3.418,-1.556,66.667,652.000,1.000,1.846,0.000
125409.700,119490.700,148995.800,417278.500,148952.800,144898.800,130676.500,141332.400,-0.125,0.972,-0.272,0.366,3.784,-1.251,66.667,653.000,1.000,2.495,0.000
125414.700,119487.400,149000.000,417157.700,148824.400,144815.900,130583.900,141198.300,-0.124,0.976,-0.281,0.305,4.395,-1.099,66.667,654.000,1.000,8.759,0.000
125417.600,119495.100,149003.200,417058.000,148703.000,144727.000,130488.100,141089.700,-0.122,0.981,-0.295,0.336,4.913,-0.885,66.667,655.000,1.000,6.842,0.000
125410.100,119487.500,148996.100,417129.300,148771.000,144759.600,130532.800,141174.000,-0.121,0.984,-0.298,0.214,5.524,-0.702,66.667,656.000,1.000,0.013,0.000
125409.300,119501.600,148998.900,417269.300,148930.000,144874.600,130648.800,141328.400,-0.119,0.979,-0.298,0.183,5.859,-0.519,66.667,657.000,1.000,1.876,0.000
125409.300,119499.200,149001.500,417275.500,148953.000,144898.000,130674.000,141339.800,-0.113,0.963,-0.292,0.000,6.287,-0.122,66.667,658.000,1.000,2.522,0.000
125415.800,119504.100,149010.700,417155.400,148821.300,144808.300,130585.700,141210.300,-0.111,0.947,-0.287,0.122,6.958,0.214,66.667,659.000,1.000,8.677,0.000
125413.500,119497.700,149007.400,417051.000,148690.000,144704.500,130484.100,141094.600,-0.114,0.931,-0.284,0.061,7.568,0.519,66.667,660.000,1.000,3.210,0.000
125407.700,119493.700,149001.800,417124.200,148761.100,144745.500,130528.700,141175.800,-0.119,0.919,-0.282,0.244,8.087,0.793,66.667,661.000,1.000,0.013,0.000
125416.200,119507.800,149011.500,417276.200,148933.800,144876.600,130657.300,141341.300,-0.128,0.910,-0.279,0.488,8.606,0.885,66.667,662.000,1.000,5.617,0.000
125418.200,119508.900,149009.400,417286.300,148960.200,144900.800,130683.100,141348.500,-0.136,0.911,-0.275,0.763,8.911,0.824,66.667,663.000,1.000,8.030,0.000
125407.700,119494.800,148995.500,417142.700,148819.100,144808.600,130584.900,141202.900,-0.145,0.915,-0.276,1.038,8.972,0.641,66.667,664.000,1.000,0.010,0.000
125409.500,119504.400,148996.500,417040.100,148697.600,144719.300,130491.600,141096.000,-0.153,0.917,-0.273,1.068,9.033,0.366,66.667,665.000,1.000,1.933,0.000
125424.200,119523.100,149012.200,417134.300,148789.200,144781.500,130552.900,141198.500,-0.162,0.923,-0.279,1.129,8.942,0.061,66.667,666.000,1.000,9.318,0.000
125402.500,119493.200,148993.600,417253.800,148932.400,144878.500,130654.700,141342.300,-0.171,0.930,-0.279,0.946,8.881,-0.275,66.667,667.000,1.000,0.009,0.000
125396.700,119495.500,148990.600,417252.800,148948.300,144898.000,130679.800,141343.300,-0.177,0.940,-0.283,0.702,8.362,-0.610,66.667,668.000,1.000,1.856,0.000
125402.900,119497.400,148995.000,417126.600,148813.800,144806.900,130594.600,141205.900,-0.179,0.952,-0.281,0.519,7.843,-0.916,66.667,669.000,1.000,6.246,0.000
125401.700,119495.200,148994.000,417020.000,148683.500,144708.700,130495.800,141089.500,-0.179,0.963,-0.281,0.183,7.324,-1.282,66.667,670.000,1.000,9.375,0.000
125398.000,119490.200,148992.100,417099.000,148757.500,144751.500,130542.200,141164.600,-0.174,0.977,-0.281,-0.305,6.744,-1.526,66.667,671.000,1.000,0.011,0.000
125392.300,119489.200,148986.800,417233.100,148907.300,144853.100,130651.400,141319.000,-0.169,0.988,-0.281,-1.160,6.317,-1.678,66.667,672.000,1.000,8.760,0.000
125396.300,119496.700,148987.300,417235.400,148928.200,144879.400,130672.800,141323.300,-0.166,0.992,-0.279,-1.953,6.073,-1.740,66.667,673.000,1.000,0.013,0.000
125393.100,119488.200,148978.200,417096.200,148781.900,144761.300,130551.800,141168.300,-0.159,0.990,-0.284,-2.716,5.920,-1.678,66.667,674.000,1.000,2.475,0.000
125404.300,119486.900,148985.900,417006.200,148663.600,144663.400,130441.600,141050.200,-0.152,0.979,-0.284,-3.265,5.829,-1.526,66.667,675.000,1.000,0.010,0.000
125404.600,119500.700,148992.400,417087.900,148749.300,144718.000,130506.000,141153.200,-0.147,0.966,-0.287,-3.571,5.737,-1.465,66.667,676.000,1.000,18.168,0.000
125381.500,119471.400,148969.100,417206.400,148886.600,144811.000,130606.600,141286.800,-0.143,0.953,-0.285,-3.693,5.737,-1.282,66.667,677.000,1.000,4.935,0.000
125376.700,119450.900,148957.900,417199.400,148896.800,144827.900,130629.300,141289.300,-0.141,0.940,-0.284,-3.601,5.798,-0.946,66.667,678.000,1.000,0.017,0.000
125377.400,119463.200,148959.900,417072.400,148763.700,144741.600,130541.100,141155.200,-0.141,0.932,-0.288,-3.357,6.073,-0.610,66.667,679.000,1.000,0.006,0.000
125390.000,119479.800,148972.200,416978.700,148652.900,144667.000,130464.500,141058.400,-0.144,0.923,-0.293,-2.716,6.287,-0.427,66.667,680.000,1.000,6.886,0.000
125391.100,119484.700,148976.200,417062.400,148734.300,144719.200,130522.800,141153.400,-0.146,0.909,-0.295,-2.014,6.470,-0.183,66.667,681.000,1.000,0.009,0.000
125381.600,119482.200,148971.700,417196.400,148887.100,144827.800,130634.000,141307.100,-0.149,0.895,-0.292,-1.129,6.653,-0.092,66.667,682.000,1.000,1.897,0.000
125375.100,119480.200,148967.400,417190.200,148903.200,144848.500,130651.500,141315.000,-0.156,0.881,-0.285,-0.061,6.714,-0.031,66.667,683.000,1.000,15.568,0.000
125370.000,119472.000,148961.700,417064.300,148764.700,144755.400,130551.100,141176.700,-0.163,0.870,-0.280,1.038,6.775,0.000,66.667,684.000,1.000,0.014,0.000
125383.100,119478.700,148973.800,416984.700,148654.600,144678.200,130467.700,141077.300,-0.168,0.863,-0.275,2.228,6.897,-0.214,66.667,685.000,1.000,7.028,0.000
125382.700,119492.000,148977.400,417068.900,148738.900,144734.200,130522.000,141170.900,-0.178,0.866,-0.269,3.357,6.866,-0.427,66.667,686.000,1.000,0.010,0.000
125370.300,119482.100,148968.200,417192.900,148890.900,144841.800,130635.600,141319.100,-0.188,0.874,-0.267,4.242,6.622,-0.610,66.667,687.000,1.000,0.006,0.000
125368.200,119479.500,148965.900,417194.700,148907.300,144865.600,130657.400,141320.500,-0.196,0.887,-0.265,5.035,6.348,-0.732,66.667,688.000,1.000,2.917,0.000
125373.900,119487.200,148967.100,417068.700,148772.900,144766.300,130564.000,141180.500,-0.206,0.902,-0.263,5.585,5.859,-1.007,66.667,689.000,1.000,0.014,0.000
125374.800,119482.500,148966.700,416968.100,148650.900,144673.100,130473.800,141071.300,-0.214,0.921,-0.262,5.798,5.249,-1.251,66.667,690.000,1.000,1.922,0.000
125384.300,119498.300,148976.300,417060.900,148735.000,144730.900,130530.100,141166.400,-0.218,0.940,-0.264,5.768,4.517,-1.648,66.667,691.000,1.000,13.745,0.000
125382.700,119489.400,148973.000,417202.500,148893.200,144849.100,130645.300,141318.500,-0.220,0.957,-0.269,5.707,3.815,-2.136,66.667,692.000,1.000,5.573,0.000
125370.700,119458.100,148956.400,417187.500,148902.500,144860.000,130658.700,141311.000,-0.217,0.973,-0.264,5.188,3.143,-2.258,66.667,693.000,1.000,0.006,0.000
125379.700,119484.700,148964.900,417059.300,148773.500,144770.800,130566.900,141172.500,-0.216,0.986,-0.261,4.150,2.594,-2.167,66.667,694.000,1.000,1.869,0.000
125382.700,119475.200,148968.900,416969.700,148656.600,144684.300,130474.400,141067.200,-0.209,0.996,-0.259,3.052,1.892,-2.075,66.667,695.000,1.000,2.564,0.000
125388.200,119488.800,148976.200,417048.500,148741.100,144734.200,130527.800,141158.200,-0.203,1.003,-0.261,1.770,1.343,-1.923,66.667,696.000,1.000,6.229,0.000
125385.900,119478.900,148978.300,417195.400,148905.900,144848.500,130649.400,141317.400,-0.195,1.009,-0.267,0.366,0.977,-1.740,66.667,697.000,1.000,2.516,0.000
125379.000,119476.900,148973.100,417189.700,148922.000,144867.600,130670.000,141318.400,-0.188,1.013,-0.271,-1.129,0.793,-1.434,66.667,698.000,1.000,4.382,0.000
125371.700,119471.600,148965.100,417048.400,148778.000,144764.800,130563.600,141168.800,-0.182,1.016,-0.275,-2.350,0.854,-1.282,66.667,699.000,1.000,0.015,0.000
125376.900,119478.900,148968.600,416946.700,148659.900,144672.900,130467.900,141057.500,-0.175,1.018,-0.282,-3.479,0.885,-0.977,66.667,700.000,1.000,10.543,0.000
125384.800,119486.200,148976.700,417042.400,148748.500,144732.600,130532.900,141161.100,-0.166,1.017,-0.291,-4.608,0.977,-0.702,66.667,701.000,1.000,3.138,0.000
125390.000,119497.600,148982.200,417188.800,148907.100,144847.600,130657.700,141316.900,-0.152,1.013,-0.298,-5.646,1.160,-0.336,66.667,702.000,1.000,0.008,0.000
125381.600,119478.800,148974.300,417170.900,148916.400,144863.900,130674.400,141321.600,-0.140,1.006,-0.301,-6.622,1.801,0.153,66.667,703.000,1.000,8.164,0.000
125388.700,119498.500,148983.800,417038.000,148784.400,144788.300,130590.400,141192.700,-0.129,0.990,-0.301,-7.202,2.380,0.580,66.667,704.000,1.000,3.097,0.000
125394.800,119505.300,148987.500,416937.400,148661.800,144696.500,130482.500,141069.100,-0.117,0.970,-0.295,-7.782,3.143,1.099,66.667,705.000,1.000,0.007,0.000
125379.200,119478.600,148973.600,417012.000,148724.800,144723.500,130503.600,141139.300,-0.115,0.949,-0.291,-8.179,3.937,1.648,66.667,706.000,1.000,1.873,0.000
125378.100,119482.500,148976.100,417148.200,148879.900,144828.900,130619.900,141296.400,-0.117,0.922,-0.287,-8.148,4.944,2.075,66.667,707.000,1.000,8.743,0.000
125379.900,119492.400,148977.300,417142.200,148897.000,144851.700,130638.000,141298.600,-0.123,0.896,-0.285,-7.751,5.768,2.594,66.667,708.000,1.000,8.716,0.000
125383.700,119501.000,148980.500,417022.000,148763.300,144765.400,130540.900,141161.400,-0.132,0.881,-0.282,-7.111,6.622,2.716,66.667,709.000,1.000,2.541,0.000
125379.100,119506.100,148977.600,416924.300,148643.200,144679.800,130451.700,141052.000,-0.143,0.876,-0.278,-6.287,7.294,2.930,66.667,710.000,1.000,2.480,0.000
125375.700,119477.100,148971.500,417011.700,148727.900,144730.100,130508.300,141148.400,-0.151,0.882,-0.277,-5.402,7.782,2.808,66.667,711.000,1.000,2.531,0.000
125377.700,119481.300,148972.700,417151.900,148887.800,144839.900,130619.800,141298.700,-0.157,0.893,-0.269,-4.700,8.118,2.563,66.667,712.000,1.000,2.417,0.000
125379.500,119488.200,148977.000,417157.900,148911.300,144861.300,130645.700,141309.300,-0.165,0.902,-0.259,-4.120,8.087,2.441,66.667,713.000,1.000,9.421,0.000
125383.300,119496.700,148981.500,417029.800,148781.600,144772.800,130560.500,141171.200,-0.167,0.911,-0.255,-3.845,8.148,1.953,66.667,714.000,1.000,0.016,0.000
125391.300,119508.500,148991.100,416937.500,148671.300,144693.000,130479.500,141071.800,-0.168,0.921,-0.260,-3.571,7.965,1.465,66.667,715.000,1.000,1.901,0.000
125390.400,119516.500,148995.100,417024.800,148757.900,144747.500,130536.300,141168.600,-0.166,0.930,-0.263,-3.448,7.965,1.099,66.667,716.000,1.000,8.696,0.000
125387.600,119494.300,148991.000,417165.800,148914.600,144856.000,130650.800,141319.600,-0.166,0.939,-0.263,-3.357,7.721,0.885,66.667,717.000,1.000,3.082,0.000
125382.500,119496.800,148985.000,417152.100,148925.800,144866.700,130666.200,141319.700,-0.168,0.947,-0.266,-3.265,7.507,0.671,66.667,718.000,1.000,0.010,0.000
125379.500,119494.800,148981.500,417022.600,148789.100,144775.300,130571.200,141175.300,-0.174,0.954,-0.267,-3.326,7.263,0.519,66.667,719.000,1.000,15.011,0.000
125394.200,119495.600,148990.400,416943.400,148678.400,144693.000,130485.400,141070.200,-0.177,0.959,-0.268,-3.479,6.897,0.244,66.667,720.000,1.000,0.016,0.000
125396.200,119504.200,148991.500,417023.100,148761.200,144744.900,130539.300,141160.500,-0.172,0.960,-0.272,-3.754,6.622,0.061,66.667,721.000,1.000,1.859,0.000
125387.300,119504.900,148984.400,417145.900,148914.200,144855.300,130653.900,141311.400,-0.165,0.956,-0.277,-3.845,6.409,-0.153,66.667,722.000,1.000,3.706,0.000
125379.100,119493.400,148977.200,417130.100,148919.700,144869.100,130670.800,141306.900,-0.159,0.949,-0.279,-3.784,6.256,-0.275,66.667,723.000,1.000,6.285,0.000
125397.200,119503.900,148990.800,417019.600,148790.100,144786.700,130581.400,141177.700,-0.154,0.944,-0.278,-3.723,6.348,-0.366,66.667,724.000,1.000,3.760,0.000
125395.900,119504.600,148988.600,416914.500,148667.600,144695.500,130488.100,141069.600,-0.151,0.941,-0.280,-3.510,6.226,-0.519,66.667,725.000,1.000,3.143,0.000
125386.900,119504.900,148983.000,416992.400,148746.000,144741.300,130538.800,141162.100,-0.151,0.937,-0.280,-3.571,6.287,-0.519,66.667,726.000,1.000,0.011,0.000
125376.400,119486.300,148974.700,417126.700,148901.400,144850.800,130651.200,141316.900,-0.151,0.933,-0.281,-3.296,6.348,-0.488,66.667,727.000,1.000,13.794,0.000
125383.300,119488.700,148981.900,417135.700,148925.900,144877.700,130682.700,141321.100,-0.153,0.929,-0.282,-3.265,6.622,-0.549,66.667,728.000,1.000,0.012,0.000
125383.500,119487.600,148976.500,417002.600,148784.500,144785.300,130586.300,141175.000,-0.157,0.927,-0.284,-3.021,6.683,-0.549,66.667,729.000,1.000,2.420,0.000
125387.100,119491.300,148977.800,416911.300,148667.700,144706.900,130498.400,141066.800,-0.158,0.929,-0.285,-2.777,6.622,-0.671,66.667,730.000,1.000,0.017,0.000
125388.600,119478.800,148977.600,417004.500,148756.300,144754.500,130548.400,141162.800,-0.160,0.931,-0.287,-2.655,6.470,-0.977,66.667,731.000,1.000,1.871,0.000
125374.200,119475.500,148964.800,417118.800,148901.400,144846.900,130639.000,141303.500,-0.158,0.933,-0.282,-2.502,6.531,-1.099,66.667,732.000,1.000,2.552,0.000
125374.000,119475.700,148960.300,417104.200,148906.100,144853.300,130640.400,141296.500,-0.157,0.937,-0.279,-2.197,6.653,-1.373,66.667,733.000,1.000,8.653,0.000
125384.300,119477.200,148964.200,416977.100,148768.500,144764.900,130541.000,141150.100,-0.158,0.942,-0.277,-1.923,6.897,-1.648,66.667,734.000,1.000,8.089,0.000
125397.500,119507.900,148978.900,416903.800,148659.700,144687.100,130453.200,141045.500,-0.158,0.950,-0.282,-1.831,6.958,-1.801,66.667,735.000,1.000,0.009,0.000
125385.400,119494.100,148969.600,416969.400,148737.100,144732.000,130509.400,141138.300,-0.157,0.959,-0.283,-1.770,6.927,-1.984,66.667,736.000,1.000,1.908,0.000
125379.100,119465.300,148965.100,417108.700,148897.000,144844.900,130633.900,141301.600,-0.157,0.965,-0.284,-1.801,7.080,-2.075,66.667,737.000,1.000,2.563,0.000
125375.200,119469.300,148961.700,417101.500,148906.700,144860.400,130651.700,141298.300,-0.154,0.971,-0.283,-1.923,7.141,-1.984,66.667,738.000,1.000,3.751,0.000
125376.900,119480.500,148961.200,416967.700,148766.500,144767.500,130553.200,141159.600,-0.152,0.974,-0.283,-2.106,7.172,-1.953,66.667,739.000,1.000,14.338,0.000
125385.500,119480.500,148968.700,416884.200,148657.700,144688.800,130469.200,141062.600,-0.149,0.975,-0.282,-2.350,7.263,-1.831,66.667,740.000,1.000,0.019,0.000
125379.700,119490.300,148969.600,416973.200,148741.300,144739.000,130522.700,141159.200,-0.151,0.974,-0.280,-2.411,7.416,-1.770,66.667,741.000,1.000,29.384,0.000
125374.300,119486.300,148968.500,417102.300,148900.600,144855.600,130643.400,141312.500,-0.157,0.972,-0.286,-2.319,7.477,-1.770,66.667,742.000,1.000,0.017,0.000
125366.600,119460.000,148959.500,417090.900,148909.600,144863.400,130658.600,141303.100,-0.164,0.969,-0.289,-2.380,7.507,-1.831,66.667,743.000,1.000,0.003,0.000
125378.800,119482.400,148969.900,416966.100,148780.900,144777.400,130568.500,141172.300,-0.168,0.966,-0.292,-2.350,7.446,-1.953,66.667,744.000,1.000,2.479,0.000
125386.800,119489.400,148977.200,416889.900,148672.100,144702.600,130482.000,141078.300,-0.169,0.961,-0.293,-2.258,7.294,-2.045,66.667,745.000,1.000,3.711,0.000
125385.800,119496.500,148977.100,416978.800,148758.600,144757.300,130537.700,141173.400,-0.167,0.954,-0.292,-1.984,7.050,-2.106,66.667,746.000,1.000,0.010,0.000
