EEG 1, EEG 2, EEG 3, EEG 4, EEG 5, EEG 6, EEG 7, EEG 8, ACC X, ACC Y, ACC Z, GYR X, GYR Y, GYR Z, BAT, CNT, VALID, DT, TRIG
750000.100,750000.100,750000.100,750000.100,750000.100,750000.100,750000.100,750000.100,-0.068,0.884,-0.412,0.000,0.000,0.000,66.667,1.000,1.000,0.000,0.000
750000.100,750000.100,564814.800,750000.100,549948.300,637371.800,750000.100,750000.100,-0.066,0.897,-0.425,0.000,0.000,0.000,66.667,2.000,1.000,15.609,0.000
689152.700,750000.100,272892.100,702951.800,-171595.100,295452.300,750000.100,698678.900,-0.069,0.904,-0.429,0.000,0.000,0.000,66.667,3.000,1.000,2.494,0.000
650744.300,750000.100,244863.200,657068.100,-439592.600,179669.100,750000.100,618572.800,-0.076,0.906,-0.432,0.000,0.000,0.000,66.667,4.000,1.000,2.466,0.000
660978.600,750000.100,292280.600,686379.400,-648454.100,319192.100,750000.100,670733.900,-0.081,0.905,-0.436,-1.556,3.571,-3.174,66.667,5.000,1.000,2.460,0.000
700341.500,750000.100,404594.100,733270.400,-750000.100,515892.600,750000.100,750000.100,-0.086,0.904,-0.440,11.383,7.904,-1.282,66.667,6.000,1.000,3.702,0.000
750000.100,750000.100,549951.400,750000.100,184073.000,598044.400,750000.100,750000.100,-0.092,0.902,-0.436,16.418,8.453,0.092,66.667,7.000,1.000,14.492,0.000
750000.100,750000.100,750000.100,750000.100,750000.100,674650.900,750000.100,750000.100,-0.097,0.894,-0.438,18.219,8.392,0.549,66.667,8.000,1.000,0.019,0.000
750000.100,750000.100,750000.100,750000.100,750000.100,750000.100,750000.100,750000.100,-0.099,0.888,-0.439,18.799,8.148,0.519,66.667,9.000,1.000,1.649,0.000
750000.100,750000.100,750000.100,750000.100,750000.100,750000.100,750000.100,750000.100,-0.099,0.878,-0.440,19.196,7.874,0.641,66.667,10.000,1.000,7.715,0.000
750000.100,750000.100,750000.100,750000.100,750000.100,750000.100,750000.100,750000.100,-0.098,0.872,-0.439,19.440,7.446,0.641,66.667,11.000,1.000,2.428,0.000
750000.100,750000.100,750000.100,750000.100,750000.100,750000.100,750000.100,750000.100,-0.100,0.863,-0.442,19.867,7.019,0.702,66.667,12.000,1.000,2.503,0.000
663394.400,642393.300,750000.100,739811.800,638892.800,699320.800,669031.900,649003.300,-0.098,0.860,-0.445,20.233,6.439,0.580,66.667,13.000,1.000,2.419,0.000
553322.600,535816.800,695811.800,616847.900,532930.900,583076.100,558214.200,541314.400,-0.097,0.862,-0.446,20.660,6.042,0.610,66.667,14.000,1.000,4.370,0.000
469492.400,454577.800,589904.100,523279.600,452214.400,494474.600,473836.300,459283.500,-0.094,0.864,-0.449,20.996,5.402,0.610,66.667,15.000,1.000,0.008,0.000
402575.600,389616.700,505451.600,448639.800,387740.000,423747.400,406534.400,393785.500,-0.090,0.865,-0.449,21.149,4.883,0.671,66.667,16.000,1.000,8.243,0.000
347502.500,336139.600,436098.600,387370.400,334719.500,365502.100,351229.400,340011.300,-0.092,0.867,-0.450,21.332,4.395,0.854,66.667,17.000,1.000,4.311,0.000
301924.300,291598.500,378432.600,336498.200,290787.100,317367.600,305241.500,295376.200,-0.089,0.869,-0.451,21.576,3.937,1.007,66.667,18.000,1.000,0.011,0.000
264055.500,255228.600,330828.300,294426.800,254364.800,277689.800,267004.700,258281.000,-0.087,0.874,-0.454,21.637,3.479,1.190,66.667,19.000,1.000,5.686,0.000
239870.200,231929.800,300406.000,267550.300,231111.500,252188.800,242573.500,234589.400,-0.087,0.877,-0.454,21.576,3.021,1.404,66.667,20.000,1.000,3.670,0.000
230567.000,222897.400,288671.700,257063.700,222154.800,242370.300,233207.300,225480.200,-0.088,0.881,-0.459,21.484,2.686,1.404,66.667,21.000,1.000,14.378,0.000
223953.700,216488.500,280327.400,249696.100,215787.200,235398.600,226545.000,218999.300,-0.088,0.885,-0.459,21.454,2.411,1.404,66.667,22.000,1.000,0.019,0.000
217828.300,210559.900,272627.300,242912.300,209896.800,228960.900,220372.400,213011.200,-0.091,0.891,-0.460,21.271,2.014,1.190,66.667,23.000,1.000,1.899,0.000
212209.200,205115.900,265560.300,236647.700,204470.300,223059.200,214697.800,207510.500,-0.090,0.901,-0.465,21.027,1.709,0.977,66.667,24.000,1.000,2.488,0.000
207046.100,200109.500,259068.000,230877.300,199482.800,217641.700,209481.500,202450.400,-0.086,0.910,-0.468,20.599,1.404,0.763,66.667,25.000,1.000,2.441,0.000
202258.700,195489.600,253070.300,225536.600,194877.700,212622.800,204634.200,197769.900,-0.084,0.912,-0.474,19.928,1.221,0.641,66.667,26.000,1.000,3.798,0.000
197832.400,191211.200,247519.300,220592.800,190614.500,207970.800,200137.200,193443.500,-0.079,0.913,-0.475,19.318,1.099,0.458,66.667,27.000,1.000,11.809,0.000
193751.300,187267.800,242388.000,216018.300,186676.600,203677.900,195983.000,189445.400,-0.075,0.909,-0.478,18.463,0.946,0.336,66.667,28.000,1.000,0.024,0.000
189949.600,183597.600,237615.700,211761.600,183015.900,199690.800,192133.700,185732.500,-0.071,0.904,-0.479,17.883,0.977,0.305,66.667,29.000,1.000,1.829,0.000
186398.100,180165.300,233159.000,207785.600,179593.900,195966.600,188535.100,182262.000,-0.064,0.904,-0.482,17.334,1.129,0.122,66.667,30.000,1.000,2.604,0.000
183095.800,176974.500,229009.000,204080.000,176411.500,192506.700,185191.400,179033.400,-0.055,0.905,-0.482,16.998,1.526,0.153,66.667,31.000,1.000,3.673,0.000
180012.800,173994.600,225133.000,200618.900,173437.800,189263.200,182057.900,176018.500,-0.047,0.908,-0.483,16.479,1.862,0.092,66.667,32.000,1.000,14.368,0.000
177124.300,171200.900,221500.500,197379.700,170651.500,186220.500,179120.800,173192.500,-0.042,0.907,-0.486,15.900,2.502,0.214,66.667,33.000,1.000,0.020,0.000
174421.000,168588.500,218100.900,194348.100,168046.600,183384.400,176381.200,170552.000,-0.042,0.905,-0.485,15.259,3.052,0.244,66.667,34.000,1.000,2.452,0.000
171895.900,166148.800,214921.500,191508.700,165611.900,180728.100,173811.500,168073.400,-0.043,0.899,-0.489,14.771,3.662,0.366,66.667,35.000,1.000,0.012,0.000
169515.900,163849.800,211927.500,188842.400,163320.100,178228.900,171400.300,165746.000,-0.045,0.894,-0.487,14.404,4.364,0.397,66.667,36.000,1.000,9.437,0.000
167285.200,161687.700,209111.200,186341.000,161165.300,175880.700,169141.000,163564.400,-0.047,0.890,-0.485,14.038,4.944,0.366,66.667,37.000,1.000,3.049,0.000
165187.500,159656.200,206462.200,183981.500,159134.700,173671.500,167005.800,161508.500,-0.050,0.884,-0.485,13.794,5.585,0.336,66.667,38.000,1.000,0.013,0.000
163212.100,157741.400,203970.500,181763.500,157224.600,171584.800,164994.900,159573.500,-0.056,0.883,-0.489,13.641,6.104,0.061,66.667,39.000,1.000,8.756,0.000
161355.700,155945.900,201630.700,179681.500,155434.400,169627.200,163113.600,157755.800,-0.059,0.880,-0.490,13.580,6.622,-0.061,66.667,40.000,1.000,0.034,0.000
159604.400,154256.900,199422.200,177711.700,153744.300,167788.400,161338.700,156038.300,-0.063,0.881,-0.485,13.458,6.866,-0.305,66.667,41.000,1.000,8.712,0.000
157953.400,152657.600,197334.300,175857.600,152150.800,166045.600,159663.300,154420.600,-0.065,0.878,-0.487,13.489,7.233,-0.336,66.667,42.000,1.000,0.012,0.000
156384.600,151130.300,195349.000,174095.100,150632.600,164385.100,158069.200,152883.300,-0.070,0.878,-0.488,13.397,7.385,-0.336,66.667,43.000,1.000,6.168,0.000
154906.400,149699.800,193479.900,172429.000,149203.400,162831.800,156570.800,151433.800,-0.071,0.874,-0.490,13.306,7.477,-0.427,66.667,44.000,1.000,0.010,0.000
153493.100,148335.700,191700.500,170845.200,147841.900,161349.900,155137.900,150051.500,-0.073,0.874,-0.493,13.214,7.507,-0.549,66.667,45.000,1.000,8.812,0.000
152172.600,147061.300,190033.900,169363.500,146574.600,159960.200,153805.300,148767.000,-0.074,0.872,-0.499,13.062,7.538,-0.702,66.667,46.000,1.000,0.017,0.000
150906.900,145840.600,188444.500,167950.700,145360.800,158624.500,152530.500,147531.900,-0.074,0.870,-0.495,13.123,7.446,-0.885,66.667,47.000,1.000,6.198,0.000
149710.800,144684.100,186940.600,166614.500,144213.000,157366.100,151320.500,146361.500,-0.076,0.870,-0.496,13.000,7.385,-1.099,66.667,48.000,1.000,0.012,0.000
148592.000,143602.600,185525.400,165356.300,143138.400,156195.600,150193.100,145268.500,-0.078,0.870,-0.499,12.848,7.416,-1.343,66.667,49.000,1.000,6.293,0.000
147511.300,142560.600,184163.500,164143.200,142100.200,155065.000,149104.500,144207.100,-0.082,0.869,-0.497,12.665,7.477,-1.465,66.667,50.000,1.000,0.019,0.000
146467.800,141553.300,182852.900,162976.000,141094.300,153974.200,148048.400,143186.700,-0.083,0.866,-0.501,12.573,7.324,-1.648,66.667,51.000,1.000,10.607,0.000
145490.800,140613.700,181623.600,161886.200,140157.300,152957.200,147067.400,142244.000,-0.082,0.865,-0.499,12.665,7.141,-1.678,66.667,52.000,1.000,4.384,0.000
144568.500,139722.900,180460.800,160855.500,139269.900,151988.200,146143.300,141346.900,-0.086,0.862,-0.502,12.634,7.080,-1.862,66.667,53.000,1.000,0.012,0.000
143689.200,138872.400,179349.500,159866.900,138419.800,151063.900,145256.900,140483.300,-0.086,0.863,-0.500,12.543,6.866,-2.014,66.667,54.000,1.000,8.693,0.000
142849.500,138055.400,178288.800,158926.500,137604.600,150164.900,144387.600,139656.900,-0.089,0.863,-0.501,12.421,6.775,-2.014,66.667,55.000,1.000,0.017,0.000
142067.600,137305.300,177302.500,158050.200,136857.200,149351.100,143601.100,138895.500,-0.091,0.863,-0.502,12.177,6.561,-2.106,66.667,56.000,1.000,8.737,0.000
141329.600,136596.300,176369.900,157223.500,136155.800,148588.700,142871.900,138181.500,-0.091,0.861,-0.503,11.932,6.470,-2.045,66.667,57.000,1.000,0.011,0.000
140599.600,135891.900,175453.000,156407.300,135457.300,147825.100,142137.100,137478.000,-0.094,0.860,-0.505,11.902,6.287,-2.197,66.667,58.000,1.000,2.484,0.000
139901.900,135221.200,174575.900,155628.900,134789.500,147100.600,141440.800,136801.900,-0.090,0.860,-0.501,11.658,6.256,-2.197,66.667,59.000,1.000,0.006,0.000
139252.300,134598.900,173753.800,154901.700,134166.300,146422.200,140791.000,136169.000,-0.089,0.865,-0.500,11.444,6.165,-2.075,66.667,60.000,1.000,8.130,0.000
138629.500,134004.300,172968.500,154204.800,133572.400,145776.400,140169.200,135569.200,-0.085,0.868,-0.502,11.292,6.226,-1.923,66.667,61.000,1.000,4.280,0.000
138028.400,133423.700,172213.100,153536.800,132998.000,145149.100,139567.000,134987.400,-0.084,0.868,-0.501,11.108,6.378,-1.801,66.667,62.000,1.000,0.009,0.000
137475.600,132891.300,171512.200,152914.500,132466.500,144569.200,139010.200,134449.200,-0.083,0.865,-0.504,10.895,6.439,-1.740,66.667,63.000,1.000,1.939,0.000
136951.600,132389.900,170846.400,152323.100,131963.300,144019.500,138483.600,133939.200,-0.082,0.867,-0.506,10.712,6.500,-1.556,66.667,64.000,1.000,10.049,0.000
136465.500,131919.800,170223.700,151771.800,131496.900,143510.100,137996.300,133463.300,-0.080,0.867,-0.509,10.529,6.775,-1.343,66.667,65.000,1.000,2.512,0.000
135976.700,131449.300,169604.600,151218.000,131026.000,142995.700,137500.300,132982.900,-0.079,0.870,-0.508,10.529,6.989,-1.038,66.667,66.000,1.000,3.633,0.000
135502.600,130992.800,169006.900,150684.300,130570.000,142497.800,137019.600,132516.300,-0.079,0.872,-0.511,10.437,7.202,-0.885,66.667,67.000,1.000,9.456,0.000
135057.200,130562.400,168443.000,150182.500,130142.900,142035.200,136575.300,132082.700,-0.079,0.875,-0.510,10.132,7.324,-0.732,66.667,68.000,1.000,0.008,0.000
134626.900,130144.100,167898.600,149700.900,129728.800,141582.300,136138.900,131663.400,-0.080,0.874,-0.509,9.796,7.690,-0.641,66.667,69.000,1.000,1.920,0.000
134225.700,129760.500,167389.100,149249.600,129344.400,141164.300,135737.600,131271.500,-0.078,0.870,-0.515,9.460,7.935,-0.580,66.667,70.000,1.000,2.437,0.000
133850.400,129401.000,166909.500,148823.900,128984.700,140775.900,135360.500,130905.100,-0.080,0.864,-0.521,9.247,8.148,-0.275,66.667,71.000,1.000,8.755,0.000
133495.200,129058.200,166455.800,148422.400,128644.000,140407.200,134997.400,130560.000,-0.079,0.861,-0.521,9.003,8.392,-0.336,66.667,72.000,1.000,3.107,0.000
133149.200,128722.400,166012.500,148031.200,128308.300,140029.800,134643.500,130219.300,-0.080,0.858,-0.523,8.911,8.575,-0.366,66.667,73.000,1.000,0.022,0.000
132818.400,128399.500,165590.000,147657.600,127991.500,139678.200,134310.800,129895.200,-0.078,0.855,-0.526,8.911,8.759,-0.366,66.667,74.000,1.000,5.608,0.000
132506.400,128103.100,165191.700,147302.900,127694.000,139355.200,133997.600,129591.000,-0.077,0.852,-0.528,9.003,9.003,-0.305,66.667,75.000,1.000,8.663,0.000
132193.000,127798.100,164792.800,146949.500,127389.700,139020.700,133668.700,129279.000,-0.080,0.851,-0.530,8.881,9.216,-0.305,66.667,76.000,1.000,4.378,0.000
131929.100,127538.900,164448.800,146645.400,127137.200,138743.000,133401.400,129021.700,-0.080,0.849,-0.529,8.972,9.338,-0.305,66.667,77.000,1.000,0.008,0.000
131658.800,127275.900,164101.500,146340.100,126875.600,138455.500,133128.200,128757.100,-0.083,0.847,-0.533,8.881,9.583,-0.183,66.667,78.000,1.000,3.673,0.000
131389.900,127014.000,163756.000,146033.700,126615.200,138173.000,132856.800,128495.600,-0.087,0.848,-0.538,8.850,9.705,-0.305,66.667,79.000,1.000,0.006,0.000
131142.500,126770.900,163432.300,145748.200,126373.500,137904.800,132601.800,128252.600,-0.085,0.851,-0.533,8.789,9.735,-0.183,66.667,80.000,1.000,5.735,0.000
130905.600,126541.800,163125.000,145474.500,126142.600,137659.100,132358.300,128015.700,-0.086,0.854,-0.529,8.606,9.644,-0.031,66.667,81.000,1.000,8.744,0.000
130672.900,126314.800,162822.700,145208.200,125911.700,137405.400,132115.300,127775.500,-0.086,0.853,-0.527,8.270,9.644,0.061,66.667,82.000,1.000,3.082,0.000
130448.900,126096.100,162533.800,144953.400,125693.800,137167.700,131894.400,127560.300,-0.085,0.854,-0.523,7.874,9.827,0.061,66.667,83.000,1.000,0.012,0.000
130223.100,125876.200,162248.100,144698.800,125476.900,136933.900,131674.400,127344.900,-0.086,0.856,-0.524,7.477,9.705,0.153,66.667,84.000,1.000,1.879,0.000
130023.800,125682.300,161990.000,144470.500,125284.800,136725.200,131477.700,127150.800,-0.086,0.855,-0.525,7.172,9.766,0.061,66.667,85.000,1.000,11.265,0.000
129837.400,125501.100,161745.800,144253.800,125102.500,136520.600,131286.000,126967.800,-0.086,0.855,-0.525,6.714,9.857,0.031,66.667,86.000,1.000,2.990,0.000
129654.300,125324.400,161509.800,144044.100,124926.400,136324.900,131104.000,126790.500,-0.087,0.856,-0.523,6.348,9.796,0.061,66.667,87.000,1.000,0.008,0.000
129476.000,125153.900,161281.500,143841.800,124760.600,136149.000,130940.300,126625.400,-0.088,0.856,-0.523,5.859,9.796,0.153,66.667,88.000,1.000,3.182,0.000
129308.500,124993.200,161064.700,143651.500,124601.400,135980.800,130773.100,126464.500,-0.085,0.855,-0.523,5.524,9.766,0.000,66.667,89.000,1.000,8.863,0.000
129163.500,124855.800,160871.400,143483.100,124460.800,135819.600,130614.900,126317.900,-0.085,0.853,-0.522,5.035,9.766,0.092,66.667,90.000,1.000,7.445,0.000
129005.400,124706.000,160669.300,143305.000,124313.400,135661.100,130464.100,126165.400,-0.084,0.855,-0.523,4.547,9.796,0.244,66.667,91.000,1.000,2.446,0.000
128847.300,124557.300,160469.000,143124.100,124163.300,135497.700,130303.900,126010.000,-0.086,0.855,-0.526,4.089,9.857,0.244,66.667,92.000,1.000,2.600,0.000
128706.200,124415.900,160284.300,142962.600,124024.400,135338.600,130154.000,125871.400,-0.086,0.855,-0.532,3.693,9.857,0.275,66.667,93.000,1.000,2.487,0.000
128588.000,124303.400,160125.100,142825.200,123912.400,135217.200,130037.800,125754.900,-0.085,0.855,-0.534,3.265,9.796,0.305,66.667,94.000,1.000,3.743,0.000
128462.100,124183.000,159959.200,142675.900,123789.000,135084.900,129905.800,125626.000,-0.084,0.854,-0.538,2.991,9.644,0.427,66.667,95.000,1.000,4.289,0.000
128332.500,124055.600,159789.000,142526.400,123661.600,134947.700,129769.900,125497.900,-0.086,0.851,-0.536,2.747,9.552,0.397,66.667,96.000,1.000,0.008,0.000
128202.200,123929.000,159624.300,142385.000,123541.000,134824.700,129644.600,125379.800,-0.086,0.844,-0.541,2.533,9.399,0.519,66.667,97.000,1.000,8.218,0.000
128090.700,123823.200,159477.900,142260.600,123435.500,134713.700,129534.700,125274.600,-0.085,0.840,-0.540,2.197,9.308,0.671,66.667,98.000,1.000,2.393,0.000
127990.500,123728.100,159344.100,142143.100,123341.900,134612.800,129438.000,125179.400,-0.086,0.838,-0.543,1.984,9.125,0.763,66.667,99.000,1.000,5.089,0.000
127872.200,123618.900,159194.900,142006.100,123228.100,134488.500,129316.300,125061.700,-0.086,0.839,-0.542,2.045,9.033,0.946,66.667,100.000,1.000,3.802,0.000
127762.700,123513.600,159054.000,141883.300,123122.200,134373.700,129205.800,124956.100,-0.083,0.839,-0.540,2.075,9.003,0.916,66.667,101.000,1.000,9.291,0.000
127672.200,123420.600,158931.500,141775.400,123032.600,134275.300,129112.700,124869.200,-0.082,0.838,-0.546,1.984,8.911,0.854,66.667,102.000,1.000,0.013,0.000
127581.400,123332.600,158811.400,141665.200,122943.600,134178.800,129019.500,124780.700,-0.077,0.839,-0.547,2.045,8.911,0.916,66.667,103.000,1.000,1.800,0.000
127500.000,123257.800,158702.300,141571.200,122868.000,134096.000,128941.200,124707.500,-0.071,0.839,-0.548,1.953,9.033,1.038,66.667,104.000,1.000,3.813,0.000
127418.100,123180.000,158590.500,141473.900,122787.300,134003.500,128855.900,124618.100,-0.066,0.842,-0.551,2.075,9.216,1.312,66.667,105.000,1.000,9.963,0.000
127346.500,123111.100,158489.800,141383.500,122714.100,133924.300,128775.200,124539.500,-0.059,0.845,-0.550,1.923,9.277,1.617,66.667,106.000,1.000,0.069,0.000
127282.800,123050.100,158399.000,141302.700,122650.400,133853.300,128706.700,124474.500,-0.058,0.848,-0.547,1.770,9.399,1.984,66.667,107.000,1.000,1.181,0.000
127204.100,122970.700,158293.000,141209.300,122570.800,133762.700,128624.100,124395.400,-0.054,0.850,-0.548,1.373,9.583,2.228,66.667,108.000,1.000,8.878,0.000
127127.900,122897.300,158194.900,141123.900,122502.600,133687.000,128553.100,124326.800,-0.056,0.853,-0.545,1.282,9.705,2.563,66.667,109.000,1.000,4.245,0.000
127065.900,122843.900,158114.700,141054.000,122453.200,133634.500,128499.600,124270.600,-0.058,0.858,-0.545,0.946,9.796,2.777,66.667,110.000,1.000,0.009,0.000
126985.500,122766.300,158010.700,140962.200,122377.600,133556.000,128420.900,124189.700,-0.058,0.863,-0.543,0.488,9.766,3.052,66.667,111.000,1.000,8.116,0.000
126919.400,122704.300,157923.400,140885.500,122314.900,133484.500,128354.400,124127.100,-0.061,0.868,-0.541,-0.061,9.888,3.143,66.667,112.000,1.000,4.396,0.000
126876.000,122666.400,157860.200,140833.300,122278.900,133446.200,128320.400,124094.700,-0.061,0.870,-0.538,-0.580,9.888,3.357,66.667,113.000,1.000,0.010,0.000
126838.000,122631.800,157803.000,140786.800,122247.200,133417.200,128293.700,124062.100,-0.056,0.875,-0.535,-1.190,9.827,3.357,66.667,114.000,1.000,8.673,0.000
126770.500,122567.000,157718.000,140713.700,122183.000,133343.400,128221.600,123998.000,-0.056,0.878,-0.535,-1.678,9.766,3.357,66.667,115.000,1.000,0.010,0.000
126704.400,122502.200,157631.800,140637.200,122118.000,133270.500,128153.300,123935.200,-0.057,0.879,-0.533,-2.380,9.888,3.357,66.667,116.000,1.000,19.357,0.000
126657.800,122456.200,157565.200,140582.100,122073.900,133225.300,128111.000,123892.100,-0.058,0.879,-0.529,-3.174,9.735,3.418,66.667,117.000,1.000,0.011,0.000
126593.200,122390.100,157483.100,140509.600,122012.000,133155.300,128045.300,123831.400,-0.058,0.877,-0.527,-3.998,9.613,3.357,66.667,118.000,1.000,0.003,0.000
126545.500,122342.800,157417.700,140450.400,121963.100,133096.400,127988.800,123777.800,-0.055,0.872,-0.529,-4.761,9.552,3.235,66.667,119.000,1.000,3.752,0.000
126505.400,122306.200,157359.700,140399.500,121924.400,133055.500,127947.600,123736.100,-0.056,0.869,-0.527,-5.249,9.491,3.204,66.667,120.000,1.000,0.009,0.000
126459.600,122262.200,157295.100,140346.400,121878.900,133006.900,127900.600,123692.100,-0.052,0.864,-0.530,-5.676,9.430,3.174,66.667,121.000,1.000,0.003,0.000
126423.000,122223.900,157239.400,140300.400,121839.700,132965.500,127859.900,123652.400,-0.051,0.860,-0.531,-5.829,9.247,3.021,66.667,122.000,1.000,2.545,0.000
126399.200,122199.500,157196.100,140263.300,121813.000,132939.100,127832.200,123620.500,-0.048,0.857,-0.529,-6.073,9.247,2.899,66.667,123.000,1.000,3.801,0.000
126357.700,122158.400,157138.800,140212.300,121772.200,132896.900,127792.900,123580.000,-0.048,0.858,-0.530,-6.348,9.064,2.838,66.667,124.000,1.000,6.149,0.000
126316.700,122118.900,157084.400,140165.500,121732.600,132856.700,127753.700,123543.700,-0.051,0.860,-0.529,-6.531,8.850,2.716,66.667,125.000,1.000,8.879,0.000
126299.100,122101.600,157049.700,140139.100,121714.400,132833.100,127731.200,123526.100,-0.053,0.861,-0.527,-6.714,8.759,2.625,66.667,126.000,1.000,9.872,0.000
126256.600,122060.100,156991.400,140087.600,121672.400,132789.500,127690.700,123485.600,-0.056,0.860,-0.527,-6.927,8.545,2.350,66.667,127.000,1.000,0.015,0.000
126223.600,122027.000,156942.700,140049.200,121638.500,132753.700,127657.200,123453.600,-0.058,0.865,-0.527,-7.141,8.392,2.106,66.667,128.000,1.000,0.009,0.000
126186.500,121990.100,156889.700,140000.500,121600.500,132720.300,127619.800,123416.500,-0.062,0.870,-0.527,-7.202,8.148,1.831,66.667,129.000,1.000,3.093,0.000
126154.500,121954.400,156839.000,139954.700,121565.400,132683.500,127586.400,123381.000,-0.062,0.871,-0.529,-7.599,7.751,1.312,66.667,130.000,1.000,0.008,0.000
126133.100,121930.000,156799.500,139921.400,121539.700,132646.500,127554.200,123353.600,-0.060,0.871,-0.531,-7.813,7.446,0.916,66.667,131.000,1.000,1.902,0.000
126100.600,121895.800,156754.600,139884.700,121510.600,132611.700,127522.900,123325.200,-0.056,0.871,-0.527,-7.935,7.141,0.397,66.667,132.000,1.000,8.718,0.000
126083.300,121882.000,156725.800,139860.400,121497.500,132597.600,127511.100,123312.300,-0.053,0.870,-0.524,-8.118,6.927,-0.061,66.667,133.000,1.000,9.372,0.000
126053.000,121856.300,156685.100,139824.400,121471.500,132571.900,127485.400,123284.500,-0.050,0.867,-0.525,-8.392,6.622,-0.305,66.667,134.000,1.000,0.007,0.000
126029.900,121835.800,156649.600,139792.600,121449.000,132545.200,127461.400,123256.900,-0.046,0.867,-0.523,-8.636,6.439,-0.641,66.667,135.000,1.000,2.748,0.000
126016.100,121823.400,156624.000,139771.800,121437.000,132527.400,127446.200,123245.700,-0.045,0.864,-0.522,-8.759,6.348,-0.854,66.667,136.000,1.000,0.006,0.000
125981.800,121787.000,156576.800,139733.900,121404.400,132490.200,127408.300,123214.700,-0.042,0.865,-0.518,-8.850,6.256,-1.068,66.667,137.000,1.000,27.940,0.000
125960.900,121768.100,156544.600,139708.300,121390.400,132481.400,127400.500,123204.500,-0.036,0.861,-0.518,-9.003,6.226,-1.282,66.667,138.000,1.000,3.660,0.000
125937.600,121743.000,156506.800,139674.500,121365.400,132449.700,127376.100,123175.600,-0.035,0.858,-0.510,-9.094,6.287,-1.190,66.667,139.000,1.000,0.017,0.000
125912.100,121718.100,156468.800,139639.900,121334.800,132410.300,127332.600,123144.000,-0.037,0.858,-0.505,-9.277,6.378,-1.129,66.667,140.000,1.000,0.012,0.000
125909.400,121714.300,156453.700,139628.500,121328.300,132400.700,127319.900,123134.300,-0.040,0.854,-0.502,-9.399,6.500,-1.038,66.667,141.000,1.000,12.664,0.000
125890.900,121693.700,156421.600,139599.500,121307.100,132378.500,127300.300,123113.000,-0.042,0.847,-0.500,-9.491,6.500,-1.099,66.667,142.000,1.000,2.366,0.000
125861.000,121663.900,156382.200,139563.500,121278.200,132345.800,127270.800,123084.800,-0.045,0.844,-0.500,-9.430,6.561,-0.977,66.667,143.000,1.000,2.498,0.000
125856.100,121661.200,156368.000,139551.100,121276.500,132344.700,127269.900,123081.000,-0.052,0.840,-0.496,-9.094,6.348,-1.007,66.667,144.000,1.000,2.533,0.000
125840.300,121646.600,156339.400,139529.000,121260.500,132333.500,127254.400,123062.500,-0.058,0.841,-0.496,-8.850,6.195,-0.854,66.667,145.000,1.000,2.497,0.000
125829.400,121637.400,156316.400,139511.800,121247.200,132322.600,127240.200,123049.800,-0.061,0.847,-0.495,-8.514,5.920,-1.007,66.667,146.000,1.000,2.475,0.000
125815.600,121618.100,156290.700,139490.800,121228.200,132299.000,127220.200,123032.600,-0.065,0.852,-0.494,-8.270,5.646,-1.068,66.667,147.000,1.000,2.498,0.000
125812.400,121612.500,156277.200,139477.400,121220.300,132289.800,127212.100,123026.200,-0.070,0.858,-0.490,-8.148,5.005,-1.068,66.667,148.000,1.000,2.496,0.000
125799.300,121597.500,156251.500,139455.900,121202.600,132271.900,127193.100,123006.800,-0.069,0.867,-0.488,-8.148,4.547,-1.038,66.667,149.000,1.000,2.473,0.000
125788.500,121587.400,156230.400,139443.300,121191.200,132265.800,127183.400,122992.600,-0.065,0.872,-0.490,-8.118,4.150,-0.916,66.667,150.000,1.000,2.532,0.000
125786.300,121580.800,156211.900,139425.200,121184.400,132260.600,127179.100,122989.100,-0.065,0.880,-0.491,-8.209,3.906,-0.885,66.667,151.000,1.000,2.471,0.000
125787.800,121583.100,156200.300,139419.500,121183.500,132259.800,127178.400,122989.700,-0.061,0.887,-0.497,-8.484,3.601,-0.671,66.667,152.000,1.000,3.103,0.000
125769.600,121560.500,156173.600,139400.600,121164.900,132237.700,127154.500,122968.700,-0.061,0.892,-0.499,-8.575,3.357,-0.549,66.667,153.000,1.000,0.009,0.000
125782.800,121578.900,156179.900,139403.900,121180.300,132257.500,127172.900,122983.200,-0.058,0.893,-0.500,-8.789,2.991,-0.397,66.667,154.000,1.000,1.908,0.000
125760.200,121560.100,156151.100,139378.000,121163.200,132237.300,127154.100,122970.200,-0.057,0.893,-0.507,-8.972,2.808,-0.244,66.667,155.000,1.000,14.340,0.000
125741.700,121542.400,156121.800,139348.700,121141.400,132215.100,127125.400,122941.400,-0.053,0.887,-0.509,-9.064,2.655,-0.153,66.667,156.000,1.000,0.013,0.000
125740.500,121540.200,156112.300,139341.400,121139.400,132210.800,127121.300,122938.400,-0.046,0.883,-0.510,-9.064,2.533,-0.153,66.667,157.000,1.000,1.922,0.000
125703.300,121508.000,156070.700,139307.100,121109.400,132181.400,127096.200,122915.200,-0.039,0.880,-0.510,-9.064,2.594,0.000,66.667,158.000,1.000,2.485,0.000
125687.000,121490.500,156042.800,139280.000,121088.600,132156.700,127065.500,122885.000,-0.037,0.875,-0.512,-8.942,2.625,0.031,66.667,159.000,1.000,2.424,0.000
125686.000,121488.800,156035.300,139278.000,121092.500,132152.100,127072.900,122891.800,-0.032,0.872,-0.512,-8.850,2.594,0.366,66.667,160.000,1.000,3.742,0.000
125687.500,121489.100,156027.900,139277.700,121094.800,132151.700,127076.500,122896.400,-0.033,0.865,-0.512,-8.514,2.930,0.641,66.667,161.000,1.000,11.851,0.000
125681.300,121477.100,156010.900,139270.300,121084.700,132138.000,127065.500,122887.200,-0.033,0.854,-0.508,-8.331,3.082,0.824,66.667,162.000,1.000,0.013,0.000
125671.000,121465.200,155994.400,139254.300,121073.900,132126.900,127053.700,122871.000,-0.029,0.842,-0.507,-8.087,3.265,1.251,66.667,163.000,1.000,2.494,0.000
125647.700,121443.200,155966.300,139224.900,121052.900,132103.200,127036.100,122856.000,-0.026,0.839,-0.504,-7.446,3.540,1.556,66.667,164.000,1.000,0.009,0.000
125651.100,121449.500,155963.200,139224.300,121058.300,132104.700,127040.700,122859.900,-0.026,0.843,-0.498,-6.775,3.906,1.953,66.667,165.000,1.000,1.916,0.000
125649.100,121448.800,155952.400,139215.900,121059.100,132105.300,127039.100,122856.500,-0.027,0.851,-0.495,-6.409,4.150,2.136,66.667,166.000,1.000,7.542,0.000
125631.600,121435.500,155926.900,139190.100,121043.500,132090.600,127023.400,122837.500,-0.031,0.858,-0.488,-6.134,4.303,2.441,66.667,167.000,1.000,3.713,0.000
125634.600,121444.700,155923.500,139189.700,121048.000,132091.000,127029.800,122851.400,-0.037,0.857,-0.486,-6.104,4.547,2.594,66.667,168.000,1.000,6.211,0.000
125643.500,121453.800,155923.800,139197.200,121053.600,132095.000,127032.500,122850.800,-0.038,0.856,-0.487,-5.859,4.608,2.716,66.667,169.000,1.000,9.321,0.000
125636.000,121443.900,155912.100,139184.900,121052.600,132097.400,127031.100,122846.600,-0.042,0.855,-0.486,-5.737,4.517,2.747,66.667,170.000,1.000,0.011,0.000
125612.200,121423.400,155884.700,139152.600,121036.900,132084.300,127018.700,122827.000,-0.040,0.851,-0.484,-5.524,4.517,2.625,66.667,171.000,1.000,1.926,0.000
125622.000,121428.600,155883.900,139155.600,121043.600,132085.400,127023.700,122834.600,-0.036,0.846,-0.485,-5.341,4.425,2.411,66.667,172.000,1.000,2.524,0.000
125624.100,121434.100,155882.700,139159.500,121051.500,132090.100,127034.500,122851.800,-0.033,0.844,-0.486,-5.127,4.395,2.197,66.667,173.000,1.000,3.661,0.000
125602.100,121418.100,155856.000,139133.300,121033.300,132076.800,127019.000,122832.600,-0.035,0.847,-0.490,-4.944,4.486,2.106,66.667,174.000,1.000,14.426,0.000
125572.400,121389.300,155818.500,139101.200,121002.100,132044.400,126985.500,122801.600,-0.038,0.852,-0.493,-4.639,4.578,1.984,66.667,175.000,1.000,0.007,0.000
125579.900,121390.000,155812.900,139100.500,121002.200,132046.400,126984.800,122797.500,-0.044,0.857,-0.496,-4.333,4.547,1.709,66.667,176.000,1.000,1.875,0.000
125575.800,121382.200,155801.100,139093.300,120996.300,132044.600,126982.900,122798.800,-0.045,0.863,-0.496,-4.089,4.547,1.465,66.667,177.000,1.000,2.465,0.000
125565.000,121373.600,155784.800,139081.000,120987.900,132039.000,126981.700,122799.400,-0.047,0.865,-0.498,-3.998,4.364,1.129,66.667,178.000,1.000,2.537,0.000
125552.300,121360.100,155765.600,139065.000,120975.500,132023.200,126969.900,122786.100,-0.043,0.863,-0.502,-3.754,4.333,0.732,66.667,179.000,1.000,9.301,0.000
125552.100,121358.500,155756.000,139058.100,120970.100,132015.400,126953.600,122781.200,-0.036,0.858,-0.504,-3.601,4.303,0.275,66.667,180.000,1.000,0.009,0.000
125553.700,121364.500,155750.400,139054.800,120971.100,132020.000,126952.500,122783.800,-0.030,0.849,-0.511,-3.204,4.456,0.183,66.667,181.000,1.000,1.913,0.000
125547.600,121356.900,155736.600,139045.600,120964.000,132014.300,126946.800,122776.400,-0.026,0.844,-0.518,-2.869,4.608,0.061,66.667,182.000,1.000,3.775,0.000
125535.600,121344.100,155721.100,139031.300,120955.500,132008.100,126942.400,122768.800,-0.024,0.844,-0.521,-2.350,4.944,0.214,66.667,183.000,1.000,3.700,0.000
125538.100,121343.200,155713.600,139026.800,120951.600,131997.500,126931.500,122763.300,-0.022,0.851,-0.525,-1.831,5.096,0.366,66.667,184.000,1.000,19.348,0.000
125541.600,121352.000,155711.300,139025.900,120957.700,132008.400,126938.100,122763.700,-0.023,0.857,-0.525,-1.373,5.341,0.641,66.667,185.000,1.000,0.013,0.000
125543.400,121355.100,155706.200,139021.400,120959.500,132010.300,126932.300,122756.800,-0.023,0.862,-0.523,-0.977,5.554,0.946,66.667,186.000,1.000,3.150,0.000
125531.300,121343.100,155689.900,139009.900,120951.900,131997.000,126928.100,122753.400,-0.023,0.870,-0.519,-0.763,5.707,1.160,66.667,187.000,1.000,0.007,0.000
125509.900,121324.500,155665.100,138987.600,120938.000,131980.900,126923.300,122749.900,-0.023,0.871,-0.513,-0.610,6.012,1.404,66.667,188.000,1.000,0.004,0.000
125523.900,121339.500,155671.700,138992.900,120950.000,131992.100,126931.600,122758.300,-0.021,0.872,-0.515,-0.702,6.348,1.587,66.667,189.000,1.000,2.454,0.000
125523.800,121338.700,155665.300,138992.400,120950.600,131995.500,126933.200,122758.000,-0.026,0.873,-0.515,-0.763,6.409,1.709,66.667,190.000,1.000,2.537,0.000
125515.200,121325.800,155648.200,138976.400,120935.100,131979.800,126913.800,122738.300,-0.028,0.875,-0.517,-0.763,6.439,1.831,66.667,191.000,1.000,3.705,0.000
125512.200,121315.700,155632.300,138960.200,120919.500,131960.600,126890.300,122722.400,-0.034,0.880,-0.514,-0.793,6.500,1.831,66.667,192.000,1.000,9.396,0.000
125508.300,121308.500,155618.800,138952.500,120913.300,131953.400,126887.400,122720.200,-0.041,0.884,-0.511,-1.007,6.439,1.831,66.667,193.000,1.000,0.009,0.000
125483.500,121280.900,155587.700,138926.600,120891.500,131934.600,126874.000,122701.800,-0.045,0.886,-0.506,-1.526,6.348,1.556,66.667,194.000,1.000,1.879,0.000
125481.800,121284.000,155581.700,138925.000,120896.600,131940.500,126888.700,122718.100,-0.046,0.888,-0.504,-2.136,6.195,1.373,66.667,195.000,1.000,13.797,0.000
125506.700,121303.900,155594.400,138940.600,120909.200,131938.400,126881.800,122729.700,-0.046,0.886,-0.506,-2.441,5.981,1.129,66.667,196.000,1.000,3.110,0.000
125505.000,121299.700,155586.400,138935.100,120904.500,131936.900,126871.300,122718.300,-0.042,0.880,-0.510,-2.930,5.798,0.854,66.667,197.000,1.000,0.011,0.000
125488.300,121285.800,155566.200,138914.400,120888.900,131924.500,126857.100,122698.400,-0.040,0.872,-0.510,-3.143,5.585,0.702,66.667,198.000,1.000,1.801,0.000
125489.200,121287.100,155561.400,138907.700,120889.000,131923.000,126858.700,122698.000,-0.038,0.862,-0.511,-3.357,5.310,0.427,66.667,199.000,1.000,2.592,0.000
125484.100,121283.100,155550.500,138899.200,120884.800,131922.300,126859.800,122695.800,-0.037,0.853,-0.510,-3.448,5.310,0.275,66.667,200.000,1.000,3.689,0.000
125469.600,121271.700,155532.500,138883.500,120875.300,131917.800,126855.500,122687.600,-0.033,0.845,-0.511,-3.265,5.157,-0.092,66.667,201.000,1.000,9.409,0.000
125482.500,121284.500,155540.300,138891.700,120889.300,131930.100,126865.800,122696.900,-0.031,0.841,-0.509,-3.021,5.188,-0.336,66.667,202.000,1.000,0.013,0.000
125491.700,121291.800,155542.300,138896.500,120894.600,131930.900,126862.500,122697.900,-0.029,0.840,-0.509,-2.594,5.280,-0.580,66.667,203.000,1.000,4.343,0.000
125476.300,121274.700,155521.700,138880.400,120882.700,131919.400,126857.200,122692.200,-0.026,0.839,-0.512,-2.136,5.280,-0.702,66.667,204.000,1.000,2.527,0.000
125458.900,121258.900,155497.500,138859.000,120866.500,131905.400,126847.900,122679.200,-0.025,0.841,-0.514,-1.587,5.371,-0.916,66.667,205.000,1.000,3.701,0.000
125451.800,121253.600,155486.600,138847.800,120858.500,131897.000,126835.300,122667.600,-0.025,0.839,-0.515,-1.190,5.432,-0.916,66.667,206.000,1.000,14.324,0.000
125466.600,121267.400,155497.300,138860.300,120873.400,131911.300,126844.500,122676.100,-0.025,0.840,-0.510,-0.732,5.432,-1.068,66.667,207.000,1.000,0.015,0.000
125474.800,121274.700,155498.300,138865.900,120879.400,131913.600,126852.600,122685.300,-0.026,0.844,-0.509,-0.305,5.554,-0.977,66.667,208.000,1.000,1.905,0.000
125458.600,121263.900,155479.100,138849.900,120868.500,131907.800,126846.100,122674.600,-0.028,0.850,-0.511,0.000,5.432,-1.007,66.667,209.000,1.000,2.513,0.000
125470.200,121275.600,155484.600,138857.200,120880.100,131920.000,126856.500,122682.600,-0.031,0.853,-0.510,0.336,5.554,-1.160,66.667,210.000,1.000,2.572,0.000
125485.700,121289.900,155493.000,138862.800,120891.400,131928.100,126864.200,122692.500,-0.032,0.860,-0.509,0.488,5.493,-1.129,66.667,211.000,1.000,8.649,0.000
125478.900,121283.600,155482.700,138852.300,120888.400,131925.200,126863.100,122690.200,-0.033,0.866,-0.508,0.580,5.463,-1.099,66.667,212.000,1.000,3.061,0.000
125460.600,121263.900,155459.400,138829.700,120871.300,131901.400,126850.800,122678.100,-0.035,0.871,-0.509,0.519,5.341,-1.038,66.667,213.000,1.000,0.012,0.000
125441.900,121245.700,155437.400,138809.200,120853.500,131882.600,126830.100,122651.800,-0.039,0.877,-0.511,0.336,5.127,-0.946,66.667,214.000,1.000,1.982,0.000
125438.100,121242.900,155428.100,138801.900,120846.800,131877.400,126815.700,122637.600,-0.042,0.880,-0.516,0.000,4.852,-0.824,66.667,215.000,1.000,11.237,0.000
125460.900,121267.500,155446.500,138821.600,120871.000,131909.400,126843.700,122664.000,-0.050,0.883,-0.518,-0.397,4.608,-0.854,66.667,216.000,1.000,3.007,0.000
125453.000,121263.300,155440.800,138817.200,120871.000,131908.100,126846.200,122673.100,-0.055,0.881,-0.517,-0.854,4.486,-1.099,66.667,217.000,1.000,0.007,0.000
125462.100,121274.000,155446.800,138828.100,120886.600,131922.500,126872.800,122693.600,-0.058,0.879,-0.522,-1.251,4.059,-1.221,66.667,218.000,1.000,2.021,0.000
125453.000,121264.400,155432.800,138820.100,120879.400,131914.000,126867.100,122686.900,-0.057,0.878,-0.519,-1.709,3.693,-1.404,66.667,219.000,1.000,7.383,0.000
125417.000,121235.200,155390.000,138775.000,120838.900,131880.600,126807.200,122629.800,-0.053,0.875,-0.517,-2.075,3.296,-1.678,66.667,220.000,1.000,9.218,0.000
125421.700,121241.900,155385.800,138768.300,120835.700,131870.700,126790.300,122627.300,-0.049,0.865,-0.515,-2.441,2.930,-1.801,66.667,221.000,1.000,0.007,0.000
125426.600,121246.200,155385.400,138774.900,120845.500,131874.500,126809.800,122644.400,-0.046,0.859,-0.509,-2.716,2.716,-1.953,66.667,222.000,1.000,7.077,0.000
125428.200,121240.700,155382.300,138778.500,120852.900,131878.300,126831.400,122659.600,-0.044,0.854,-0.510,-2.960,2.502,-2.167,66.667,223.000,1.000,2.484,0.000
125413.700,121222.400,155364.200,138765.400,120840.700,131860.400,126817.600,122649.800,-0.044,0.853,-0.514,-2.930,2.350,-2.258,66.667,224.000,1.000,3.074,0.000
125400.200,121205.900,155343.600,138750.300,120824.400,131837.800,126796.400,122630.800,-0.043,0.853,-0.516,-2.899,2.167,-2.350,66.667,225.000,1.000,0.010,0.000
125401.400,121209.600,155338.600,138741.000,120823.700,131840.800,126795.100,122622.700,-0.045,0.858,-0.514,-2.838,2.136,-2.594,66.667,226.000,1.000,3.207,0.000
125408.000,121218.600,155340.400,138742.100,120832.700,131852.900,126805.700,122630.400,-0.044,0.859,-0.517,-2.838,1.984,-2.777,66.667,227.000,1.000,14.288,0.000
125372.100,121186.200,155303.700,138711.100,120807.200,131830.400,126788.800,122611.800,-0.047,0.863,-0.518,-2.838,1.862,-2.838,66.667,228.000,1.000,0.014,0.000
125367.500,121187.400,155298.100,138706.300,120809.800,131839.100,126795.400,122617.600,-0.048,0.867,-0.517,-2.869,1.709,-2.869,66.667,229.000,1.000,1.848,0.000
125401.600,121221.400,155324.400,138731.200,120838.800,131870.900,126818.400,122639.500,-0.050,0.870,-0.516,-3.143,1.434,-2.869,66.667,230.000,1.000,2.521,0.000
125416.200,121240.300,155333.900,138738.500,120853.900,131887.300,126839.400,122653.000,-0.048,0.872,-0.518,-3.418,1.282,-2.899,66.667,231.000,1.000,3.790,0.000
125423.300,121250.200,155338.000,138744.500,120864.600,131906.300,126859.500,122670.500,-0.046,0.874,-0.517,-3.448,1.068,-2.899,66.667,232.000,1.000,13.729,0.000
125396.900,121216.600,155303.900,138714.800,120831.100,131872.500,126826.600,122639.600,-0.042,0.873,-0.516,-3.815,0.977,-2.960,66.667,233.000,1.000,15.485,0.000
125387.800,121202.900,155288.600,138703.800,120819.200,131860.400,126819.200,122636.500,-0.039,0.872,-0.517,-4.028,0.916,-2.991,66.667,234.000,1.000,0.008,0.000
125387.800,121206.000,155285.200,138697.000,120822.600,131869.600,126826.800,122641.400,-0.036,0.870,-0.523,-4.242,0.916,-2.991,66.667,235.000,1.000,0.003,0.000
125380.600,121196.400,155270.600,138684.600,120809.700,131849.500,126797.800,122618.900,-0.035,0.868,-0.520,-4.700,1.007,-2.899,66.667,236.000,1.000,0.003,0.000
125388.300,121201.700,155273.000,138692.400,120817.400,131849.900,126808.700,122631.200,-0.036,0.867,-0.519,-5.035,1.251,-2.808,66.667,237.000,1.000,1.992,0.000
125397.400,121211.000,155277.000,138694.700,120822.700,131861.300,126808.700,122628.400,-0.033,0.861,-0.523,-5.341,1.312,-2.808,66.667,238.000,1.000,2.475,0.000
125385.200,121204.700,155267.300,138686.200,120820.500,131859.500,126812.600,122633.300,-0.030,0.860,-0.523,-5.402,1.373,-2.838,66.667,239.000,1.000,2.491,0.000
125380.600,121200.800,155257.500,138679.400,120813.300,131843.200,126796.400,122618.000,-0.028,0.860,-0.521,-5.554,1.434,-2.747,66.667,240.000,1.000,2.514,0.000
125388.800,121211.100,155260.000,138682.300,120822.500,131855.300,126799.400,122621.900,-0.025,0.864,-0.515,-5.676,1.740,-2.594,66.667,241.000,1.000,2.517,0.000
125396.100,121214.700,155259.200,138683.500,120826.900,131859.700,126804.200,122628.000,-0.023,0.864,-0.510,-6.012,2.014,-2.472,66.667,242.000,1.000,4.328,0.000
125381.800,121194.700,155237.100,138667.400,120807.800,131832.900,126781.700,122617.400,-0.021,0.862,-0.510,-6.317,2.441,-2.502,66.667,243.000,1.000,0.009,0.000
125381.200,121191.100,155229.700,138663.300,120803.300,131825.000,126773.300,122611.900,-0.022,0.858,-0.508,-6.348,2.869,-2.380,66.667,244.000,1.000,10.702,0.000
125390.700,121204.200,155236.200,138666.100,120814.800,131841.900,126783.900,122620.000,-0.026,0.852,-0.510,-6.378,3.326,-2.319,66.667,245.000,1.000,3.028,0.000
125383.100,121198.800,155229.400,138659.100,120814.300,131842.000,126782.500,122617.000,-0.030,0.851,-0.514,-6.134,3.601,-2.258,66.667,246.000,1.000,0.009,0.000
125395.200,121209.800,155237.200,138671.400,120826.600,131856.400,126796.600,122628.900,-0.035,0.846,-0.514,-5.768,3.693,-2.167,66.667,247.000,1.000,1.924,0.000
125402.100,121218.400,155240.900,138672.400,120835.600,131865.200,126809.900,122638.300,-0.036,0.847,-0.510,-5.219,3.784,-2.258,66.667,248.000,1.000,11.494,0.000
125379.700,121196.900,155215.400,138648.600,120815.100,131846.300,126795.800,122622.400,-0.036,0.851,-0.508,-4.730,3.876,-2.197,66.667,249.000,1.000,5.343,0.000
125375.200,121189.500,155203.300,138638.000,120804.800,131833.200,126781.300,122611.200,-0.036,0.857,-0.506,-4.303,3.998,-2.228,66.667,250.000,1.000,0.012,0.000
125396.100,121208.000,155216.400,138652.700,120820.700,131847.300,126790.200,122622.500,-0.036,0.866,-0.502,-3.906,4.120,-2.289,66.667,251.000,1.000,1.931,0.000
125397.400,121208.700,155212.000,138649.600,120819.900,131844.300,126788.400,122619.600,-0.040,0.868,-0.500,-3.784,4.120,-2.350,66.667,252.000,1.000,3.754,0.000
125398.700,121206.500,155206.900,138645.400,120816.500,131836.300,126787.100,122620.200,-0.040,0.864,-0.497,-3.601,4.181,-2.258,66.667,253.000,1.000,14.350,0.000
125385.200,121193.800,155192.000,138632.300,120807.300,131832.900,126784.600,122616.000,-0.040,0.858,-0.496,-3.418,4.242,-2.289,66.667,254.000,1.000,0.010,0.000
125403.500,121213.900,155200.600,138639.700,120818.900,131846.000,126791.100,122623.600,-0.041,0.851,-0.495,-3.174,4.181,-2.319,66.667,255.000,1.000,2.426,0.000
125404.600,121217.300,155197.200,138638.900,120821.000,131849.200,126797.800,122629.800,-0.041,0.851,-0.498,-2.563,4.242,-2.289,66.667,256.000,1.000,0.004,0.000
125399.600,121209.800,155187.100,138630.500,120815.500,131842.000,126792.200,122627.200,-0.042,0.852,-0.498,-2.075,4.150,-2.380,66.667,257.000,1.000,1.950,0.000
125387.200,121197.900,155171.800,138617.600,120803.700,131829.600,126775.300,122609.400,-0.045,0.855,-0.497,-1.617,4.089,-2.380,66.667,258.000,1.000,11.808,0.000
125392.500,121202.600,155174.100,138622.200,120811.400,131841.200,126786.900,122615.200,-0.045,0.855,-0.498,-1.282,4.059,-2.380,66.667,259.000,1.000,0.013,0.000
125416.800,121228.200,155192.400,138639.000,120832.200,131862.700,126805.600,122632.800,-0.048,0.851,-0.499,-0.946,3.937,-2.441,66.667,260.000,1.000,2.491,0.000
125405.800,121221.400,155178.100,138626.300,120822.500,131854.800,126791.900,122615.500,-0.047,0.850,-0.499,-0.763,3.937,-2.411,66.667,261.000,1.000,0.006,0.000
125412.100,121225.300,155181.000,138633.200,120832.000,131863.500,126803.600,122626.700,-0.047,0.849,-0.501,-0.244,3.906,-2.380,66.667,262.000,1.000,8.223,0.000
125400.400,121211.800,155167.300,138621.500,120823.300,131847.700,126796.600,122624.300,-0.049,0.854,-0.500,0.092,3.662,-2.350,66.667,263.000,1.000,2.983,0.000
125402.100,121212.400,155163.000,138618.500,120822.200,131841.000,126795.600,122625.700,-0.048,0.859,-0.505,0.305,3.540,-2.441,66.667,264.000,1.000,0.012,0.000
125387.700,121199.800,155149.200,138605.900,120814.500,131832.200,126787.100,122615.900,-0.052,0.864,-0.507,0.458,3.418,-2.441,66.667,265.000,1.000,1.971,0.000
125398.100,121206.500,155150.100,138608.000,120816.200,131833.200,126782.300,122612.600,-0.053,0.868,-0.510,0.519,3.174,-2.289,66.667,266.000,1.000,13.747,0.000
125412.600,121215.500,155153.200,138616.100,120819.400,131834.400,126785.100,122622.700,-0.058,0.875,-0.509,0.549,2.991,-2.167,66.667,267.000,1.000,2.498,0.000
125415.200,121213.600,155149.900,138619.400,120821.100,131831.000,126788.400,122625.500,-0.060,0.880,-0.509,0.305,2.594,-2.014,66.667,268.000,1.000,2.474,0.000
125410.500,121210.700,155140.500,138613.400,120817.400,131831.800,126787.500,122625.100,-0.062,0.883,-0.514,-0.031,2.228,-1.801,66.667,269.000,1.000,2.494,0.000
125400.400,121207.200,155128.300,138602.300,120814.700,131838.600,126788.000,122621.000,-0.064,0.883,-0.517,-0.488,1.831,-1.526,66.667,270.000,1.000,3.740,0.000
125403.000,121214.300,155127.100,138598.600,120819.800,131845.900,126793.900,122623.100,-0.066,0.883,-0.520,-0.916,1.373,-1.251,66.667,271.000,1.000,9.363,0.000
125401.300,121213.400,155121.200,138586.900,120815.600,131838.000,126784.600,122614.200,-0.067,0.884,-0.522,-1.282,0.824,-0.916,66.667,272.000,1.000,0.010,0.000
125417.300,121230.100,155134.400,138596.800,120832.800,131859.600,126804.500,122626.400,-0.068,0.881,-0.525,-1.740,0.183,-0.519,66.667,273.000,1.000,1.897,0.000
125414.600,121230.100,155128.800,138591.000,120831.800,131868.400,126807.300,122625.500,-0.067,0.882,-0.524,-2.197,-0.336,-0.336,66.667,274.000,1.000,3.782,0.000
125393.600,121209.600,155102.600,138566.000,120811.100,131849.700,126785.200,122606.500,-0.066,0.878,-0.529,-2.686,-0.824,-0.061,66.667,275.000,1.000,16.830,0.000
125388.300,121201.900,155091.600,138557.800,120808.100,131843.800,126787.200,122600.500,-0.064,0.879,-0.530,-3.143,-1.373,0.153,66.667,276.000,1.000,0.010,0.000
125405.700,121218.100,155105.000,138574.900,120828.000,131857.000,126810.500,122621.800,-0.062,0.876,-0.528,-3.540,-1.801,0.275,66.667,277.000,1.000,1.820,0.000
125442.200,121256.800,155138.400,138614.600,120864.300,131884.500,126841.000,122667.500,-0.061,0.872,-0.525,-3.967,-2.136,0.366,66.667,278.000,1.000,2.491,0.000
125404.300,121218.400,155099.000,138573.600,120828.500,131852.900,126802.300,122619.700,-0.058,0.866,-0.523,-4.303,-2.380,0.458,66.667,279.000,1.000,2.543,0.000
125356.900,121167.700,155047.800,138523.900,120779.400,131790.500,126746.800,122570.400,-0.054,0.855,-0.523,-4.730,-2.563,0.702,66.667,280.000,1.000,2.476,0.000
125387.600,121198.100,155068.900,138546.400,120801.400,131807.600,126761.900,122589.800,-0.049,0.841,-0.522,-5.066,-2.655,0.854,66.667,281.000,1.000,6.807,0.000
125403.500,121216.000,155083.000,138560.200,120822.400,131836.700,126790.700,122606.900,-0.048,0.832,-0.524,-5.035,-2.808,1.007,66.667,282.000,1.000,0.010,0.000
125389.100,121203.800,155070.500,138552.800,120815.800,131832.200,126789.700,122607.500,-0.046,0.829,-0.520,-4.791,-2.960,1.190,66.667,283.000,1.000,1.960,0.000
125415.700,121232.900,155093.600,138577.500,120842.000,131860.400,126817.300,122637.400,-0.047,0.835,-0.517,-4.364,-3.021,1.526,66.667,284.000,1.000,11.194,0.000
125402.000,121218.300,155074.100,138560.300,120827.600,131845.900,126799.800,122624.700,-0.049,0.844,-0.515,-4.272,-3.174,1.862,66.667,285.000,1.000,5.697,0.000
125363.100,121177.700,155030.100,138519.500,120791.600,131806.400,126764.600,122585.700,-0.051,0.852,-0.512,-4.150,-3.387,2.075,66.667,286.000,1.000,0.009,0.000
125374.900,121183.900,155033.400,138528.400,120800.100,131813.000,126770.600,122596.300,-0.052,0.853,-0.508,-4.089,-3.418,2.167,66.667,287.000,1.000,1.869,0.000
125400.100,121206.600,155050.100,138544.000,120821.000,131833.400,126793.000,122616.000,-0.054,0.851,-0.509,-3.967,-3.571,2.014,66.667,288.000,1.000,2.438,0.000
125417.800,121224.100,155064.100,138557.400,120838.500,131851.500,126812.900,122633.200,-0.055,0.852,-0.510,-3.754,-3.632,1.923,66.667,289.000,1.000,11.903,0.000
125397.200,121202.500,155039.400,138534.200,120817.700,131835.000,126791.000,122610.900,-0.056,0.852,-0.508,-3.479,-3.754,1.648,66.667,290.000,1.000,0.010,0.000
125405.400,121216.000,155045.200,138539.600,120829.900,131856.300,126806.700,122626.600,-0.056,0.855,-0.506,-3.387,-4.059,1.373,66.667,291.000,1.000,1.925,0.000
125413.900,121223.700,155049.000,138546.000,120838.300,131866.000,126819.000,122640.500,-0.053,0.860,-0.509,-3.357,-4.333,1.068,66.667,292.000,1.000,3.710,0.000
125373.700,121186.200,155006.300,138508.800,120799.700,131835.900,126784.600,122607.000,-0.053,0.862,-0.501,-3.326,-4.517,0.641,66.667,293.000,1.000,4.244,0.000
125369.300,121176.800,154995.400,138500.500,120790.300,131817.100,126772.500,122603.200,-0.051,0.864,-0.503,-3.204,-4.517,0.244,66.667,294.000,1.000,0.059,0.000
125378.300,121184.800,155001.000,138508.800,120802.500,131832.300,126790.100,122617.700,-0.046,0.866,-0.500,-3.235,-4.669,-0.031,66.667,295.000,1.000,30.609,0.000
125392.800,121200.500,155010.500,138515.700,120813.800,131845.100,126793.200,122617.700,-0.041,0.864,-0.502,-3.174,-4.669,-0.397,66.667,296.000,1.000,3.009,0.000
125389.800,121195.000,155001.400,138507.600,120806.400,131834.300,126779.400,122609.300,-0.036,0.860,-0.503,-2.960,-4.547,-0.702,66.667,297.000,1.000,0.009,0.000
125407.100,121214.700,155015.100,138521.500,120823.700,131846.300,126798.000,122633.200,-0.030,0.852,-0.506,-2.899,-4.395,-0.763,66.667,298.000,1.000,6.933,0.000
125358.200,121170.500,154965.500,138476.400,120779.500,131804.700,126754.000,122590.900,-0.025,0.846,-0.507,-2.655,-4.120,-0.824,66.667,299.000,1.000,2.496,0.000
125348.200,121161.100,154951.400,138464.900,120771.300,131796.300,126745.400,122583.300,-0.021,0.844,-0.505,-2.380,-3.693,-0.732,66.667,300.000,1.000,4.978,0.000
125368.800,121183.400,154967.300,138482.600,120791.300,131818.600,126762.500,122602.700,-0.018,0.840,-0.504,-2.014,-3.296,-0.610,66.667,301.000,1.000,2.517,0.000
125379.100,121194.100,154972.800,138487.600,120800.100,131829.300,126772.200,122604.500,-0.019,0.842,-0.508,-1.495,-2.960,-0.275,66.667,302.000,1.000,2.440,0.000
125403.200,121214.800,154991.100,138506.900,120821.000,131844.800,126794.800,122628.000,-0.019,0.849,-0.507,-0.916,-2.502,-0.122,66.667,303.000,1.000,2.601,0.000
125404.700,121214.700,154988.400,138510.400,120821.600,131844.600,126795.300,122624.300,-0.022,0.854,-0.506,-0.610,-1.953,0.153,66.667,304.000,1.000,2.485,0.000
125360.300,121168.700,154938.800,138459.800,120776.100,131796.700,126746.600,122576.600,-0.022,0.856,-0.509,-0.519,-1.465,0.397,66.667,305.000,1.000,2.491,0.000
125357.400,121163.900,154933.300,138453.600,120774.400,131789.300,126739.000,122570.400,-0.024,0.858,-0.510,-0.519,-1.038,0.671,66.667,306.000,1.000,4.999,0.000
125362.000,121170.600,154936.700,138459.700,120783.000,131792.900,126744.100,122580.400,-0.026,0.861,-0.514,-0.427,-0.610,0.916,66.667,307.000,1.000,8.780,0.000
125361.600,121166.700,154933.600,138458.700,120785.200,131792.500,126748.500,122583.800,-0.028,0.864,-0.513,-0.275,-0.153,1.190,66.667,308.000,1.000,3.121,0.000
125373.600,121176.200,154942.100,138467.700,120797.600,131809.100,126759.900,122596.600,-0.034,0.868,-0.516,-0.214,0.214,1.404,66.667,309.000,1.000,0.009,0.000
125362.700,121167.600,154926.900,138450.900,120786.700,131795.200,126747.500,122583.800,-0.036,0.872,-0.515,-0.305,0.641,1.556,66.667,310.000,1.000,4.421,0.000
125352.300,121160.500,154912.700,138436.400,120777.800,131788.000,126739.500,122574.000,-0.037,0.875,-0.511,-0.427,0.916,1.678,66.667,311.000,1.000,2.438,0.000
125357.200,121167.700,154913.000,138435.000,120782.200,131794.700,126745.500,122578.900,-0.039,0.876,-0.508,-0.549,1.129,1.770,66.667,312.000,1.000,2.581,0.000
125359.700,121171.000,154913.300,138441.900,120788.200,131801.300,126755.000,122592.700,-0.039,0.877,-0.510,-0.702,1.465,1.709,66.667,313.000,1.000,2.969,0.000
125364.000,121176.100,154915.600,138447.100,120795.400,131812.000,126765.800,122605.000,-0.037,0.878,-0.511,-0.977,1.648,1.709,66.667,314.000,1.000,0.011,0.000
125372.500,121187.900,154921.400,138451.400,120804.600,131825.000,126775.800,122613.700,-0.036,0.877,-0.515,-1.251,1.953,1.587,66.667,315.000,1.000,1.942,0.000
125348.300,121164.300,154893.700,138422.200,120779.100,131795.500,126750.000,122584.900,-0.035,0.874,-0.517,-1.587,2.106,1.587,66.667,316.000,1.000,2.442,0.000
125325.300,121142.000,154867.700,138398.300,120758.300,131775.700,126727.800,122562.500,-0.035,0.874,-0.518,-1.648,2.472,1.373,66.667,317.000,1.000,4.341,0.000
125320.500,121138.300,154859.500,138392.200,120755.400,131776.100,126727.800,122559.700,-0.040,0.876,-0.516,-1.953,2.594,1.373,66.667,318.000,1.000,0.011,0.000
125319.200,121139.400,154855.500,138387.900,120756.500,131779.300,126729.800,122562.100,-0.042,0.878,-0.515,-2.289,2.747,1.282,66.667,319.000,1.000,11.491,0.000
125319.800,121143.400,154852.900,138382.600,120758.300,131777.500,126729.800,122564.800,-0.046,0.879,-0.516,-2.686,2.747,1.129,66.667,320.000,1.000,0.014,0.000
125355.800,121179.100,154886.800,138416.800,120795.600,131820.400,126767.700,122597.900,-0.049,0.877,-0.515,-3.113,2.838,0.946,66.667,321.000,1.000,13.491,0.000
125354.300,121181.000,154883.100,138416.800,120795.900,131821.000,126770.200,122598.000,-0.053,0.877,-0.516,-3.418,2.777,0.854,66.667,322.000,1.000,0.016,0.000
125329.300,121153.100,154851.900,138388.900,120766.800,131790.700,126738.200,122569.900,-0.057,0.877,-0.514,-3.693,2.625,0.641,66.667,323.000,1.000,3.015,0.000
125332.100,121150.400,154850.200,138390.200,120768.200,131786.200,126735.400,122572.900,-0.058,0.882,-0.511,-4.028,2.502,0.519,66.667,324.000,1.000,0.008,0.000
125342.400,121162.200,154860.100,138402.000,120784.000,131804.200,126752.500,122585.600,-0.058,0.884,-0.510,-4.333,2.228,0.458,66.667,325.000,1.000,0.003,0.000
125338.100,121155.000,154850.500,138390.500,120779.300,131799.700,126750.400,122579.800,-0.060,0.884,-0.508,-4.761,1.984,0.549,66.667,326.000,1.000,4.474,0.000
125336.800,121148.000,154838.000,138381.800,120765.600,131783.800,126733.900,122565.900,-0.058,0.884,-0.504,-5.157,1.770,0.702,66.667,327.000,1.000,0.008,0.000
125331.500,121138.100,154823.800,138371.400,120753.100,131769.300,126719.100,122555.400,-0.054,0.881,-0.506,-5.524,1.495,0.824,66.667,328.000,1.000,11.844,0.000
125324.900,121129.200,154810.600,138360.000,120740.000,131756.600,126704.200,122539.900,-0.050,0.869,-0.508,-6.012,1.404,1.190,66.667,329.000,1.000,4.340,0.000
125326.100,121131.500,154805.800,138354.000,120735.000,131750.900,126695.900,122536.400,-0.049,0.853,-0.508,-6.348,1.160,1.495,66.667,330.000,1.000,0.011,0.000
125332.800,121140.100,154809.400,138355.100,120738.000,131755.000,126698.900,122539.600,-0.046,0.841,-0.504,-6.470,0.977,1.831,66.667,331.000,1.000,8.754,0.000
125341.300,121143.900,154813.600,138362.300,120746.200,131763.000,126709.600,122550.200,-0.044,0.835,-0.500,-6.226,0.885,1.862,66.667,332.000,1.000,0.010,0.000
125360.100,121159.800,154829.700,138379.600,120767.100,131784.600,126733.500,122571.600,-0.042,0.837,-0.504,-5.768,0.977,1.862,66.667,333.000,1.000,1.925,0.000
125362.400,121165.300,154832.300,138378.600,120775.200,131790.400,126743.700,122578.500,-0.042,0.842,-0.503,-5.432,0.885,1.923,66.667,334.000,1.000,11.772,0.000
125343.100,121143.100,154808.000,138353.600,120755.400,131773.400,126722.700,122556.200,-0.038,0.848,-0.500,-5.219,0.977,1.923,66.667,335.000,1.000,0.015,0.000
125342.600,121139.500,154802.500,138347.700,120753.200,131773.200,126717.400,122551.300,-0.037,0.851,-0.499,-5.005,0.977,1.831,66.667,336.000,1.000,8.777,0.000
125341.800,121138.500,154798.400,138347.600,120755.700,131772.100,126719.900,122556.300,-0.031,0.852,-0.497,-4.669,1.190,1.587,66.667,337.000,1.000,0.010,0.000
125349.800,121149.900,154801.000,138353.500,120763.900,131780.500,126729.800,122567.000,-0.029,0.854,-0.498,-4.303,1.160,1.434,66.667,338.000,1.000,6.223,0.000
125356.100,121158.400,154805.200,138359.500,120772.400,131791.700,126737.400,122572.900,-0.029,0.858,-0.498,-3.998,1.434,1.160,66.667,339.000,1.000,0.010,0.000
125342.300,121149.000,154791.100,138341.100,120762.800,131780.200,126726.700,122562.500,-0.029,0.861,-0.499,-3.876,1.678,0.824,66.667,340.000,1.000,6.204,0.000
125341.600,121156.700,154792.500,138344.900,120770.900,131793.100,126732.000,122570.600,-0.029,0.861,-0.496,-3.784,1.862,0.366,66.667,341.000,1.000,0.007,0.000
125340.200,121156.500,154787.000,138341.800,120770.100,131794.500,126734.000,122570.100,-0.030,0.860,-0.495,-3.571,2.106,0.031,66.667,342.000,1.000,6.319,0.000
125345.800,121160.000,154786.400,138340.600,120773.500,131795.600,126744.000,122571.600,-0.030,0.857,-0.503,-3.387,2.411,-0.458,66.667,343.000,1.000,0.014,0.000
125348.200,121161.600,154784.800,138341.600,120774.400,131793.000,126743.300,122573.200,-0.031,0.857,-0.504,-3.174,2.625,-0.732,66.667,344.000,1.000,5.624,0.000
125339.100,121152.600,154769.100,138328.100,120764.600,131786.000,126731.600,122558.600,-0.031,0.861,-0.508,-3.082,2.655,-1.068,66.667,345.000,1.000,14.372,0.000
125349.600,121166.800,154775.900,138334.900,120777.800,131807.300,126745.400,122565.900,-0.031,0.862,-0.505,-2.960,2.869,-1.465,66.667,346.000,1.000,0.019,0.000
125358.800,121172.200,154779.000,138339.700,120781.900,131800.400,126745.500,122572.200,-0.029,0.861,-0.504,-2.808,3.052,-1.770,66.667,347.000,1.000,2.382,0.000
125355.600,121170.700,154773.000,138335.000,120779.000,131797.400,126747.400,122572.600,-0.031,0.859,-0.505,-2.594,3.357,-1.923,66.667,348.000,1.000,0.015,0.000
125360.000,121170.600,154774.500,138337.700,120780.900,131793.000,126744.800,122574.800,-0.030,0.855,-0.505,-2.502,3.693,-2.045,66.667,349.000,1.000,1.982,0.000
125361.600,121171.900,154775.900,138340.200,120784.400,131792.700,126745.000,122572.300,-0.031,0.853,-0.510,-2.258,3.845,-2.289,66.667,350.000,1.000,2.498,0.000
125348.000,121158.200,154761.100,138328.700,120774.300,131783.600,126734.600,122561.200,-0.032,0.852,-0.512,-1.892,4.028,-2.289,66.667,351.000,1.000,18.716,0.000
125351.800,121160.900,154759.800,138327.100,120777.400,131785.100,126740.300,122566.800,-0.037,0.852,-0.509,-1.709,4.211,-2.197,66.667,352.000,1.000,3.066,0.000
125350.500,121155.300,154750.700,138320.700,120773.400,131781.500,126740.600,122561.800,-0.042,0.855,-0.505,-1.526,4.303,-2.167,66.667,353.000,1.000,0.007,0.000
125358.000,121164.200,154751.900,138322.900,120778.400,131789.400,126747.900,122566.500,-0.045,0.857,-0.503,-1.312,4.242,-2.075,66.667,354.000,1.000,1.925,0.000
125357.300,121170.300,154749.000,138319.400,120779.100,131791.500,126747.500,122564.900,-0.048,0.858,-0.500,-1.343,4.272,-1.801,66.667,355.000,1.000,2.515,0.000
125355.800,121166.900,154747.400,138321.000,120780.500,131792.000,126745.700,122568.000,-0.050,0.861,-0.505,-1.343,4.242,-1.648,66.667,356.000,1.000,2.439,0.000
125355.800,121162.600,154743.500,138312.200,120778.700,131790.100,126747.000,122568.100,-0.053,0.864,-0.504,-1.312,4.150,-1.434,66.667,357.000,1.000,3.879,0.000
125356.100,121162.300,154741.800,138313.000,120781.300,131789.100,126752.400,122574.600,-0.054,0.867,-0.503,-1.221,4.028,-1.312,66.667,358.000,1.000,4.188,0.000
125359.600,121167.300,154741.800,138313.500,120787.000,131796.400,126759.100,122581.800,-0.055,0.865,-0.500,-1.129,3.815,-1.129,66.667,359.000,1.000,0.009,0.000
125365.000,121174.700,154741.300,138314.900,120791.400,131802.900,126761.100,122585.300,-0.055,0.865,-0.503,-1.129,3.723,-1.099,66.667,360.000,1.000,13.268,0.000
125358.700,121170.000,154728.100,138304.600,120783.000,131797.200,126749.200,122576.100,-0.054,0.866,-0.504,-1.099,3.510,-1.038,66.667,361.000,1.000,5.460,0.000
125361.900,121173.600,154727.200,138308.700,120784.900,131801.500,126751.700,122581.800,-0.053,0.869,-0.505,-1.160,3.326,-0.854,66.667,362.000,1.000,0.008,0.000
125358.000,121170.500,154723.600,138306.900,120784.700,131803.700,126756.100,122590.300,-0.052,0.872,-0.502,-1.160,3.235,-0.702,66.667,363.000,1.000,2.029,0.000
125354.000,121167.600,154716.200,138302.700,120780.200,131798.900,126750.700,122589.000,-0.050,0.874,-0.500,-1.251,3.052,-0.671,66.667,364.000,1.000,2.432,0.000
125358.700,121173.200,154715.800,138302.400,120781.700,131803.000,126748.600,122584.500,-0.050,0.879,-0.499,-1.282,2.960,-0.458,66.667,365.000,1.000,2.557,0.000
125361.900,121177.700,154712.400,138299.000,120781.700,131807.400,126747.000,122581.500,-0.049,0.884,-0.499,-1.526,2.808,-0.336,66.667,366.000,1.000,3.705,0.000
125364.800,121175.800,154708.100,138297.900,120779.400,131805.800,126746.600,122582.300,-0.049,0.886,-0.500,-1.831,2.716,-0.214,66.667,367.000,1.000,9.322,0.000
125366.200,121170.900,154703.200,138299.000,120778.800,131802.800,126748.300,122583.500,-0.049,0.882,-0.502,-2.197,2.716,-0.214,66.667,368.000,1.000,0.009,0.000
125358.700,121158.600,154688.800,138286.100,120766.800,131788.000,126733.900,122574.400,-0.045,0.874,-0.507,-2.472,2.625,-0.153,66.667,369.000,1.000,2.005,0.000
125351.200,121153.400,154677.800,138274.500,120758.300,131783.900,126722.900,122565.300,-0.042,0.872,-0.509,-2.747,2.655,-0.122,66.667,370.000,1.000,6.093,0.000
125359.100,121163.300,154680.900,138277.500,120765.400,131794.100,126726.400,122566.700,-0.041,0.871,-0.512,-2.838,2.716,-0.275,66.667,371.000,1.000,9.431,0.000
125368.800,121173.800,154686.500,138280.600,120774.600,131804.300,126736.500,122578.000,-0.039,0.870,-0.513,-2.930,2.716,-0.122,66.667,372.000,1.000,0.010,0.000
125356.900,121165.100,154677.100,138271.800,120770.100,131801.100,126735.800,122576.900,-0.038,0.867,-0.513,-2.991,2.899,-0.153,66.667,373.000,1.000,2.453,0.000
125347.500,121155.400,154667.300,138259.800,120761.200,131791.700,126725.500,122566.400,-0.038,0.864,-0.510,-3.143,3.082,-0.244,66.667,374.000,1.000,0.074,0.000
125361.900,121169.800,154678.800,138272.100,120774.000,131801.200,126731.900,122576.800,-0.037,0.859,-0.510,-3.052,3.113,-0.122,66.667,375.000,1.000,10.567,0.000
125367.100,121180.300,154682.000,138273.700,120780.600,131811.000,126738.500,122577.700,-0.037,0.857,-0.512,-3.113,3.265,-0.122,66.667,376.000,1.000,3.103,0.000
125359.500,121171.400,154672.700,138265.500,120775.200,131802.500,126735.400,122576.300,-0.037,0.854,-0.517,-3.052,3.357,-0.061,66.667,377.000,1.000,0.006,0.000
125341.300,121152.400,154648.900,138242.300,120753.400,131778.100,126715.400,122555.300,-0.039,0.851,-0.515,-3.021,3.540,0.092,66.667,378.000,1.000,1.771,0.000
125343.300,121152.100,154642.400,138237.900,120750.500,131780.500,126716.700,122550.500,-0.041,0.848,-0.515,-2.899,3.510,0.153,66.667,379.000,1.000,7.661,0.000
125344.000,121150.400,154635.500,138231.800,120749.400,131779.100,126712.200,122545.600,-0.045,0.848,-0.519,-2.716,3.571,0.305,66.667,380.000,1.000,2.454,0.000
125364.300,121166.800,154652.800,138255.200,120772.600,131803.100,126733.300,122570.100,-0.046,0.849,-0.514,-2.625,3.723,0.458,66.667,381.000,1.000,3.698,0.000
125385.900,121188.400,154672.600,138278.800,120794.800,131823.200,126754.900,122592.100,-0.049,0.856,-0.513,-2.472,3.693,0.458,66.667,382.000,1.000,8.826,0.000
125368.600,121171.900,154654.800,138261.600,120779.100,131806.500,126741.500,122576.400,-0.051,0.860,-0.509,-2.502,3.601,0.610,66.667,383.000,1.000,2.951,0.000
125359.400,121165.600,154643.600,138250.200,120770.100,131797.900,126733.800,122571.900,-0.051,0.865,-0.508,-2.533,3.632,0.793,66.667,384.000,1.000,0.017,0.000
125363.900,121173.300,154645.300,138251.500,120773.200,131801.500,126732.500,122567.800,-0.051,0.871,-0.506,-2.747,3.510,0.885,66.667,385.000,1.000,10.759,0.000
125365.800,121176.100,154645.300,138250.500,120775.900,131801.500,126733.600,122568.000,-0.051,0.874,-0.504,-2.960,3.479,1.068,66.667,386.000,1.000,2.984,0.000
125359.400,121171.500,154638.100,138241.400,120772.800,131797.800,126732.000,122564.800,-0.046,0.876,-0.503,-3.113,3.296,1.404,66.667,387.000,1.000,0.013,0.000
125357.300,121165.800,154630.100,138235.800,120769.000,131791.100,126727.600,122562.400,-0.045,0.882,-0.501,-3.296,3.204,1.465,66.667,388.000,1.000,1.997,0.000
125354.300,121160.100,154621.400,138231.900,120762.500,131785.500,126722.900,122560.300,-0.044,0.883,-0.500,-3.540,3.174,1.587,66.667,389.000,1.000,8.689,0.000
125357.400,121160.000,154614.700,138223.100,120757.900,131783.100,126719.100,122557.400,-0.041,0.885,-0.500,-3.754,3.174,1.678,66.667,390.000,1.000,3.018,0.000
125373.400,121173.600,154621.900,138232.100,120767.900,131792.500,126729.600,122569.200,-0.039,0.885,-0.501,-4.028,3.265,1.678,66.667,391.000,1.000,0.007,0.000
125375.100,121174.400,154618.500,138230.700,120769.300,131799.800,126734.600,122568.900,-0.037,0.884,-0.503,-4.211,3.235,1.709,66.667,392.000,1.000,8.259,0.000
125366.100,121160.900,154605.600,138220.400,120757.700,131783.100,126718.100,122557.300,-0.034,0.880,-0.501,-4.517,3.357,1.862,66.667,393.000,1.000,2.423,0.000
125372.500,121165.200,154609.300,138220.600,120761.000,131782.900,126716.800,122557.600,-0.031,0.872,-0.500,-4.822,3.448,1.953,66.667,394.000,1.000,3.830,0.000
125389.600,121184.100,154623.700,138234.000,120777.000,131798.300,126730.700,122571.300,-0.030,0.863,-0.500,-5.035,3.540,1.953,66.667,395.000,1.000,11.724,0.000
125390.500,121182.100,154619.200,138230.400,120774.800,131800.600,126729.700,122566.900,-0.028,0.857,-0.502,-4.974,3.815,2.014,66.667,396.000,1.000,0.008,0.000
125380.200,121167.300,154605.300,138217.700,120763.000,131784.800,126714.500,122555.900,-0.029,0.853,-0.504,-5.035,3.906,1.953,66.667,397.000,1.000,2.468,0.000
125375.200,121160.900,154598.000,138209.600,120759.900,131776.600,126713.000,122557.100,-0.028,0.849,-0.506,-4.913,4.059,1.801,66.667,398.000,1.000,0.008,0.000
125368.900,121153.700,154585.100,138199.600,120753.400,131773.300,126715.000,122558.100,-0.026,0.846,-0.506,-4.578,4.272,1.434,66.667,399.000,1.000,8.187,0.000
125380.300,121168.500,154591.700,138209.100,120767.000,131790.700,126731.500,122573.300,-0.024,0.844,-0.506,-4.242,4.486,1.068,66.667,400.000,1.000,2.556,0.000
125379.100,121170.000,154586.300,138206.700,120766.400,131789.400,126720.400,122560.800,-0.026,0.839,-0.507,-3.876,4.669,0.702,66.667,401.000,1.000,3.763,0.000
125376.900,121164.900,154574.000,138201.100,120756.200,131772.600,126701.600,122550.100,-0.024,0.834,-0.507,-3.540,4.944,0.519,66.667,402.000,1.000,4.314,0.000
125394.400,121180.300,154585.600,138217.700,120771.600,131788.000,126723.000,122571.700,-0.023,0.831,-0.508,-2.960,5.188,0.122,66.667,403.000,1.000,0.006,0.000
125401.600,121186.300,154591.000,138224.500,120777.600,131795.300,126731.200,122577.800,-0.023,0.831,-0.508,-2.502,5.463,-0.153,66.667,404.000,1.000,11.898,0.000
125400.200,121182.300,154586.100,138218.500,120772.000,131791.100,126723.800,122571.000,-0.025,0.834,-0.507,-2.075,5.676,-0.397,66.667,405.000,1.000,5.061,0.000
125410.200,121191.300,154595.000,138226.700,120781.600,131796.300,126730.900,122576.900,-0.025,0.840,-0.505,-1.648,5.951,-0.641,66.667,406.000,1.000,2.485,0.000
125409.000,121185.400,154588.600,138224.600,120777.200,131788.000,126727.500,122575.200,-0.026,0.844,-0.506,-1.282,6.195,-1.007,66.667,407.000,1.000,3.062,0.000
125404.400,121176.100,154579.400,138215.300,120772.600,131784.400,126727.200,122569.600,-0.028,0.850,-0.506,-0.977,6.378,-1.160,66.667,408.000,1.000,0.009,0.000
125406.100,121181.900,154580.500,138214.300,120777.700,131792.400,126734.800,122573.900,-0.026,0.853,-0.507,-0.671,6.592,-1.343,66.667,409.000,1.000,1.923,0.000
125408.400,121187.000,154580.600,138214.100,120782.500,131800.200,126739.400,122575.500,-0.028,0.857,-0.506,-0.580,6.683,-1.587,66.667,410.000,1.000,8.737,0.000
125399.400,121179.900,154567.800,138198.500,120772.300,131795.000,126729.000,122562.800,-0.028,0.863,-0.507,-0.366,6.775,-1.953,66.667,411.000,1.000,3.105,0.000
125394.500,121171.000,154557.800,138190.600,120765.900,131786.900,126725.700,122556.100,-0.030,0.868,-0.506,-0.366,6.714,-2.167,66.667,412.000,1.000,0.009,0.000
125395.800,121169.500,154553.400,138190.700,120767.000,131783.500,126732.800,122562.000,-0.031,0.872,-0.504,-0.397,6.836,-2.350,66.667,413.000,1.000,8.173,0.000
125406.200,121182.200,154561.300,138200.700,120779.400,131796.000,126744.800,122574.000,-0.032,0.874,-0.506,-0.488,6.836,-2.563,66.667,414.000,1.000,2.424,0.000
125404.500,121183.800,154555.200,138194.800,120778.200,131797.200,126739.000,122569.300,-0.033,0.877,-0.505,-0.641,6.836,-2.808,66.667,415.000,1.000,8.872,0.000
125403.200,121183.400,154549.700,138189.000,120775.000,131793.100,126731.600,122559.600,-0.034,0.880,-0.507,-0.793,6.897,-2.869,66.667,416.000,1.000,2.996,0.000
125397.400,121180.000,154542.500,138180.600,120769.600,131786.500,126724.800,122558.200,-0.036,0.884,-0.505,-0.977,6.836,-3.052,66.667,417.000,1.000,0.011,0.000
125394.200,121179.500,154539.300,138174.800,120771.300,131787.300,126726.800,122562.100,-0.040,0.883,-0.505,-1.160,6.714,-3.174,66.667,418.000,1.000,1.942,0.000
125388.200,121179.200,154537.900,138169.700,120776.100,131794.200,126734.600,122566.800,-0.045,0.887,-0.505,-1.526,6.622,-3.448,66.667,419.000,1.000,13.724,0.000
125392.900,121187.100,154544.800,138177.700,120787.500,131807.300,126743.700,122576.300,-0.046,0.888,-0.504,-1.770,6.348,-3.571,66.667,420.000,1.000,5.550,0.000
125381.000,121175.300,154529.600,138165.100,120774.300,131791.900,126727.000,122562.000,-0.050,0.887,-0.506,-2.136,6.195,-3.693,66.667,421.000,1.000,0.080,0.000
125391.000,121184.300,154533.400,138177.100,120780.300,131798.500,126733.100,122571.100,-0.050,0.882,-0.505,-2.625,5.859,-3.845,66.667,422.000,1.000,2.345,0.000
125392.100,121182.900,154526.600,138176.800,120779.100,131802.100,126737.500,122575.500,-0.051,0.875,-0.506,-2.991,5.676,-3.967,66.667,423.000,1.000,0.011,0.000
125366.300,121156.300,154498.000,138153.300,120757.500,131778.300,126717.300,122559.600,-0.051,0.870,-0.507,-3.235,5.341,-3.998,66.667,424.000,1.000,1.907,0.000
125356.400,121146.600,154487.300,138143.600,120750.900,131766.500,126705.500,122553.400,-0.052,0.866,-0.510,-3.235,5.035,-4.089,66.667,425.000,1.000,14.425,0.000
125365.000,121160.900,154498.000,138148.500,120762.700,131780.600,126715.400,122556.500,-0.052,0.863,-0.510,-3.418,4.730,-4.120,66.667,426.000,1.000,0.012,0.000
125369.700,121169.000,154502.300,138151.800,120767.900,131789.600,126720.900,122562.800,-0.049,0.862,-0.510,-3.479,4.333,-4.059,66.667,427.000,1.000,13.737,0.000
125374.700,121178.000,154505.200,138154.100,120772.800,131795.100,126725.500,122571.400,-0.048,0.858,-0.511,-3.571,3.998,-3.967,66.667,428.000,1.000,0.008,0.000
125369.000,121176.800,154499.100,138144.300,120769.500,131793.600,126723.100,122563.400,-0.047,0.857,-0.508,-3.510,3.784,-3.723,66.667,429.000,1.000,3.157,0.000
125369.000,121175.300,154498.800,138142.800,120773.300,131793.600,126723.600,122565.100,-0.044,0.857,-0.509,-3.540,3.448,-3.571,66.667,430.000,1.000,0.007,0.000
125375.900,121181.600,154501.900,138142.800,120777.800,131800.600,126726.900,122567.500,-0.045,0.854,-0.511,-3.723,3.204,-3.204,66.667,431.000,1.000,0.004,0.000
125375.000,121178.800,154494.600,138139.800,120771.800,131794.900,126723.900,122566.200,-0.046,0.853,-0.511,-3.815,2.899,-2.960,66.667,432.000,1.000,3.716,0.000
125372.900,121172.800,154485.200,138137.300,120765.700,131791.600,126722.200,122565.200,-0.047,0.852,-0.516,-3.845,2.533,-2.808,66.667,433.000,1.000,6.280,0.000
125370.000,121167.200,154476.300,138131.900,120761.600,131787.600,126718.700,122562.500,-0.049,0.850,-0.517,-3.815,2.258,-2.472,66.667,434.000,1.000,6.848,0.000
125365.900,121167.600,154469.000,138126.000,120760.000,131789.600,126716.000,122555.900,-0.051,0.852,-0.517,-3.784,1.923,-2.228,66.667,435.000,1.000,0.007,0.000
125362.100,121167.900,154466.000,138124.000,120763.100,131794.700,126716.400,122553.100,-0.052,0.854,-0.517,-3.754,1.526,-2.106,66.667,436.000,1.000,11.168,0.000
125355.700,121160.000,154458.000,138114.300,120759.100,131775.500,126705.200,122551.900,-0.054,0.861,-0.517,-3.876,1.190,-1.892,66.667,437.000,1.000,0.011,0.000
125357.100,121161.200,154459.100,138118.000,120764.600,131777.500,126713.400,122558.100,-0.054,0.868,-0.517,-3.845,0.763,-1.740,66.667,438.000,1.000,2.411,0.000
125355.700,121163.800,154458.400,138117.300,120770.000,131785.700,126718.600,122559.200,-0.054,0.873,-0.515,-3.998,0.458,-1.495,66.667,439.000,1.000,0.004,0.000
125350.100,121162.200,154450.200,138102.900,120764.500,131778.200,126711.200,122548.600,-0.055,0.876,-0.513,-4.242,0.092,-1.465,66.667,440.000,1.000,13.243,0.000
125354.700,121166.000,154451.400,138105.300,120768.600,131780.300,126715.100,122552.300,-0.054,0.880,-0.512,-4.547,-0.275,-1.312,66.667,441.000,1.000,4.958,0.000
125354.000,121161.600,154449.800,138108.500,120769.500,131775.000,126715.400,122556.200,-0.056,0.883,-0.507,-4.883,-0.641,-1.190,66.667,442.000,1.000,0.011,0.000
125358.800,121167.600,154452.200,138116.800,120775.300,131776.700,126723.300,122567.200,-0.056,0.885,-0.508,-5.249,-1.038,-1.068,66.667,443.000,1.000,0.005,0.000
125359.700,121168.900,154452.200,138120.600,120781.100,131787.500,126734.700,122575.700,-0.055,0.884,-0.504,-5.676,-1.404,-0.946,66.667,444.000,1.000,2.530,0.000
125362.300,121172.900,154452.200,138120.800,120782.700,131791.600,126731.300,122572.800,-0.057,0.882,-0.505,-6.134,-1.740,-0.763,66.667,445.000,1.000,2.537,0.000
125377.500,121187.100,154463.500,138132.500,120794.800,131803.600,126737.300,122585.200,-0.055,0.879,-0.504,-6.409,-2.136,-0.824,66.667,446.000,1.000,16.312,0.000
125372.700,121179.800,154455.800,138127.600,120790.200,131800.400,126735.600,122580.800,-0.052,0.873,-0.501,-6.683,-2.411,-0.885,66.667,447.000,1.000,2.998,0.000
125355.600,121159.800,154434.500,138108.400,120773.700,131782.000,126725.400,122569.000,-0.049,0.868,-0.502,-6.866,-2.594,-0.824,66.667,448.000,1.000,0.013,0.000
125355.500,121155.700,154428.200,138103.700,120770.800,131779.900,126723.500,122565.200,-0.043,0.864,-0.502,-6.836,-2.777,-0.702,66.667,449.000,1.000,4.393,0.000
125356.500,121158.300,154424.600,138098.000,120771.000,131780.800,126720.900,122558.700,-0.038,0.859,-0.500,-6.653,-2.777,-0.580,66.667,450.000,1.000,2.528,0.000
125361.900,121165.700,154428.300,138100.300,120777.200,131787.200,126725.400,122562.500,-0.034,0.856,-0.498,-6.653,-2.625,-0.519,66.667,451.000,1.000,2.414,0.000
125365.300,121171.700,154430.100,138103.200,120782.700,131797.300,126734.300,122571.300,-0.032,0.853,-0.499,-6.409,-2.625,-0.549,66.667,452.000,1.000,2.587,0.000
125366.200,121174.500,154426.300,138102.800,120785.300,131806.400,126744.900,122577.100,-0.031,0.848,-0.501,-6.226,-2.563,-0.397,66.667,453.000,1.000,3.709,0.000
125367.200,121177.100,154422.300,138099.500,120784.900,131805.800,126746.400,122578.100,-0.028,0.848,-0.501,-5.981,-2.258,-0.275,66.667,454.000,1.000,3.746,0.000
125364.800,121176.800,154415.900,138089.200,120779.600,131806.500,126741.600,122567.500,-0.031,0.846,-0.499,-5.585,-2.014,-0.183,66.667,455.000,1.000,28.162,0.000
125373.500,121184.700,154422.000,138093.500,120786.700,131816.100,126749.100,122572.300,-0.026,0.848,-0.500,-5.096,-1.862,-0.275,66.667,456.000,1.000,0.025,0.000
125389.200,121200.800,154433.000,138106.000,120799.200,131826.400,126762.600,122587.600,-0.027,0.853,-0.501,-4.822,-1.495,-0.275,66.667,457.000,1.000,1.827,0.000
125387.400,121197.000,154426.300,138097.700,120793.100,131814.200,126754.800,122581.800,-0.026,0.855,-0.503,-4.608,-1.068,-0.153,66.667,458.000,1.000,2.509,0.000
125380.200,121188.600,154416.800,138088.400,120785.700,131809.500,126747.300,122574.700,-0.023,0.856,-0.503,-4.303,-0.732,-0.153,66.667,459.000,1.000,2.463,0.000
125376.800,121182.900,154408.800,138081.800,120778.200,131797.800,126733.500,122563.300,-0.024,0.856,-0.506,-4.059,-0.549,-0.183,66.667,460.000,1.000,2.585,0.000
125371.400,121181.100,154401.000,138076.100,120772.600,131794.500,126723.800,122553.700,-0.024,0.856,-0.505,-3.876,-0.153,-0.092,66.667,461.000,1.000,2.433,0.000
125371.300,121182.500,154400.300,138079.600,120774.900,131796.100,126725.400,122557.500,-0.026,0.856,-0.506,-3.571,0.183,0.000,66.667,462.000,1.000,2.533,0.000
125364.800,121175.300,154394.800,138079.300,120773.100,131789.100,126725.700,122565.000,-0.024,0.857,-0.506,-3.387,0.671,0.153,66.667,463.000,1.000,2.415,0.000
125356.700,121166.000,154386.900,138077.100,120771.200,131785.300,126727.200,122568.600,-0.024,0.859,-0.499,-3.174,0.946,0.214,66.667,464.000,1.000,2.549,0.000
125356.300,121170.500,154387.000,138078.200,120775.500,131794.800,126729.200,122569.600,-0.025,0.860,-0.502,-2.991,1.312,0.244,66.667,465.000,1.000,2.474,0.000
125355.600,121172.900,154384.200,138076.000,120776.900,131795.100,126727.300,122570.400,-0.024,0.859,-0.500,-2.838,1.495,0.397,66.667,466.000,1.000,3.030,0.000
125378.400,121194.300,154402.000,138094.600,120799.300,131818.300,126751.800,122596.500,-0.025,0.860,-0.501,-2.716,1.862,0.458,66.667,467.000,1.000,0.009,0.000
125399.200,121216.500,154418.300,138113.300,120820.900,131842.600,126776.100,122624.000,-0.028,0.863,-0.497,-2.625,2.014,0.488,66.667,468.000,1.000,1.927,0.000
125384.100,121201.900,154399.000,138096.100,120805.600,131824.700,126763.500,122610.900,-0.030,0.863,-0.496,-2.533,2.289,0.519,66.667,469.000,1.000,2.571,0.000
125357.400,121171.000,154369.200,138066.900,120777.200,131796.500,126732.600,122578.800,-0.033,0.863,-0.497,-2.380,2.502,0.549,66.667,470.000,1.000,8.751,0.000
125351.500,121163.700,154359.300,138056.300,120767.900,131790.100,126723.000,122568.300,-0.035,0.863,-0.499,-2.258,2.747,0.671,66.667,471.000,1.000,4.280,0.000
125346.100,121156.700,154350.000,138046.400,120758.400,131781.300,126716.400,122562.500,-0.037,0.863,-0.501,-2.350,2.686,0.641,66.667,472.000,1.000,0.016,0.000
125342.700,121150.400,154343.400,138042.400,120751.100,131774.600,126712.700,122556.700,-0.039,0.864,-0.500,-2.319,2.716,0.641,66.667,473.000,1.000,13.169,0.000
125341.300,121144.700,154338.600,138040.600,120746.700,131767.700,126708.600,122553.900,-0.041,0.865,-0.500,-2.350,2.777,0.427,66.667,474.000,1.000,3.660,0.000
125341.700,121146.500,154338.300,138038.000,120750.500,131771.400,126709.900,122556.700,-0.042,0.865,-0.504,-2.319,2.838,0.458,66.667,475.000,1.000,0.008,0.000
125346.400,121155.700,154339.900,138039.800,120756.900,131780.200,126713.700,122559.200,-0.042,0.868,-0.503,-2.319,2.747,0.366,66.667,476.000,1.000,0.003,0.000
125346.200,121157.000,154335.500,138039.300,120758.300,131780.800,126716.300,122560.300,-0.045,0.871,-0.502,-2.380,2.563,0.244,66.667,477.000,1.000,2.555,0.000
125352.000,121158.800,154337.500,138045.200,120764.700,131780.200,126724.600,122572.600,-0.046,0.873,-0.503,-2.594,2.380,0.092,66.667,478.000,1.000,3.761,0.000
125356.000,121161.600,154339.800,138042.600,120770.100,131782.900,126728.400,122576.300,-0.048,0.875,-0.505,-2.716,2.258,0.031,66.667,479.000,1.000,8.778,0.000
125357.100,121166.700,154334.900,138031.900,120767.700,131783.400,126722.200,122568.100,-0.047,0.875,-0.501,-2.869,2.075,-0.122,66.667,480.000,1.000,4.336,0.000
125357.100,121170.700,154331.600,138026.400,120767.600,131787.300,126723.300,122564.200,-0.046,0.875,-0.503,-3.113,1.984,-0.183,66.667,481.000,1.000,0.015,0.000
125364.300,121180.000,154337.700,138032.000,120777.000,131795.400,126731.300,122571.700,-0.046,0.875,-0.504,-3.418,1.892,-0.214,66.667,482.000,1.000,10.619,0.000
125360.200,121178.000,154333.400,138030.300,120778.500,131796.400,126734.300,122573.900,-0.044,0.876,-0.507,-3.662,1.648,-0.397,66.667,483.000,1.000,3.086,0.000
125361.800,121176.900,154332.100,138034.300,120781.100,131797.800,126736.600,122576.400,-0.042,0.877,-0.504,-3.906,1.465,-0.458,66.667,484.000,1.000,0.010,0.000
125369.500,121190.400,154340.400,138043.800,120793.800,131813.900,126746.700,122583.300,-0.041,0.878,-0.505,-3.998,1.404,-0.610,66.667,485.000,1.000,1.927,0.000
125376.900,121202.900,154347.100,138048.200,120804.300,131828.000,126757.300,122589.100,-0.039,0.877,-0.502,-4.211,1.343,-0.732,66.667,486.000,1.000,8.659,0.000
125377.700,121200.700,154343.500,138046.900,120802.600,131818.200,126750.300,122588.200,-0.039,0.880,-0.502,-4.486,1.190,-0.793,66.667,487.000,1.000,3.102,0.000
125367.700,121187.900,154330.100,138036.700,120791.100,131805.500,126741.900,122582.300,-0.040,0.876,-0.506,-4.761,1.129,-0.885,66.667,488.000,1.000,0.006,0.000
125371.700,121191.200,154329.200,138035.100,120792.100,131808.500,126747.700,122587.300,-0.040,0.873,-0.502,-4.974,1.068,-1.038,66.667,489.000,1.000,1.924,0.000
125394.500,121213.300,154349.100,138051.400,120812.200,131835.600,126765.800,122601.200,-0.043,0.867,-0.505,-5.127,0.916,-1.068,66.667,490.000,1.000,8.814,0.000
125394.900,121215.000,154345.000,138044.500,120806.400,131833.200,126754.400,122592.800,-0.043,0.862,-0.501,-4.974,0.702,-1.129,66.667,491.000,1.000,4.206,0.000
125377.600,121195.000,154323.100,138023.700,120783.100,131800.900,126725.200,122570.900,-0.044,0.858,-0.503,-4.944,0.702,-1.221,66.667,492.000,1.000,0.011,0.000
125373.400,121184.300,154315.100,138020.300,120777.000,131791.400,126727.200,122570.000,-0.044,0.852,-0.505,-4.730,0.549,-1.160,66.667,493.000,1.000,5.787,0.000
125366.000,121178.200,154305.000,138009.300,120771.300,131789.400,126724.800,122564.800,-0.043,0.846,-0.508,-4.517,0.458,-1.007,66.667,494.000,1.000,3.613,0.000
125359.900,121174.400,154295.400,137998.200,120766.400,131788.400,126718.800,122557.300,-0.043,0.844,-0.505,-4.089,0.427,-0.854,66.667,495.000,1.000,9.384,0.000
125371.700,121186.300,154303.000,138007.400,120778.500,131802.800,126729.500,122570.200,-0.046,0.843,-0.500,-3.815,0.275,-0.671,66.667,496.000,1.000,0.015,0.000
125373.000,121186.300,154300.500,138007.100,120781.100,131806.500,126734.000,122569.100,-0.045,0.844,-0.497,-3.479,0.061,-0.488,66.667,497.000,1.000,1.917,0.000
125384.400,121198.600,154311.500,138021.700,120795.500,131817.800,126750.400,122585.900,-0.046,0.847,-0.493,-3.174,-0.092,-0.275,66.667,498.000,1.000,8.734,0.000
125380.400,121195.300,154304.900,138010.900,120792.600,131813.900,126748.300,122583.800,-0.046,0.847,-0.496,-2.808,-0.244,-0.061,66.667,499.000,1.000,4.358,0.000
125375.700,121190.000,154297.200,138004.300,120787.400,131805.900,126741.600,122578.700,-0.049,0.851,-0.496,-2.563,-0.427,0.275,66.667,500.000,1.000,0.007,0.000
125374.800,121186.800,154294.800,138000.700,120787.600,131807.300,126741.500,122575.500,-0.049,0.854,-0.496,-2.380,-0.610,0.427,66.667,501.000,1.000,1.887,0.000
125374.700,121185.900,154293.800,137999.500,120789.100,131805.700,126745.500,122579.500,-0.049,0.858,-0.498,-2.197,-0.824,0.458,66.667,502.000,1.000,8.710,0.000
125373.100,121186.200,154292.600,137994.600,120790.100,131805.300,126750.400,122581.500,-0.050,0.864,-0.497,-1.953,-1.038,0.519,66.667,503.000,1.000,4.292,0.000
125368.600,121186.900,154289.000,137988.100,120789.900,131807.200,126749.500,122580.200,-0.049,0.867,-0.494,-1.862,-1.160,0.519,66.667,504.000,1.000,0.011,0.000
125373.500,121195.500,154291.200,137991.900,120795.500,131812.700,126753.100,122580.500,-0.047,0.869,-0.495,-1.801,-1.221,0.519,66.667,505.000,1.000,5.679,0.000
125378.100,121201.400,154292.100,137997.100,120803.400,131820.400,126759.300,122585.300,-0.046,0.869,-0.494,-1.892,-1.434,0.519,66.667,506.000,1.000,14.402,0.000
125377.700,121201.500,154288.400,137999.200,120807.000,131823.900,126766.300,122592.600,-0.043,0.868,-0.498,-1.923,-1.556,0.519,66.667,507.000,1.000,0.013,0.000
125375.000,121198.900,154281.500,137994.400,120807.200,131822.600,126771.100,122596.100,-0.041,0.871,-0.499,-2.014,-1.556,0.610,66.667,508.000,1.000,6.187,0.000
125374.300,121197.800,154278.500,137998.500,120811.900,131826.200,126776.500,122600.900,-0.040,0.871,-0.500,-2.075,-1.587,0.671,66.667,509.000,1.000,0.013,0.000
125369.700,121194.600,154272.500,137995.200,120809.600,131826.800,126772.700,122597.000,-0.040,0.873,-0.498,-2.106,-1.587,0.641,66.667,510.000,1.000,1.937,0.000
125370.800,121197.900,154271.800,137993.700,120812.300,131831.100,126773.700,122596.900,-0.035,0.874,-0.501,-2.228,-1.556,0.549,66.667,511.000,1.000,2.461,0.000
125378.400,121205.100,154277.900,138001.000,120820.900,131842.500,126788.100,122609.900,-0.035,0.879,-0.502,-2.289,-1.526,0.580,66.667,512.000,1.000,2.530,0.000
125374.500,121198.600,154269.300,137992.900,120811.900,131831.100,126781.300,122605.400,-0.037,0.880,-0.504,-2.594,-1.373,0.488,66.667,513.000,1.000,8.061,0.000
125357.200,121178.900,154247.100,137968.300,120785.800,131801.800,126752.300,122581.000,-0.036,0.879,-0.504,-2.686,-1.312,0.366,66.667,514.000,1.000,0.007,0.000
125357.800,121181.000,154246.200,137966.900,120785.600,131811.700,126753.500,122580.900,-0.033,0.880,-0.504,-2.869,-1.190,0.275,66.667,515.000,1.000,6.271,0.000
125370.000,121190.800,154252.100,137971.600,120790.300,131818.300,126753.100,122585.500,-0.032,0.875,-0.508,-3.021,-0.977,0.031,66.667,516.000,1.000,0.006,0.000
125371.300,121188.100,154246.300,137968.700,120783.900,131809.800,126746.600,122579.900,-0.033,0.873,-0.504,-3.113,-0.702,-0.061,66.667,517.000,1.000,10.669,0.000
125369.200,121184.700,154238.800,137964.200,120781.300,131809.900,126748.100,122579.900,-0.032,0.870,-0.500,-3.265,-0.488,-0.122,66.667,518.000,1.000,7.402,0.000
125373.300,121189.200,154239.800,137968.700,120784.700,131813.300,126748.100,122581.400,-0.030,0.869,-0.502,-3.265,-0.427,-0.183,66.667,519.000,1.000,0.011,0.000
125368.900,121185.500,154233.400,137964.200,120780.900,131806.400,126737.300,122573.300,-0.030,0.866,-0.498,-3.265,-0.031,-0.427,66.667,520.000,1.000,0.005,0.000
125364.000,121182.000,154228.600,137956.400,120779.500,131805.700,126732.900,122567.000,-0.032,0.865,-0.496,-3.235,0.092,-0.305,66.667,521.000,1.000,3.121,0.000
125368.400,121187.500,154233.000,137961.100,120785.400,131808.300,126739.900,122574.200,-0.028,0.865,-0.496,-3.204,0.275,-0.366,66.667,522.000,1.000,0.013,0.000
125379.300,121196.600,154242.400,137970.000,120797.100,131818.500,126756.600,122589.800,-0.029,0.867,-0.497,-2.991,0.610,-0.397,66.667,523.000,1.000,8.209,0.000
125385.300,121199.800,154244.800,137973.700,120801.900,131825.800,126763.100,122594.200,-0.030,0.867,-0.497,-2.899,0.702,-0.366,66.667,524.000,1.000,3.722,0.000
125381.600,121199.900,154237.100,137961.800,120795.900,131823.500,126753.400,122580.900,-0.031,0.869,-0.494,-2.777,0.977,-0.397,66.667,525.000,1.000,11.803,0.000
125389.500,121212.900,154243.900,137963.700,120804.800,131832.700,126759.300,122586.600,-0.032,0.870,-0.497,-2.747,1.282,-0.366,66.667,526.000,1.000,0.009,0.000
125385.200,121205.500,154236.500,137960.600,120801.000,131824.000,126756.300,122585.600,-0.034,0.866,-0.494,-2.838,1.434,-0.458,66.667,527.000,1.000,2.481,0.000
125374.000,121191.700,154221.200,137951.100,120791.500,131810.400,126750.400,122579.700,-0.035,0.861,-0.498,-2.808,1.587,-0.549,66.667,528.000,1.000,0.013,0.000
125372.100,121191.200,154215.800,137947.600,120790.900,131808.300,126750.000,122581.800,-0.037,0.856,-0.498,-2.747,1.648,-0.641,66.667,529.000,1.000,8.130,0.000
125377.300,121197.200,154217.800,137953.500,120796.300,131813.400,126750.000,122584.200,-0.039,0.851,-0.498,-2.533,1.740,-0.702,66.667,530.000,1.000,11.862,0.000
125378.200,121200.100,154217.400,137954.900,120796.600,131815.500,126748.400,122582.000,-0.041,0.850,-0.501,-2.258,1.709,-0.732,66.667,531.000,1.000,0.020,0.000
125377.600,121200.200,154214.500,137955.300,120794.900,131817.300,126749.100,122583.500,-0.041,0.850,-0.499,-2.197,1.770,-0.916,66.667,532.000,1.000,2.977,0.000
125370.300,121191.300,154205.000,137949.300,120786.200,131807.900,126742.600,122582.000,-0.041,0.854,-0.501,-1.831,1.678,-1.068,66.667,533.000,1.000,0.017,0.000
125358.800,121179.600,154191.700,137938.500,120775.000,131794.500,126733.200,122576.300,-0.042,0.856,-0.504,-1.709,1.587,-1.221,66.667,534.000,1.000,0.005,0.000
125353.600,121178.000,154185.700,137935.300,120772.600,131792.500,126728.800,122572.700,-0.045,0.862,-0.503,-1.495,1.526,-1.312,66.667,535.000,1.000,3.877,0.000
125356.900,121183.500,154185.700,137938.300,120777.800,131800.100,126731.600,122575.600,-0.050,0.865,-0.503,-1.617,1.373,-1.373,66.667,536.000,1.000,10.015,0.000
125355.600,121180.500,154182.000,137934.300,120777.900,131802.200,126733.800,122576.300,-0.052,0.867,-0.504,-1.770,1.129,-1.465,66.667,537.000,1.000,4.266,0.000
125355.600,121178.100,154178.600,137930.500,120776.700,131799.800,126733.400,122575.300,-0.054,0.871,-0.505,-1.953,0.793,-1.587,66.667,538.000,1.000,0.008,0.000
125353.000,121174.000,154171.300,137921.100,120772.100,131794.700,126730.600,122569.800,-0.054,0.874,-0.505,-2.045,0.336,-1.648,66.667,539.000,1.000,8.249,0.000
125357.800,121181.000,154177.000,137922.800,120781.600,131804.900,126740.700,122574.600,-0.056,0.878,-0.506,-2.411,-0.031,-1.740,66.667,540.000,1.000,14.831,0.000
125362.400,121186.300,154179.500,137924.600,120786.500,131806.400,126739.200,122577.200,-0.058,0.883,-0.507,-2.716,-0.427,-1.801,66.667,541.000,1.000,0.014,0.000
125368.800,121193.700,154182.700,137928.800,120791.300,131811.600,126744.300,122577.800,-0.059,0.886,-0.506,-3.174,-0.854,-1.831,66.667,542.000,1.000,0.005,0.000
125364.800,121189.600,154177.300,137923.100,120788.900,131810.800,126747.600,122578.200,-0.059,0.887,-0.507,-3.693,-1.373,-1.892,66.667,543.000,1.000,2.606,0.000
125361.500,121189.200,154173.700,137918.800,120789.100,131811.400,126748.700,122582.300,-0.061,0.891,-0.509,-4.242,-1.831,-2.075,66.667,544.000,1.000,2.534,0.000
125349.700,121178.800,154160.300,137904.100,120778.900,131798.300,126734.900,122571.300,-0.058,0.893,-0.509,-4.822,-2.228,-2.045,66.667,545.000,1.000,2.467,0.000
125351.200,121182.500,154158.200,137904.700,120784.200,131803.400,126740.600,122574.300,-0.060,0.894,-0.508,-5.341,-2.747,-1.923,66.667,546.000,1.000,2.464,0.000
125350.600,121184.500,154155.600,137904.700,120786.300,131801.300,126741.900,122577.800,-0.057,0.893,-0.510,-5.829,-3.113,-2.014,66.667,547.000,1.000,2.519,0.000
125351.500,121185.900,154155.500,137910.200,120790.400,131801.600,126749.000,122589.000,-0.056,0.891,-0.512,-6.500,-3.510,-1.953,66.667,548.000,1.000,6.221,0.000
125351.300,121186.600,154154.100,137907.700,120791.500,131802.700,126744.900,122586.500,-0.055,0.887,-0.512,-7.080,-3.815,-2.014,66.667,549.000,1.000,9.277,0.000
125345.900,121185.200,154147.900,137899.500,120788.100,131805.200,126739.200,122576.400,-0.051,0.880,-0.513,-7.629,-4.150,-2.167,66.667,550.000,1.000,0.010,0.000
125343.300,121184.200,154143.800,137894.400,120784.400,131802.700,126733.300,122571.300,-0.048,0.874,-0.514,-7.904,-4.456,-2.014,66.667,551.000,1.000,1.959,0.000
125341.800,121182.100,154140.200,137893.800,120780.300,131798.500,126734.400,122566.700,-0.048,0.872,-0.512,-8.209,-4.608,-1.862,66.667,552.000,1.000,3.772,0.000
125356.500,121189.700,154148.400,137902.400,120785.700,131798.300,126738.600,122575.500,-0.046,0.867,-0.512,-8.362,-4.761,-1.862,66.667,553.000,1.000,4.293,0.000
125354.700,121185.300,154142.400,137900.300,120780.900,131792.200,126734.700,122578.000,-0.044,0.865,-0.510,-8.514,-4.761,-1.831,66.667,554.000,1.000,0.009,0.000
125350.500,121182.800,154137.700,137898.000,120779.500,131788.000,126731.900,122579.100,-0.043,0.863,-0.508,-8.667,-4.791,-1.740,66.667,555.000,1.000,8.174,0.000
125346.400,121179.800,154130.800,137890.200,120777.200,131789.700,126730.000,122575.100,-0.043,0.862,-0.512,-8.850,-4.822,-1.617,66.667,556.000,1.000,9.386,0.000
125342.900,121172.900,154120.900,137882.200,120770.700,131782.600,126724.800,122564.600,-0.045,0.861,-0.510,-8.881,-4.761,-1.556,66.667,557.000,1.000,0.025,0.000
125352.600,121181.900,154128.600,137892.600,120782.800,131793.000,126739.100,122579.600,-0.043,0.862,-0.504,-8.820,-4.700,-1.495,66.667,558.000,1.000,1.818,0.000
125345.200,121177.000,154121.200,137886.900,120781.100,131796.700,126739.300,122581.500,-0.041,0.864,-0.502,-8.881,-4.700,-1.343,66.667,559.000,1.000,2.490,0.000
125339.200,121171.300,154112.300,137877.500,120775.500,131787.100,126731.600,122574.500,-0.041,0.867,-0.500,-8.942,-4.517,-1.129,66.667,560.000,1.000,8.802,0.000
125339.600,121167.800,154107.900,137871.500,120770.600,131779.100,126720.400,122566.500,-0.041,0.867,-0.498,-9.033,-4.364,-1.068,66.667,561.000,1.000,3.033,0.000
125348.200,121172.000,154111.600,137874.300,120774.000,131781.300,126720.800,122571.800,-0.042,0.868,-0.498,-9.064,-4.211,-1.068,66.667,562.000,1.000,0.014,0.000
125338.600,121160.900,154099.500,137861.200,120761.900,131769.900,126712.800,122560.700,-0.042,0.868,-0.495,-9.064,-3.967,-1.038,66.667,563.000,1.000,8.187,0.000
125339.600,121163.200,154100.600,137860.600,120764.200,131776.000,126718.100,122558.100,-0.042,0.869,-0.495,-8.972,-3.754,-0.916,66.667,564.000,1.000,2.523,0.000
125343.400,121169.600,154102.300,137859.100,120769.500,131780.500,126719.000,122558.000,-0.042,0.869,-0.490,-8.942,-3.693,-0.916,66.667,565.000,1.000,6.225,0.000
125346.600,121177.200,154103.800,137861.700,120776.000,131788.100,126721.800,122561.000,-0.044,0.866,-0.488,-8.881,-3.448,-0.885,66.667,566.000,1.000,2.481,0.000
125352.400,121183.400,154106.900,137866.600,120784.500,131797.000,126731.800,122571.200,-0.042,0.865,-0.489,-8.759,-3.357,-0.763,66.667,567.000,1.000,4.391,0.000
125359.500,121192.800,154110.400,137874.200,120792.900,131809.400,126747.300,122584.500,-0.042,0.861,-0.488,-8.484,-3.082,-0.580,66.667,568.000,1.000,0.008,0.000
125371.700,121203.400,154117.800,137885.800,120804.600,131822.400,126761.700,122600.400,-0.043,0.860,-0.488,-8.118,-2.838,-0.488,66.667,569.000,1.000,5.565,0.000
125365.700,121193.100,154106.000,137878.300,120794.400,131806.300,126743.000,122585.400,-0.044,0.858,-0.487,-7.874,-2.777,-0.366,66.667,570.000,1.000,9.388,0.000
125366.800,121194.300,154102.200,137873.900,120792.200,131806.500,126738.500,122578.400,-0.046,0.859,-0.487,-7.538,-2.594,-0.275,66.667,571.000,1.000,0.009,0.000
125358.100,121186.100,154092.000,137863.700,120781.100,131792.300,126727.200,122571.500,-0.049,0.856,-0.486,-7.324,-2.441,-0.092,66.667,572.000,1.000,1.937,0.000
125361.000,121184.700,154094.000,137869.700,120780.300,131792.400,126729.800,122574.600,-0.049,0.853,-0.480,-6.775,-2.380,0.122,66.667,573.000,1.000,3.703,0.000
125362.800,121186.400,154095.300,137871.200,120778.600,131793.800,126732.300,122576.400,-0.048,0.853,-0.481,-6.256,-2.441,0.305,66.667,574.000,1.000,11.287,0.000
125366.700,121188.400,154095.000,137869.100,120779.900,131796.800,126732.200,122574.600,-0.043,0.853,-0.481,-5.768,-2.319,0.519,66.667,575.000,1.000,2.990,0.000
125369.900,121190.400,154094.400,137868.100,120783.900,131804.200,126736.900,122577.500,-0.042,0.853,-0.482,-5.341,-2.289,0.641,66.667,576.000,1.000,0.007,0.000
125357.400,121179.400,154079.300,137858.600,120772.200,131788.400,126725.400,122569.500,-0.044,0.853,-0.483,-4.913,-2.106,1.007,66.667,577.000,1.000,1.930,0.000
125350.700,121170.400,154066.700,137850.700,120762.100,131771.400,126714.500,122563.400,-0.044,0.849,-0.481,-4.547,-2.045,1.282,66.667,578.000,1.000,6.284,0.000
125358.400,121173.600,154067.800,137853.300,120766.400,131775.400,126719.500,122568.400,-0.045,0.847,-0.478,-4.211,-1.862,1.312,66.667,579.000,1.000,3.723,0.000
125366.300,121180.100,154071.600,137857.400,120772.600,131783.500,126725.300,122570.800,-0.044,0.847,-0.479,-3.662,-1.862,1.434,66.667,580.000,1.000,3.730,0.000
125359.900,121169.800,154059.700,137848.100,120763.700,131775.700,126712.400,122555.200,-0.047,0.848,-0.482,-3.052,-1.709,1.312,66.667,581.000,1.000,9.395,0.000
125360.100,121165.100,154053.200,137846.000,120760.800,131769.200,126708.700,122555.900,-0.048,0.852,-0.486,-2.533,-1.617,1.373,66.667,582.000,1.000,0.012,0.000
125371.300,121171.900,154058.000,137854.500,120767.100,131773.800,126720.600,122567.900,-0.047,0.858,-0.484,-2.167,-1.648,1.312,66.667,583.000,1.000,4.990,0.000
125375.500,121174.500,154059.500,137853.100,120772.100,131780.000,126726.600,122571.700,-0.045,0.865,-0.484,-1.923,-1.465,1.251,66.667,584.000,1.000,0.012,0.000
125371.700,121172.800,154054.200,137843.600,120767.300,131776.900,126716.000,122558.700,-0.045,0.868,-0.486,-1.770,-1.312,1.129,66.667,585.000,1.000,1.920,0.000
125379.800,121179.000,154062.800,137845.900,120777.900,131784.500,126724.600,122563.600,-0.042,0.869,-0.490,-1.556,-1.129,1.129,66.667,586.000,1.000,8.699,0.000
125391.100,121184.900,154070.000,137853.400,120787.000,131786.800,126732.700,122570.400,-0.040,0.869,-0.490,-1.495,-0.946,0.916,66.667,587.000,1.000,2.555,0.000
125391.800,121185.500,154067.800,137853.100,120786.100,131787.500,126734.300,122570.400,-0.038,0.871,-0.486,-1.404,-0.854,0.916,66.667,588.000,1.000,3.768,0.000
125393.200,121186.200,154066.000,137853.000,120788.500,131792.000,126737.500,122575.100,-0.040,0.874,-0.491,-1.251,-0.580,0.793,66.667,589.000,1.000,9.303,0.000
125396.500,121190.400,154066.200,137856.300,120792.800,131797.400,126741.800,122580.000,-0.041,0.879,-0.493,-1.282,-0.275,0.671,66.667,590.000,1.000,0.010,0.000
125397.900,121193.500,154065.300,137854.900,120794.100,131795.400,126734.800,122581.300,-0.040,0.883,-0.490,-1.373,-0.092,0.488,66.667,591.000,1.000,1.932,0.000
125391.100,121185.400,154057.300,137848.700,120786.400,131788.800,126727.800,122571.400,-0.040,0.889,-0.492,-1.434,0.244,0.244,66.667,592.000,1.000,8.691,0.000
125395.200,121178.900,154055.800,137850.900,120784.300,131780.500,126730.600,122574.300,-0.037,0.890,-0.492,-1.587,0.519,-0.031,66.667,593.000,1.000,3.083,0.000
125400.600,121184.500,154058.000,137854.900,120787.300,131781.200,126733.400,122578.100,-0.031,0.889,-0.496,-1.801,0.885,-0.336,66.667,594.000,1.000,0.009,0.000
125396.200,121185.400,154053.200,137852.300,120788.300,131787.700,126739.200,122576.000,-0.029,0.887,-0.499,-1.892,1.343,-0.488,66.667,595.000,1.000,10.614,0.000
125380.100,121174.000,154034.500,137832.900,120774.400,131780.400,126728.900,122562.300,-0.025,0.884,-0.499,-2.167,1.831,-0.549,66.667,596.000,1.000,2.556,0.000
125373.900,121172.500,154026.900,137825.500,120769.300,131778.300,126723.300,122555.300,-0.024,0.880,-0.500,-2.411,2.228,-0.549,66.667,597.000,1.000,3.714,0.000
125382.500,121181.900,154033.300,137832.600,120775.400,131780.000,126729.400,122566.000,-0.022,0.876,-0.500,-2.502,2.899,-0.458,66.667,598.000,1.000,8.793,0.000
125395.400,121189.600,154039.100,137840.400,120783.700,131787.000,126739.900,122574.700,-0.025,0.872,-0.498,-2.625,3.510,-0.366,66.667,599.000,1.000,2.979,0.000
125377.100,121174.700,154019.900,137823.300,120770.100,131780.000,126729.300,122559.400,-0.025,0.873,-0.504,-2.686,4.089,-0.305,66.667,600.000,1.000,0.010,0.000
125380.600,121181.600,154025.500,137826.000,120777.000,131785.100,126729.300,122564.100,-0.027,0.874,-0.498,-2.686,4.578,-0.305,66.667,601.000,1.000,1.999,0.000
125391.800,121193.000,154039.000,137839.900,120788.700,131786.400,126735.200,122583.900,-0.029,0.876,-0.497,-2.655,5.005,-0.305,66.667,602.000,1.000,9.315,0.000
125373.700,121182.900,154024.900,137824.300,120776.900,131777.700,126728.200,122568.300,-0.030,0.876,-0.496,-2.625,5.615,-0.275,66.667,603.000,1.000,0.008,0.000
125354.200,121168.900,154005.800,137802.900,120763.900,131772.000,126715.700,122548.800,-0.033,0.876,-0.494,-2.563,6.073,-0.275,66.667,604.000,1.000,1.895,0.000
125353.300,121169.000,154002.500,137798.600,120763.900,131769.300,126712.400,122544.300,-0.037,0.881,-0.496,-2.686,6.317,-0.183,66.667,605.000,1.000,2.469,0.000
125345.000,121159.700,153988.700,137786.000,120754.100,131756.800,126700.700,122537.500,-0.041,0.883,-0.492,-2.747,6.561,-0.122,66.667,606.000,1.000,14.339,0.000
125357.000,121170.300,153995.900,137795.900,120763.600,131769.400,126708.500,122541.200,-0.044,0.884,-0.489,-3.082,6.622,0.000,66.667,607.000,1.000,0.010,0.000
125383.400,121198.400,154018.300,137816.500,120790.600,131803.100,126740.500,122572.900,-0.048,0.881,-0.489,-3.387,6.561,0.153,66.667,608.000,1.000,1.851,0.000
125387.000,121201.500,154021.300,137817.700,120797.400,131803.200,126745.500,122582.100,-0.054,0.878,-0.488,-3.601,6.500,0.336,66.667,609.000,1.000,2.507,0.000
125380.500,121198.600,154017.700,137815.000,120796.800,131802.300,126739.900,122578.200,-0.059,0.877,-0.491,-3.693,6.317,0.366,66.667,610.000,1.000,3.763,0.000
125377.000,121199.300,154015.400,137812.700,120796.800,131805.500,126737.500,122576.700,-0.061,0.877,-0.490,-3.754,6.042,0.458,66.667,611.000,1.000,9.275,0.000
125367.700,121188.200,154004.100,137806.300,120787.100,131798.700,126730.200,122567.900,-0.063,0.875,-0.485,-3.784,5.768,0.397,66.667,612.000,1.000,0.011,0.000
125380.200,121199.100,154014.600,137823.800,120801.400,131814.100,126747.900,122587.500,-0.064,0.874,-0.483,-3.815,5.310,0.275,66.667,613.000,1.000,2.468,0.000
125370.100,121189.000,154001.900,137813.000,120790.900,131799.500,126743.200,122583.000,-0.065,0.873,-0.483,-3.784,4.852,0.183,66.667,614.000,1.000,0.005,0.000
125363.300,121182.600,153992.400,137803.300,120785.200,131796.400,126733.800,122577.000,-0.066,0.872,-0.481,-3.815,4.333,0.153,66.667,615.000,1.000,9.515,0.000
125388.900,121209.100,154014.100,137826.500,120811.100,131821.800,126758.100,122602.800,-0.067,0.868,-0.483,-3.845,3.845,0.092,66.667,616.000,1.000,24.987,0.000
125364.100,121185.200,153983.000,137798.400,120783.600,131798.000,126733.700,122579.700,-0.070,0.863,-0.484,-3.967,3.326,-0.031,66.667,617.000,1.000,2.440,0.000
125352.400,121172.500,153967.200,137786.200,120770.000,131784.400,126724.800,122575.200,-0.070,0.860,-0.486,-3.815,2.808,-0.092,66.667,618.000,1.000,2.527,0.000
125339.900,121159.100,153953.100,137772.900,120756.800,131765.700,126708.400,122560.300,-0.071,0.858,-0.490,-3.723,2.167,-0.153,66.667,619.000,1.000,2.440,0.000
125346.400,121169.000,153959.800,137776.700,120765.900,131772.400,126711.400,122562.100,-0.069,0.854,-0.490,-3.540,1.617,-0.305,66.667,620.000,1.000,2.562,0.000
125352.500,121178.500,153965.800,137778.700,120772.900,131773.600,126713.600,122564.000,-0.068,0.853,-0.488,-3.357,1.099,-0.397,66.667,621.000,1.000,2.463,0.000
125355.600,121181.000,153968.700,137781.600,120778.200,131774.000,126719.500,122564.000,-0.066,0.852,-0.488,-3.204,0.702,-0.549,66.667,622.000,1.000,2.559,0.000
125358.700,121178.700,153973.200,137788.400,120785.600,131780.300,126729.100,122573.600,-0.063,0.852,-0.493,-2.960,0.153,-0.641,66.667,623.000,1.000,2.392,0.000
125350.500,121166.800,153962.600,137778.500,120777.800,131770.900,126719.700,122555.600,-0.064,0.854,-0.492,-2.716,-0.275,-0.763,66.667,624.000,1.000,2.593,0.000
125351.100,121167.800,153958.900,137773.500,120776.700,131771.700,126715.000,122549.300,-0.064,0.859,-0.491,-2.655,-0.702,-0.793,66.667,625.000,1.000,3.069,0.000
125356.100,121175.600,153961.800,137774.500,120782.400,131776.100,126718.300,122549.100,-0.062,0.863,-0.492,-2.655,-1.160,-0.854,66.667,626.000,1.000,0.016,0.000
125356.000,121179.500,153959.600,137774.600,120784.500,131777.000,126722.200,122551.300,-0.061,0.870,-0.491,-2.686,-1.556,-0.793,66.667,627.000,1.000,4.301,0.000
125354.900,121178.100,153953.500,137768.700,120781.200,131771.400,126718.800,122551.200,-0.055,0.874,-0.490,-2.625,-1.892,-0.732,66.667,628.000,1.000,3.089,0.000
125356.600,121181.000,153951.800,137762.500,120779.700,131771.700,126719.600,122550.200,-0.047,0.880,-0.492,-2.838,-2.106,-0.824,66.667,629.000,1.000,0.008,0.000
125360.000,121187.500,153954.500,137760.800,120781.100,131777.100,126720.700,122550.100,-0.038,0.883,-0.494,-2.838,-2.045,-0.854,66.667,630.000,1.000,1.891,0.000
125367.500,121192.100,153959.200,137767.500,120785.400,131778.000,126723.600,122554.000,-0.032,0.887,-0.495,-3.204,-1.923,-0.793,66.667,631.000,1.000,3.879,0.000
125367.900,121188.800,153957.400,137775.700,120785.800,131777.800,126727.700,122561.800,-0.029,0.889,-0.496,-3.540,-1.862,-0.671,66.667,632.000,1.000,14.226,0.000
125350.200,121168.600,153938.600,137766.800,120771.500,131763.500,126721.300,122559.900,-0.028,0.891,-0.493,-3.784,-1.587,-0.671,66.667,633.000,1.000,0.012,0.000
125325.300,121146.600,153912.300,137746.000,120750.900,131749.700,126707.500,122544.900,-0.026,0.890,-0.494,-3.967,-1.190,-0.580,66.667,634.000,1.000,2.548,0.000
125335.400,121158.700,153919.300,137753.900,120762.500,131766.500,126718.500,122554.100,-0.026,0.890,-0.494,-4.242,-0.946,-0.610,66.667,635.000,1.000,0.005,0.000
125344.900,121171.300,153925.700,137760.000,120771.200,131780.000,126724.700,122560.500,-0.024,0.890,-0.494,-4.547,-0.610,-0.763,66.667,636.000,1.000,5.596,0.000
125338.200,121165.100,153916.400,137751.900,120766.100,131779.200,126726.200,122556.400,-0.021,0.887,-0.497,-4.791,-0.214,-0.824,66.667,637.000,1.000,9.405,0.000
125346.900,121173.100,153921.400,137758.500,120775.700,131793.400,126741.500,122572.600,-0.019,0.890,-0.495,-5.127,0.336,-0.885,66.667,638.000,1.000,0.007,0.000
125345.500,121174.300,153914.800,137747.800,120771.200,131794.600,126736.000,122564.600,-0.019,0.890,-0.498,-5.188,0.793,-1.068,66.667,639.000,1.000,11.238,0.000
125351.500,121181.700,153917.400,137746.300,120776.400,131794.700,126738.700,122566.400,-0.021,0.891,-0.498,-5.402,1.221,-1.221,66.667,640.000,1.000,0.013,0.000
125342.300,121173.600,153904.300,137731.500,120765.700,131784.500,126728.200,122555.000,-0.023,0.892,-0.496,-5.737,1.648,-1.495,66.667,641.000,1.000,2.445,0.000
125330.000,121155.900,153886.600,137718.600,120749.900,131766.000,126710.600,122538.200,-0.026,0.890,-0.492,-6.073,2.075,-1.770,66.667,642.000,1.000,0.012,0.000
125332.100,121152.500,153884.600,137720.400,120752.500,131765.200,126714.100,122538.600,-0.028,0.887,-0.495,-6.439,2.411,-2.106,66.667,643.000,1.000,11.232,0.000
125349.800,121169.200,153899.700,137738.100,120771.200,131779.300,126729.600,122553.200,-0.029,0.883,-0.496,-6.653,2.777,-2.350,66.667,644.000,1.000,0.009,0.000
125351.600,121173.600,153902.400,137741.800,120775.200,131783.500,126731.200,122549.300,-0.031,0.879,-0.497,-6.744,3.052,-2.533,66.667,645.000,1.000,2.449,0.000
125368.700,121191.800,153918.900,137753.500,120790.500,131803.800,126740.100,122555.200,-0.036,0.875,-0.494,-6.927,3.265,-2.838,66.667,646.000,1.000,0.006,0.000
125372.700,121194.700,153920.500,137753.100,120788.600,131798.500,126735.800,122558.600,-0.043,0.869,-0.493,-6.866,3.571,-3.113,66.667,647.000,1.000,18.846,0.000
125359.400,121175.200,153904.400,137738.700,120770.400,131768.500,126716.800,122548.300,-0.046,0.863,-0.493,-6.683,3.723,-3.387,66.667,648.000,1.000,0.013,0.000
125356.700,121170.700,153900.500,137736.200,120768.100,131767.000,126713.800,122546.400,-0.051,0.855,-0.493,-6.531,3.754,-3.479,66.667,649.000,1.000,3.033,0.000
125353.300,121169.900,153891.700,137725.000,120764.800,131770.200,126711.500,122542.200,-0.056,0.850,-0.489,-6.165,3.845,-3.754,66.667,650.000,1.000,0.009,0.000
125351.500,121164.600,153882.400,137714.600,120760.800,131769.000,126707.000,122538.600,-0.061,0.849,-0.487,-5.890,3.754,-3.784,66.667,651.000,1.000,0.007,0.000
125365.700,121175.300,153894.200,137727.500,120776.000,131783.600,126726.700,122558.100,-0.063,0.849,-0.483,-5.615,3.571,-3.754,66.667,652.000,1.000,3.163,0.000
125375.400,121186.600,153903.200,137738.400,120788.400,131796.000,126743.200,122579.400,-0.063,0.852,-0.482,-5.280,3.479,-3.448,66.667,653.000,1.000,0.026,0.000
125361.600,121173.600,153888.800,137727.100,120776.000,131779.500,126727.800,122569.600,-0.066,0.853,-0.475,-4.974,3.357,-3.204,66.667,654.000,1.000,8.091,0.000
125351.800,121164.900,153876.400,137716.700,120764.700,131765.100,126712.000,122555.300,-0.065,0.856,-0.476,-4.791,3.113,-2.869,66.667,655.000,1.000,4.335,0.000
125359.400,121173.400,153883.100,137726.500,120774.400,131772.700,126720.300,122564.800,-0.067,0.857,-0.478,-4.639,2.991,-2.533,66.667,656.000,1.000,0.012,0.000
125371.700,121188.700,153896.800,137743.400,120790.700,131787.800,126736.900,122589.000,-0.070,0.858,-0.478,-4.456,2.899,-2.167,66.667,657.000,1.000,8.209,0.000
125367.200,121186.400,153891.400,137738.100,120787.800,131787.000,126738.400,122583.900,-0.072,0.860,-0.482,-4.211,2.472,-1.801,66.667,658.000,1.000,2.399,0.000
125344.600,121164.300,153868.000,137715.600,120768.400,131767.200,126721.600,122565.400,-0.071,0.861,-0.480,-3.876,2.197,-1.495,66.667,659.000,1.000,3.726,0.000
125342.600,121165.100,153863.400,137709.600,120766.400,131769.300,126716.400,122557.600,-0.069,0.867,-0.479,-3.632,2.045,-1.068,66.667,660.000,1.000,14.342,0.000
125351.300,121174.200,153867.500,137715.300,120773.700,131779.500,126719.700,122559.400,-0.068,0.870,-0.479,-3.418,1.617,-0.763,66.667,661.000,1.000,0.014,0.000
125352.400,121171.900,153863.400,137713.800,120773.900,131780.600,126720.500,122559.100,-0.064,0.875,-0.478,-3.235,1.343,-0.336,66.667,662.000,1.000,1.908,0.000
125345.300,121158.800,153850.000,137698.800,120762.500,131769.400,126710.000,122547.400,-0.062,0.878,-0.477,-3.113,1.221,0.031,66.667,663.000,1.000,3.099,0.000
125351.800,121164.000,153852.300,137701.100,120767.700,131775.700,126716.000,122547.200,-0.062,0.880,-0.478,-3.143,1.068,0.397,66.667,664.000,1.000,0.011,0.000
125358.100,121173.000,153857.900,137706.700,120776.300,131785.300,126722.600,122551.400,-0.060,0.883,-0.479,-3.174,0.854,0.671,66.667,665.000,1.000,1.897,0.000
125355.400,121175.000,153855.500,137701.100,120776.100,131785.400,126717.800,122547.600,-0.058,0.882,-0.480,-3.357,0.793,0.916,66.667,666.000,1.000,11.578,0.000
125356.500,121181.600,153857.400,137702.200,120780.300,131786.900,126723.700,122553.200,-0.055,0.880,-0.480,-3.418,0.732,1.160,66.667,667.000,1.000,4.716,0.000
125355.400,121182.100,153854.600,137700.000,120777.800,131781.900,126724.900,122553.500,-0.052,0.881,-0.480,-3.540,0.732,1.282,66.667,668.000,1.000,2.495,0.000
125354.200,121180.300,153849.800,137696.500,120774.500,131779.500,126723.600,122550.200,-0.051,0.882,-0.484,-3.693,0.610,1.282,66.667,669.000,1.000,2.469,0.000
125356.700,121181.100,153848.900,137698.900,120776.700,131785.100,126725.100,122553.300,-0.047,0.883,-0.483,-3.876,0.641,1.312,66.667,670.000,1.000,6.243,0.000
125340.800,121166.900,153831.200,137682.200,120762.100,131770.300,126707.400,122537.900,-0.045,0.884,-0.480,-3.906,0.671,1.221,66.667,671.000,1.000,6.849,0.000
125338.600,121162.500,153827.000,137679.100,120759.900,131765.200,126705.900,122537.500,-0.044,0.885,-0.482,-4.059,0.824,1.160,66.667,672.000,1.000,0.008,0.000
125352.000,121173.100,153839.300,137693.100,120772.600,131775.900,126719.500,122553.000,-0.042,0.885,-0.487,-4.395,1.007,0.793,66.667,673.000,1.000,4.450,0.000
125366.700,121189.700,153851.000,137705.800,120790.100,131799.600,126741.500,122569.600,-0.040,0.886,-0.491,-4.547,0.977,0.671,66.667,674.000,1.000,2.410,0.000
125367.000,121191.100,153844.900,137699.400,120787.400,131798.400,126738.000,122562.000,-0.041,0.884,-0.490,-4.791,1.190,0.336,66.667,675.000,1.000,9.376,0.000
125367.000,121189.700,153840.700,137694.000,120785.600,131790.400,126726.300,122557.600,-0.039,0.882,-0.491,-5.005,1.373,0.061,66.667,676.000,1.000,0.020,0.000
125378.000,121198.100,153850.000,137704.900,120797.500,131804.300,126738.700,122571.300,-0.037,0.879,-0.491,-5.127,1.648,-0.336,66.667,677.000,1.000,1.918,0.000
125362.500,121183.700,153832.700,137686.600,120780.400,131787.400,126723.000,122552.500,-0.038,0.875,-0.492,-5.188,1.740,-0.671,66.667,678.000,1.000,2.461,0.000
125358.000,121184.300,153830.600,137685.700,120783.800,131795.800,126734.200,122560.600,-0.039,0.871,-0.490,-5.127,1.953,-1.068,66.667,679.000,1.000,8.767,0.000
125361.900,121187.900,153833.600,137690.300,120788.900,131801.500,126740.500,122570.100,-0.040,0.869,-0.489,-5.066,2.106,-1.404,66.667,680.000,1.000,4.317,0.000
125377.700,121203.100,153848.000,137703.400,120803.400,131814.700,126751.800,122581.400,-0.046,0.870,-0.487,-5.005,2.106,-1.678,66.667,681.000,1.000,0.012,0.000
125386.100,121207.100,153852.300,137710.600,120808.400,131819.200,126760.800,122588.100,-0.049,0.868,-0.485,-5.066,2.106,-2.014,66.667,682.000,1.000,8.724,0.000
125380.900,121195.500,153839.700,137701.100,120792.800,131794.000,126738.100,122577.700,-0.053,0.864,-0.483,-5.096,2.075,-2.106,66.667,683.000,1.000,0.008,0.000
125374.600,121188.100,153827.700,137688.900,120780.100,131778.400,126723.600,122565.300,-0.056,0.863,-0.483,-4.883,1.984,-2.350,66.667,684.000,1.000,1.885,0.000
125377.100,121186.800,153823.600,137684.500,120777.500,131780.300,126723.400,122561.900,-0.059,0.858,-0.485,-4.578,1.923,-2.472,66.667,685.000,1.000,3.727,0.000
125379.400,121183.800,153817.600,137678.300,120770.800,131776.800,126712.900,122555.400,-0.061,0.860,-0.482,-4.333,1.801,-2.563,66.667,686.000,1.000,14.404,0.000
125383.300,121188.100,153816.800,137677.400,120771.900,131779.200,126717.000,122555.800,-0.065,0.862,-0.480,-4.089,1.465,-2.563,66.667,687.000,1.000,0.010,0.000
125394.500,121203.100,153828.600,137688.800,120787.500,131794.500,126735.200,122569.700,-0.065,0.864,-0.477,-3.815,1.251,-2.350,66.667,688.000,1.000,1.808,0.000
125388.600,121205.600,153825.900,137686.300,120788.200,131796.000,126733.900,122571.700,-0.064,0.865,-0.475,-3.479,0.916,-2.167,66.667,689.000,1.000,2.594,0.000
125379.800,121197.000,153816.300,137675.400,120782.500,131786.700,126727.200,122558.600,-0.063,0.865,-0.472,-3.265,0.671,-2.014,66.667,690.000,1.000,2.428,0.000
125366.200,121184.700,153802.500,137658.600,120772.200,131776.900,126715.300,122544.300,-0.063,0.865,-0.470,-3.052,0.427,-1.831,66.667,691.000,1.000,8.840,0.000
125367.800,121185.500,153805.000,137660.700,120777.900,131780.300,126722.100,122552.900,-0.063,0.867,-0.475,-2.686,0.153,-1.556,66.667,692.000,1.000,3.017,0.000
125371.500,121187.700,153808.200,137665.400,120783.500,131784.500,126729.300,122558.700,-0.063,0.869,-0.472,-2.411,0.061,-1.373,66.667,693.000,1.000,0.011,0.000
125380.400,121196.700,153814.500,137671.500,120792.300,131794.900,126737.900,122565.800,-0.062,0.869,-0.471,-2.106,-0.275,-1.038,66.667,694.000,1.000,8.146,0.000
125385.100,121201.600,153818.000,137678.300,120796.800,131801.400,126739.800,122566.800,-0.060,0.869,-0.472,-1.831,-0.458,-0.641,66.667,695.000,1.000,3.052,0.000
125380.700,121198.900,153811.700,137675.200,120793.800,131801.500,126736.500,122564.200,-0.054,0.871,-0.471,-1.648,-0.519,-0.397,66.667,696.000,1.000,0.011,0.000
125379.700,121201.300,153808.600,137674.400,120795.600,131802.700,126742.000,122570.700,-0.054,0.871,-0.473,-1.434,-0.549,-0.122,66.667,697.000,1.000,5.769,0.000
125373.600,121199.500,153801.500,137672.300,120793.700,131801.200,126745.200,122574.400,-0.052,0.871,-0.477,-1.221,-0.671,0.092,66.667,698.000,1.000,4.258,0.000
125380.600,121205.600,153806.300,137681.200,120802.100,131807.200,126754.200,122585.700,-0.052,0.872,-0.479,-1.038,-0.641,0.397,66.667,699.000,1.000,0.013,0.000
125371.300,121193.100,153794.400,137671.300,120792.700,131795.100,126745.800,122577.200,-0.052,0.873,-0.479,-0.885,-0.671,0.702,66.667,700.000,1.000,1.917,0.000
125356.900,121176.800,153777.100,137654.200,120778.900,131780.000,126732.000,122563.200,-0.054,0.873,-0.481,-0.702,-0.641,0.824,66.667,701.000,1.000,13.809,0.000
125363.700,121179.600,153781.300,137662.400,120785.400,131786.300,126741.300,122571.300,-0.055,0.874,-0.481,-0.580,-0.580,0.946,66.667,702.000,1.000,3.089,0.000
125381.000,121191.300,153792.700,137675.800,120798.600,131800.000,126757.800,122583.200,-0.052,0.875,-0.482,-0.427,-0.641,1.038,66.667,703.000,1.000,0.016,0.000
125387.400,121195.400,153792.900,137673.700,120798.900,131801.400,126759.100,122584.400,-0.050,0.876,-0.482,-0.458,-0.702,1.038,66.667,704.000,1.000,1.878,0.000
125388.500,121198.700,153792.300,137669.400,120799.500,131803.800,126755.000,122581.400,-0.048,0.880,-0.484,-0.488,-0.671,0.946,66.667,705.000,1.000,6.149,0.000
125392.100,121206.200,153794.500,137666.500,120803.100,131809.700,126755.900,122581.100,-0.049,0.881,-0.481,-0.427,-0.641,0.885,66.667,706.000,1.000,9.512,0.000
125388.300,121207.100,153787.000,137659.800,120796.900,131804.000,126752.400,122577.100,-0.047,0.881,-0.484,-0.488,-0.671,0.763,66.667,707.000,1.000,0.021,0.000
125390.600,121206.700,153785.600,137661.500,120797.100,131805.500,126757.100,122583.800,-0.046,0.882,-0.487,-0.641,-0.641,0.732,66.667,708.000,1.000,1.671,0.000
125369.700,121187.000,153765.300,137641.300,120778.900,131788.500,126740.000,122567.700,-0.045,0.886,-0.489,-0.824,-0.549,0.763,66.667,709.000,1.000,8.771,0.000
125363.700,121185.300,153761.500,137636.100,120775.500,131786.300,126731.400,122559.900,-0.045,0.886,-0.488,-1.007,-0.549,0.641,66.667,710.000,1.000,3.154,0.000
125369.800,121194.200,153768.900,137639.900,120784.700,131799.800,126738.000,122565.700,-0.043,0.890,-0.489,-1.190,-0.458,0.519,66.667,711.000,1.000,0.012,0.000
125387.500,121208.500,153784.800,137655.500,120801.300,131815.000,126752.500,122583.100,-0.042,0.890,-0.489,-1.495,-0.305,0.305,66.667,712.000,1.000,8.134,0.000
125376.800,121194.400,153772.800,137640.900,120789.300,131795.500,126739.500,122575.200,-0.041,0.892,-0.492,-1.770,-0.183,0.183,66.667,713.000,1.000,9.903,0.000
125360.100,121179.400,153756.000,137619.300,120773.500,131778.700,126721.700,122557.800,-0.041,0.895,-0.491,-2.045,-0.244,0.092,66.667,714.000,1.000,0.077,0.000
125372.100,121193.800,153766.100,137629.200,120787.600,131794.000,126732.900,122568.800,-0.042,0.895,-0.489,-2.502,-0.183,-0.092,66.667,715.000,1.000,0.008,0.000
125374.600,121202.000,153766.500,137631.600,120794.500,131802.000,126736.500,122572.200,-0.044,0.896,-0.488,-3.021,-0.031,-0.336,66.667,716.000,1.000,2.409,0.000
125369.400,121196.800,153756.600,137630.600,120790.800,131799.500,126734.400,122571.400,-0.045,0.898,-0.491,-3.387,0.153,-0.549,66.667,717.000,1.000,2.458,0.000
125363.000,121189.300,153742.500,137624.200,120783.400,131801.300,126737.300,122570.900,-0.043,0.897,-0.491,-3.876,0.183,-0.763,66.667,718.000,1.000,2.576,0.000
125364.300,121191.200,153738.800,137624.400,120784.700,131802.700,126739.000,122573.900,-0.042,0.893,-0.495,-4.272,0.214,-1.038,66.667,719.000,1.000,16.207,0.000
125367.000,121192.700,153739.400,137629.400,120787.900,131800.900,126734.000,122578.200,-0.043,0.888,-0.494,-4.639,0.275,-1.373,66.667,720.000,1.000,2.446,0.000
125370.500,121194.600,153743.800,137634.700,120792.800,131806.300,126736.900,122580.700,-0.042,0.886,-0.497,-4.944,0.397,-1.526,66.667,721.000,1.000,2.560,0.000
125373.900,121195.300,153749.000,137638.000,120797.400,131807.000,126745.400,122582.600,-0.043,0.881,-0.496,-5.127,0.488,-1.770,66.667,722.000,1.000,2.445,0.000
125371.100,121189.600,153746.300,137634.800,120792.000,131793.800,126735.800,122581.100,-0.044,0.881,-0.495,-5.280,0.458,-1.923,66.667,723.000,1.000,2.555,0.000
125367.900,121183.700,153742.300,137631.000,120787.300,131785.100,126732.500,122584.300,-0.046,0.881,-0.488,-5.432,0.519,-2.106,66.667,724.000,1.000,2.445,0.000
125356.000,121171.000,153728.600,137614.300,120772.400,131775.400,126715.800,122563.400,-0.046,0.881,-0.489,-5.524,0.549,-2.045,66.667,725.000,1.000,3.808,0.000
125359.100,121174.300,153728.900,137615.700,120772.600,131777.700,126713.900,122562.800,-0.047,0.877,-0.485,-5.707,0.610,-2.136,66.667,726.000,1.000,4.221,0.000
125367.700,121181.100,153732.600,137622.500,120778.900,131783.000,126721.900,122568.400,-0.047,0.870,-0.482,-5.798,0.580,-2.014,66.667,727.000,1.000,0.006,0.000
125362.700,121175.900,153723.100,137614.000,120774.200,131780.900,126724.600,122565.400,-0.043,0.862,-0.484,-5.890,0.580,-2.075,66.667,728.000,1.000,13.820,0.000
125347.400,121165.100,153702.200,137594.100,120758.000,131766.800,126709.500,122549.800,-0.047,0.854,-0.485,-5.920,0.671,-1.770,66.667,729.000,1.000,0.014,0.000
125352.000,121172.000,153700.400,137593.600,120762.000,131774.800,126713.000,122549.500,-0.049,0.847,-0.482,-5.676,0.671,-1.740,66.667,730.000,1.000,1.877,0.000
125367.300,121188.800,153710.100,137601.700,120774.600,131791.300,126724.500,122557.700,-0.049,0.844,-0.477,-5.219,0.488,-1.740,66.667,731.000,1.000,2.577,0.000
125380.100,121200.800,153716.900,137607.100,120781.900,131801.300,126732.400,122563.000,-0.049,0.841,-0.474,-4.761,0.519,-1.862,66.667,732.000,1.000,3.682,0.000
125365.300,121187.000,153700.000,137589.100,120767.000,131785.000,126719.900,122552.500,-0.049,0.846,-0.476,-4.333,0.610,-1.923,66.667,733.000,1.000,19.346,0.000
125376.600,121199.200,153710.100,137597.700,120779.400,131796.100,126732.800,122566.300,-0.049,0.847,-0.476,-3.876,0.671,-1.923,66.667,734.000,1.000,0.014,0.000
125380.100,121201.500,153714.200,137598.300,120784.900,131801.500,126735.200,122567.900,-0.050,0.845,-0.475,-3.418,0.793,-2.136,66.667,735.000,1.000,3.012,0.000
125375.300,121196.800,153712.200,137593.700,120784.700,131797.900,126729.700,122564.200,-0.051,0.849,-0.478,-3.052,0.824,-2.350,66.667,736.000,1.000,0.008,0.000
125368.100,121189.800,153708.800,137591.900,120782.800,131792.400,126726.600,122563.600,-0.052,0.851,-0.481,-2.625,0.824,-2.472,66.667,737.000,1.000,0.004,0.000
125373.400,121195.400,153715.400,137600.200,120792.100,131797.300,126735.400,122572.200,-0.055,0.859,-0.480,-2.014,0.793,-2.625,66.667,738.000,1.000,3.237,0.000
125369.800,121196.800,153714.300,137599.800,120794.200,131795.800,126736.900,122573.300,-0.057,0.865,-0.476,-1.556,0.854,-2.838,66.667,739.000,1.000,0.010,0.000
125365.000,121196.000,153710.600,137599.000,120795.000,131796.700,126735.600,122572.200,-0.056,0.871,-0.480,-1.221,0.793,-3.143,66.667,740.000,1.000,3.074,0.000
125362.700,121194.600,153705.300,137600.000,120793.400,131797.900,126732.000,122570.500,-0.057,0.883,-0.476,-1.160,0.916,-3.021,66.667,741.000,1.000,14.461,0.000
125363.300,121195.400,153701.200,137598.300,120791.300,131795.800,126732.600,122571.400,-0.056,0.890,-0.479,-1.343,0.793,-3.113,66.667,742.000,1.000,0.014,0.000
125356.100,121187.100,153688.300,137589.000,120781.100,131788.200,126731.200,122568.100,-0.053,0.893,-0.481,-1.160,0.946,-3.174,66.667,743.000,1.000,2.427,0.000
125356.000,121186.300,153681.900,137588.000,120778.900,131791.800,126732.100,122571.000,-0.052,0.896,-0.479,-1.282,1.007,-3.326,66.667,744.000,1.000,0.015,0.000
125360.200,121189.200,153681.600,137587.300,120779.200,131797.400,126729.800,122570.500,-0.049,0.901,-0.478,-1.373,1.129,-3.265,66.667,745.000,1.000,10.649,0.000
125360.200,121188.400,153680.200,137584.900,120778.400,131796.900,126724.600,122566.500,-0.047,0.902,-0.481,-1.740,1.190,-3.113,66.667,746.000,1.000,9.989,0.000
