EEG 1, EEG 2, EEG 3, EEG 4, EEG 5, EEG 6, EEG 7, EEG 8, ACC X, ACC Y, ACC Z, GYR X, GYR Y, GYR Z, BAT, CNT, VALID, DT, TRIG
136578.600,136578.600,136578.600,136578.600,136578.600,136578.600,136578.600,136578.600,-0.068,0.884,-0.412,0.000,0.000,0.000,66.667,1.000,1.000,0.000,0.000
469382.100,469382.100,435659.000,469382.100,432951.800,448872.000,469382.100,469382.100,-0.066,0.897,-0.425,0.000,0.000,0.000,66.667,2.000,1.000,15.609,0.000
719978.700,731059.300,562001.900,722491.600,474461.800,598306.500,731059.300,721713.400,-0.069,0.904,-0.429,0.000,0.000,0.000,66.667,3.000,1.000,2.494,0.000
756493.000,801568.300,433257.800,763767.800,106192.300,456711.800,801568.300,754861.600,-0.076,0.906,-0.432,0.000,0.000,0.000,66.667,4.000,1.000,2.466,0.000
733409.400,814894.100,323518.800,745655.700,-307993.000,314182.900,814894.100,724233.900,-0.081,0.905,-0.436,-1.556,3.571,-3.174,66.667,5.000,1.000,2.460,0.000
709099.700,797996.100,307600.500,729871.200,-600956.100,320473.900,797996.100,712142.400,-0.086,0.904,-0.440,11.383,7.904,-1.282,66.667,6.000,1.000,3.702,0.000
667911.100,731418.800,330225.900,692225.100,-648874.300,390397.800,731418.800,690494.900,-0.092,0.902,-0.436,16.418,8.453,0.092,66.667,7.000,1.000,14.492,0.000
668995.700,695083.400,460983.300,682674.100,-193479.300,501857.400,695083.400,686452.600,-0.097,0.894,-0.438,18.219,8.392,0.549,66.667,8.000,1.000,0.019,0.000
727095.100,725707.700,678010.800,729274.800,480692.800,668247.800,725707.700,731816.200,-0.099,0.888,-0.439,18.799,8.148,0.519,66.667,9.000,1.000,1.649,0.000
788116.300,775234.200,820996.700,786899.300,868966.600,808256.600,775234.200,791173.200,-0.099,0.878,-0.440,19.196,7.874,0.641,66.667,10.000,1.000,7.715,0.000
792467.000,781121.700,818743.300,789727.400,935793.800,816488.500,781121.700,792429.800,-0.098,0.872,-0.439,19.440,7.446,0.641,66.667,11.000,1.000,2.428,0.000
727769.300,727119.200,730877.600,724785.000,829773.400,716668.800,727119.200,722203.900,-0.100,0.863,-0.442,19.867,7.019,0.702,66.667,12.000,1.000,2.503,0.000
669272.100,673708.900,685338.800,683155.900,667491.800,659892.800,678559.900,662594.300,-0.098,0.860,-0.445,20.233,6.439,0.580,66.667,13.000,1.000,2.419,0.000
636629.900,628427.100,709411.900,684185.400,566209.100,671666.800,644326.400,629790.600,-0.097,0.862,-0.446,20.660,6.042,0.610,66.667,14.000,1.000,4.370,0.000
591199.700,567476.200,718570.500,657141.800,552775.600,652453.500,590216.100,584233.800,-0.094,0.864,-0.449,20.996,5.402,0.610,66.667,15.000,1.000,0.008,0.000
502935.000,477154.400,640580.700,563086.100,542411.400,545632.500,499099.800,492677.300,-0.090,0.865,-0.449,21.149,4.883,0.671,66.667,16.000,1.000,8.243,0.000
372884.300,356286.000,493456.400,424061.200,437127.700,385457.300,375839.200,358210.700,-0.092,0.867,-0.450,21.332,4.395,0.854,66.667,17.000,1.000,4.311,0.000
274511.700,267698.400,379285.100,318706.000,277550.300,282929.600,284389.700,262527.600,-0.089,0.869,-0.451,21.576,3.937,1.007,66.667,18.000,1.000,0.011,0.000
248780.900,242675.000,335450.600,282173.000,202596.100,275302.900,255201.600,243959.600,-0.087,0.874,-0.454,21.637,3.479,1.190,66.667,19.000,1.000,5.686,0.000
257711.300,245741.800,326042.200,283317.200,237957.500,293967.700,255672.200,257119.700,-0.087,0.877,-0.454,21.576,3.021,1.404,66.667,20.000,1.000,3.670,0.000
243349.800,228814.200,303762.700,268093.000,283572.000,267187.500,238986.000,239545.600,-0.088,0.881,-0.459,21.484,2.686,1.404,66.667,21.000,1.000,14.378,0.000
189247.600,179136.700,251955.900,216767.500,248034.400,194899.400,190504.900,180150.000,-0.088,0.885,-0.459,21.454,2.411,1.404,66.667,22.000,1.000,0.019,0.000
150206.600,146071.000,217337.200,178675.000,160486.000,155606.600,157135.300,141903.800,-0.091,0.891,-0.460,21.271,2.014,1.190,66.667,23.000,1.000,1.899,0.000
159631.800,155501.800,222094.100,183025.600,129535.500,179829.100,164280.800,156179.200,-0.090,0.901,-0.465,21.027,1.709,0.977,66.667,24.000,1.000,2.488,0.000
189790.600,180669.800,243562.700,209420.100,177747.400,218220.100,188305.200,189161.500,-0.086,0.910,-0.468,20.599,1.404,0.763,66.667,25.000,1.000,2.441,0.000
194624.400,182856.000,246196.900,215246.800,227882.200,214995.700,191443.500,191317.900,-0.084,0.912,-0.474,19.928,1.221,0.641,66.667,26.000,1.000,3.798,0.000
160699.000,151804.200,215935.700,184206.800,209170.500,168360.100,161616.000,153318.000,-0.079,0.913,-0.475,19.318,1.099,0.458,66.667,27.000,1.000,11.809,0.000
131533.400,127074.100,190047.400,155791.000,144477.100,138811.300,136610.000,124714.200,-0.075,0.909,-0.478,18.463,0.946,0.336,66.667,28.000,1.000,0.024,0.000
136344.500,132163.200,190521.400,156562.200,118269.200,153710.400,139843.900,133118.800,-0.071,0.904,-0.479,17.883,0.977,0.305,66.667,29.000,1.000,1.829,0.000
157314.400,149660.500,204729.700,174611.300,151236.900,180444.100,156413.900,156163.800,-0.064,0.904,-0.482,17.334,1.129,0.122,66.667,30.000,1.000,2.604,0.000
161540.700,151858.200,207879.700,179661.000,188608.800,179464.100,159326.600,158483.200,-0.055,0.905,-0.482,16.998,1.526,0.153,66.667,31.000,1.000,3.673,0.000
138947.600,131102.300,188605.500,159298.100,178277.500,148394.700,139512.200,132981.000,-0.047,0.908,-0.483,16.479,1.862,0.092,66.667,32.000,1.000,14.368,0.000
118494.800,113750.900,170405.300,139378.000,133277.400,127452.300,121979.700,112894.200,-0.042,0.907,-0.486,15.900,2.502,0.214,66.667,33.000,1.000,0.020,0.000
120424.500,116091.300,168544.600,138286.100,112366.600,135649.800,122955.400,117336.000,-0.042,0.905,-0.485,15.259,3.052,0.244,66.667,34.000,1.000,2.452,0.000
133666.500,127097.200,176672.200,149365.500,132721.300,152607.800,133266.700,132017.800,-0.043,0.899,-0.489,14.771,3.662,0.366,66.667,35.000,1.000,0.012,0.000
136761.900,128711.900,179407.600,153080.800,158687.400,152740.000,135383.600,133844.800,-0.045,0.894,-0.487,14.404,4.364,0.397,66.667,36.000,1.000,9.437,0.000
122898.300,115873.500,168341.700,140834.800,154379.400,133790.600,123219.900,118043.400,-0.047,0.890,-0.485,14.038,4.944,0.366,66.667,37.000,1.000,3.049,0.000
109344.200,104330.500,156128.900,127612.800,125289.100,119683.900,111557.900,104703.600,-0.050,0.884,-0.485,13.794,5.585,0.336,66.667,38.000,1.000,0.013,0.000
108930.100,104404.500,152443.500,125028.700,108984.900,122516.000,110671.300,105912.500,-0.056,0.883,-0.489,13.641,6.104,0.061,66.667,39.000,1.000,8.756,0.000
115839.500,110068.100,155602.600,130398.500,119211.000,131491.000,115831.800,113742.600,-0.059,0.880,-0.490,13.580,6.622,-0.061,66.667,40.000,1.000,0.034,0.000
117766.500,110983.100,157637.800,132750.800,135591.200,132169.000,117072.900,114924.900,-0.063,0.881,-0.485,13.458,6.866,-0.305,66.667,41.000,1.000,8.712,0.000
110569.500,104195.200,152680.600,126632.700,135544.400,122526.400,110732.200,106580.500,-0.065,0.878,-0.487,13.489,7.233,-0.336,66.667,42.000,1.000,0.012,0.000
102408.100,97181.470,145113.100,118620.400,118992.100,113791.500,103635.400,98519.090,-0.070,0.878,-0.488,13.397,7.385,-0.336,66.667,43.000,1.000,6.168,0.000
100227.500,95523.630,140162.800,114962.600,106650.300,112558.100,101341.900,97256.850,-0.071,0.874,-0.490,13.306,7.477,-0.427,66.667,44.000,1.000,0.010,0.000
102177.400,96996.450,139479.700,115872.800,109099.500,115303.300,102468.100,99719.230,-0.073,0.874,-0.493,13.214,7.507,-0.549,66.667,45.000,1.000,8.812,0.000
103030.200,97229.560,140727.800,116974.600,117742.100,116175.000,102879.300,100239.300,-0.074,0.872,-0.499,13.062,7.538,-0.702,66.667,46.000,1.000,0.017,0.000
100748.800,94910.050,140147.400,115325.800,120546.900,113428.500,100819.900,97435.770,-0.074,0.870,-0.495,13.123,7.446,-0.885,66.667,47.000,1.000,6.198,0.000
96679.780,91329.500,136093.900,111263.800,113549.200,108804.300,97184.080,93394.390,-0.076,0.870,-0.496,13.000,7.385,-1.099,66.667,48.000,1.000,0.012,0.000
93278.600,88458.100,130402.600,106944.000,104557.400,104691.100,93931.090,90377.590,-0.078,0.870,-0.499,12.848,7.416,-1.343,66.667,49.000,1.000,6.293,0.000
91551.160,86825.950,126944.200,104577.000,101348.600,102818.800,92074.090,88852.680,-0.082,0.869,-0.497,12.665,7.477,-1.465,66.667,50.000,1.000,0.019,0.000
91507.350,86475.300,127455.300,104638.000,104008.500,103670.600,91786.520,88780.340,-0.083,0.866,-0.501,12.573,7.324,-1.648,66.667,51.000,1.000,10.607,0.000
92697.800,87319.400,129855.500,106101.200,108554.100,105810.600,92740.200,89908.610,-0.082,0.865,-0.499,12.665,7.141,-1.678,66.667,52.000,1.000,4.384,0.000
91635.020,86256.590,128372.400,104928.900,108535.300,104243.900,91638.420,88821.380,-0.086,0.862,-0.502,12.634,7.080,-1.862,66.667,53.000,1.000,0.012,0.000
87494.280,82619.270,122367.000,100292.900,102300.300,98264.220,87816.280,84673.640,-0.086,0.863,-0.500,12.543,6.866,-2.014,66.667,54.000,1.000,8.693,0.000
83194.480,78808.640,117030.900,95654.160,95211.820,93149.110,83871.720,80347.840,-0.089,0.863,-0.501,12.421,6.775,-2.014,66.667,55.000,1.000,0.017,0.000
82445.660,77989.220,116899.400,94896.660,93445.910,93840.180,83018.480,79787.210,-0.091,0.863,-0.502,12.177,6.561,-2.106,66.667,56.000,1.000,8.737,0.000
85967.200,80968.610,121208.700,98418.160,98921.120,99240.450,85989.540,83575.700,-0.091,0.861,-0.503,11.932,6.470,-2.045,66.667,57.000,1.000,0.011,0.000
87043.680,81703.160,121569.600,99301.700,103774.400,99871.410,86698.850,84592.020,-0.094,0.860,-0.505,11.902,6.287,-2.197,66.667,58.000,1.000,2.484,0.000
82568.630,77687.060,115614.800,94647.380,99782.000,92863.400,82642.350,79836.300,-0.090,0.860,-0.501,11.658,6.256,-2.197,66.667,59.000,1.000,0.006,0.000
76636.010,72500.590,109174.800,88599.720,90317.490,85694.710,77393.860,73725.740,-0.089,0.865,-0.500,11.444,6.165,-2.075,66.667,60.000,1.000,8.130,0.000
75365.770,71342.090,108521.600,87237.820,85482.500,86185.250,76147.330,72796.090,-0.085,0.868,-0.502,11.292,6.226,-1.923,66.667,61.000,1.000,4.280,0.000
80256.800,75591.240,113848.400,91931.090,91232.980,93516.790,80310.940,78179.060,-0.084,0.868,-0.501,11.108,6.378,-1.801,66.667,62.000,1.000,0.009,0.000
82705.480,77477.640,115394.700,94133.220,99165.050,95580.780,82175.080,80549.970,-0.083,0.865,-0.504,10.895,6.439,-1.740,66.667,63.000,1.000,1.939,0.000
78203.050,73377.380,109744.100,89676.420,96923.810,88181.920,78129.550,75585.050,-0.082,0.867,-0.506,10.712,6.500,-1.556,66.667,64.000,1.000,10.049,0.000
71422.030,67479.680,102837.100,82933.410,86281.300,79916.370,72216.770,68516.990,-0.080,0.867,-0.509,10.529,6.775,-1.343,66.667,65.000,1.000,2.512,0.000
69827.700,66112.590,101814.500,81183.580,79512.120,80192.910,70719.190,67339.690,-0.079,0.870,-0.508,10.529,6.989,-1.038,66.667,66.000,1.000,3.633,0.000
75394.750,70996.550,107536.700,86412.180,85108.430,88453.660,75459.410,73518.680,-0.079,0.872,-0.511,10.437,7.202,-0.885,66.667,67.000,1.000,9.456,0.000
78653.270,73567.270,109798.000,89387.380,94750.300,91391.530,78007.760,76685.340,-0.079,0.875,-0.510,10.132,7.324,-0.732,66.667,68.000,1.000,0.008,0.000
74331.510,69586.250,104609.400,85259.050,93824.480,84075.410,74147.450,71799.890,-0.080,0.874,-0.509,9.796,7.690,-0.641,66.667,69.000,1.000,1.920,0.000
67239.500,63426.900,97652.840,78308.860,82860.110,75401.000,68008.870,64363.470,-0.078,0.870,-0.515,9.460,7.935,-0.580,66.667,70.000,1.000,2.437,0.000
65423.090,61912.490,96336.840,76303.240,75013.770,75432.440,66339.650,63001.420,-0.080,0.864,-0.521,9.247,8.148,-0.275,66.667,71.000,1.000,8.755,0.000
71122.410,66943.250,101977.900,81585.970,80152.500,83868.130,71192.980,69374.420,-0.079,0.861,-0.521,9.003,8.392,-0.336,66.667,72.000,1.000,3.107,0.000
74761.580,69844.810,104596.400,84932.940,90466.070,87254.630,74073.470,72927.470,-0.080,0.858,-0.523,8.911,8.575,-0.366,66.667,73.000,1.000,0.022,0.000
70795.160,66157.800,99995.820,81251.610,90514.550,80376.670,70542.840,68359.730,-0.078,0.855,-0.526,8.911,8.759,-0.366,66.667,74.000,1.000,5.608,0.000
63852.680,60134.840,93354.390,74509.880,79906.300,71854.230,64560.560,61048.230,-0.077,0.852,-0.528,9.003,9.003,-0.305,66.667,75.000,1.000,8.663,0.000
61955.520,58577.130,91872.750,72403.050,71694.800,71680.570,62836.130,59604.240,-0.080,0.851,-0.530,8.881,9.216,-0.305,66.667,76.000,1.000,4.378,0.000
67409.590,63405.980,97112.840,77400.250,76192.950,79745.200,67468.500,65735.070,-0.080,0.849,-0.529,8.972,9.338,-0.305,66.667,77.000,1.000,0.008,0.000
71086.590,66346.560,99796.780,80787.670,86389.870,83225.990,70390.250,69331.810,-0.083,0.847,-0.533,8.881,9.583,-0.183,66.667,78.000,1.000,3.673,0.000
67551.270,63032.360,95815.580,77581.720,87095.160,76999.020,67253.780,65202.590,-0.087,0.848,-0.538,8.850,9.705,-0.305,66.667,79.000,1.000,0.006,0.000
61043.660,57386.440,89698.710,71301.580,77268.400,69000.880,61661.730,58331.290,-0.085,0.851,-0.533,8.789,9.735,-0.183,66.667,80.000,1.000,5.735,0.000
59155.790,55845.550,88133.830,69196.700,69194.730,68654.650,59956.780,56873.870,-0.086,0.854,-0.529,8.606,9.644,-0.031,66.667,81.000,1.000,8.744,0.000
64123.750,60254.000,92779.130,73697.580,72969.010,76007.790,64168.540,62485.230,-0.086,0.853,-0.527,8.270,9.644,0.061,66.667,82.000,1.000,3.082,0.000
67599.210,63037.790,95321.790,76894.820,82503.450,79337.730,66932.130,65886.880,-0.085,0.854,-0.523,7.874,9.827,0.061,66.667,83.000,1.000,0.012,0.000
64515.970,60125.930,91937.280,74150.020,83594.550,73853.130,64199.370,62244.890,-0.086,0.856,-0.524,7.477,9.705,0.153,66.667,84.000,1.000,1.879,0.000
58621.150,55009.300,86469.130,68487.770,74808.940,66604.740,59145.930,56010.390,-0.086,0.855,-0.525,7.172,9.766,0.061,66.667,85.000,1.000,11.265,0.000
56804.430,53532.010,84892.560,66462.400,67227.240,66121.190,57519.320,54588.830,-0.086,0.855,-0.525,6.714,9.857,0.031,66.667,86.000,1.000,2.990,0.000
61140.810,57388.380,88845.590,70350.180,70265.420,72558.140,61192.310,59519.950,-0.087,0.856,-0.523,6.348,9.796,0.061,66.667,87.000,1.000,0.008,0.000
64279.460,59904.350,91140.570,73232.840,78823.370,75598.300,63694.610,62608.040,-0.088,0.856,-0.523,5.859,9.796,0.153,66.667,88.000,1.000,3.182,0.000
61675.750,57430.060,88349.830,70954.820,80135.950,70932.410,61394.230,59509.250,-0.085,0.855,-0.523,5.524,9.766,0.000,66.667,89.000,1.000,8.863,0.000
56518.170,52954.000,83614.260,66018.380,72548.870,64589.180,56975.010,54044.910,-0.085,0.853,-0.522,5.035,9.766,0.092,66.667,90.000,1.000,7.445,0.000
54834.550,51590.500,82091.950,64140.570,65698.360,64017.990,55464.920,52705.340,-0.084,0.855,-0.523,4.547,9.796,0.244,66.667,91.000,1.000,2.446,0.000
58473.160,54835.160,85317.970,67365.390,68030.240,69451.590,58534.610,56867.830,-0.086,0.855,-0.526,4.089,9.857,0.244,66.667,92.000,1.000,2.600,0.000
61180.040,57002.790,87279.860,69842.850,75416.160,72099.800,60682.350,59534.590,-0.086,0.855,-0.532,3.693,9.857,0.275,66.667,93.000,1.000,2.487,0.000
59027.970,54940.830,85020.610,67986.270,76785.480,68216.970,58767.530,56947.750,-0.085,0.855,-0.534,3.265,9.796,0.305,66.667,94.000,1.000,3.743,0.000
54634.540,51121.070,81014.700,63789.570,70412.800,62803.000,54995.820,52281.740,-0.084,0.854,-0.538,2.991,9.644,0.427,66.667,95.000,1.000,4.289,0.000
53101.130,49873.930,79571.230,62076.230,64400.250,62163.500,53620.530,51038.600,-0.086,0.851,-0.536,2.747,9.552,0.397,66.667,96.000,1.000,0.008,0.000
56033.260,52487.830,82082.260,64634.190,66078.590,66576.460,56078.720,54418.850,-0.086,0.844,-0.541,2.533,9.399,0.519,66.667,97.000,1.000,8.218,0.000
58280.700,54279.340,83683.980,66681.520,72233.450,68798.680,57852.850,56642.120,-0.085,0.840,-0.540,2.197,9.308,0.671,66.667,98.000,1.000,2.393,0.000
56542.060,52601.560,81894.010,65203.160,73558.630,65669.770,56306.550,54545.070,-0.086,0.838,-0.543,1.984,9.125,0.763,66.667,99.000,1.000,5.089,0.000
52885.860,49418.890,78576.230,61716.570,68352.700,61174.570,53167.550,50664.300,-0.086,0.839,-0.542,2.045,9.033,0.946,66.667,100.000,1.000,3.802,0.000
51505.920,48292.270,77228.570,60177.640,63216.500,60488.120,51930.140,49528.340,-0.083,0.839,-0.540,2.075,9.003,0.916,66.667,101.000,1.000,9.291,0.000
53765.300,50309.130,79080.190,62109.460,64325.130,63924.510,53810.550,52160.960,-0.082,0.838,-0.546,1.984,8.911,0.854,66.667,102.000,1.000,0.013,0.000
55559.310,51731.250,80326.100,63724.820,69273.250,65703.680,55213.040,53937.320,-0.077,0.839,-0.547,2.045,8.911,0.916,66.667,103.000,1.000,1.800,0.000
54190.540,50396.840,78939.880,62564.980,70478.530,63237.190,53985.100,52274.760,-0.071,0.839,-0.548,1.953,9.033,1.038,66.667,104.000,1.000,3.813,0.000
51233.950,47815.370,76261.040,59743.300,66352.010,59599.800,51438.180,49134.010,-0.066,0.842,-0.551,2.075,9.216,1.312,66.667,105.000,1.000,9.963,0.000
50034.390,46829.290,75041.960,58403.800,62096.390,58909.680,50358.210,48126.280,-0.059,0.845,-0.550,1.923,9.277,1.617,66.667,106.000,1.000,0.069,0.000
51703.080,48320.350,76323.870,59788.760,62741.510,61478.020,51729.300,50087.910,-0.058,0.848,-0.547,1.770,9.399,1.984,66.667,107.000,1.000,1.181,0.000
53072.410,49400.220,77234.990,61002.050,66568.450,62843.660,52783.110,51442.040,-0.054,0.850,-0.548,1.373,9.583,2.228,66.667,108.000,1.000,8.878,0.000
52014.310,48358.930,76177.870,60108.930,67606.910,60953.740,51823.880,50151.080,-0.056,0.853,-0.545,1.282,9.705,2.563,66.667,109.000,1.000,4.245,0.000
49679.550,46310.960,74059.630,57879.480,64435.500,58088.660,49805.480,47672.710,-0.058,0.858,-0.545,0.946,9.796,2.777,66.667,110.000,1.000,0.009,0.000
48637.130,45445.760,72962.520,56719.890,60997.480,57410.190,48869.110,46785.820,-0.058,0.863,-0.543,0.488,9.766,3.052,66.667,111.000,1.000,8.116,0.000
49759.430,46448.710,73733.260,57609.430,61247.770,59201.490,49779.460,48144.660,-0.061,0.868,-0.541,-0.061,9.888,3.143,66.667,112.000,1.000,4.396,0.000
50721.430,47196.450,74322.370,58444.730,64055.730,60176.760,50508.200,49107.850,-0.061,0.870,-0.538,-0.580,9.888,3.357,66.667,113.000,1.000,0.010,0.000
49928.050,46411.140,73540.050,57777.970,64918.750,58793.160,49789.630,48146.840,-0.056,0.875,-0.535,-1.190,9.827,3.357,66.667,114.000,1.000,8.673,0.000
48155.670,44852.140,71923.570,56081.600,62586.520,56627.250,48254.400,46268.890,-0.056,0.878,-0.535,-1.678,9.766,3.357,66.667,115.000,1.000,0.010,0.000
47270.480,44107.780,70951.980,55095.950,59884.220,55969.590,47450.090,45499.710,-0.057,0.879,-0.533,-2.380,9.888,3.357,66.667,116.000,1.000,19.357,0.000
47942.730,44704.140,71306.040,55577.010,59824.000,57095.110,47968.690,46350.650,-0.058,0.879,-0.529,-3.174,9.735,3.418,66.667,117.000,1.000,0.011,0.000
48558.030,45164.420,71619.160,56086.700,61749.300,57723.550,48411.520,46973.170,-0.058,0.877,-0.527,-3.998,9.613,3.357,66.667,118.000,1.000,0.003,0.000
47954.080,44555.030,71024.350,55570.100,62396.900,56714.020,47847.390,46246.930,-0.055,0.872,-0.529,-4.761,9.552,3.235,66.667,119.000,1.000,3.752,0.000
46623.840,43371.240,69792.160,54285.270,60724.820,55089.620,46671.140,44834.120,-0.056,0.869,-0.527,-5.249,9.491,3.204,66.667,120.000,1.000,0.009,0.000
45877.030,42733.930,68934.990,53449.070,58662.550,54461.180,45981.070,44163.980,-0.052,0.864,-0.530,-5.676,9.430,3.174,66.667,121.000,1.000,0.003,0.000
46193.480,43012.470,68966.990,53609.340,58383.920,55061.920,46195.970,44604.790,-0.051,0.860,-0.531,-5.829,9.247,3.021,66.667,122.000,1.000,2.545,0.000
46531.360,43248.380,69061.270,53857.670,59584.000,55412.430,46410.980,44948.200,-0.048,0.857,-0.529,-6.073,9.247,2.899,66.667,123.000,1.000,3.801,0.000
46104.050,42810.760,68633.890,53480.650,60055.810,54735.020,46000.010,44434.880,-0.048,0.858,-0.530,-6.348,9.064,2.838,66.667,124.000,1.000,6.149,0.000
45160.930,41962.730,67737.450,52558.370,58943.290,53595.720,45157.420,43436.630,-0.051,0.860,-0.529,-6.531,8.850,2.716,66.667,125.000,1.000,8.879,0.000
44535.750,41419.430,66987.790,51858.700,57426.090,53012.030,44577.480,42866.210,-0.053,0.861,-0.527,-6.714,8.759,2.625,66.667,126.000,1.000,9.872,0.000
44564.360,41438.330,66767.560,51763.500,56988.400,53188.690,44547.810,42980.640,-0.056,0.860,-0.527,-6.927,8.545,2.350,66.667,127.000,1.000,0.015,0.000
44661.530,41477.700,66672.200,51786.630,57590.930,53296.020,44567.780,43090.290,-0.058,0.865,-0.527,-7.141,8.392,2.106,66.667,128.000,1.000,0.009,0.000
44342.310,41147.230,66344.020,51491.550,57879.420,52847.860,44251.760,42725.900,-0.062,0.870,-0.527,-7.202,8.148,1.831,66.667,129.000,1.000,3.093,0.000
43692.450,40551.680,65696.680,50842.390,57188.990,52076.140,43656.040,42045.030,-0.062,0.871,-0.529,-7.599,7.751,1.312,66.667,130.000,1.000,0.008,0.000
43168.340,40084.340,65034.680,50249.710,56112.610,51530.000,43159.660,41549.580,-0.060,0.871,-0.531,-7.813,7.446,0.916,66.667,131.000,1.000,1.902,0.000
42973.560,39897.650,64619.450,49953.540,55562.360,51372.140,42934.860,41401.650,-0.056,0.871,-0.527,-7.935,7.141,0.397,66.667,132.000,1.000,8.718,0.000
42884.370,39782.590,64377.230,49801.820,55699.750,51285.880,42801.420,41325.300,-0.053,0.870,-0.524,-8.118,6.927,-0.061,66.667,133.000,1.000,9.372,0.000
42656.770,39544.510,64131.160,49575.660,55844.500,51019.760,42568.140,41081.690,-0.050,0.867,-0.525,-8.392,6.622,-0.305,66.667,134.000,1.000,0.007,0.000
42243.320,39159.080,63688.980,49149.650,55486.880,50543.100,42177.680,40657.380,-0.046,0.867,-0.523,-8.636,6.439,-0.641,66.667,135.000,1.000,2.748,0.000
41808.480,38768.970,63117.310,48660.730,54774.130,50047.420,41763.630,40238.370,-0.045,0.864,-0.522,-8.759,6.348,-0.854,66.667,136.000,1.000,0.006,0.000
41455.890,38444.930,62577.420,48233.390,54168.570,49661.230,41409.880,39911.630,-0.042,0.865,-0.518,-8.850,6.256,-1.068,66.667,137.000,1.000,27.940,0.000
41221.880,38212.880,62222.020,47948.580,53954.200,49431.290,41160.780,39694.900,-0.036,0.861,-0.518,-9.003,6.226,-1.282,66.667,138.000,1.000,3.660,0.000
41045.460,38024.900,62012.310,47754.360,53960.400,49280.600,40971.340,39523.480,-0.035,0.858,-0.510,-9.094,6.287,-1.190,66.667,139.000,1.000,0.017,0.000
40797.570,37778.310,61703.880,47478.880,53824.150,49005.450,40716.000,39275.950,-0.037,0.858,-0.505,-9.277,6.378,-1.129,66.667,140.000,1.000,0.012,0.000
40430.440,37437.390,61196.160,47062.420,53376.020,48540.430,40349.720,38908.720,-0.040,0.854,-0.502,-9.399,6.500,-1.038,66.667,141.000,1.000,12.664,0.000
39974.290,37017.420,60575.820,46545.950,52742.870,47990.900,39899.970,38453.400,-0.042,0.847,-0.500,-9.491,6.500,-1.099,66.667,142.000,1.000,2.366,0.000
39644.620,36707.590,60146.520,46168.450,52279.030,47654.870,39569.020,38132.820,-0.045,0.844,-0.500,-9.430,6.561,-0.977,66.667,143.000,1.000,2.498,0.000
39504.990,36558.570,59962.220,45993.650,52174.620,47576.520,39406.200,38006.040,-0.052,0.840,-0.496,-9.094,6.348,-1.007,66.667,144.000,1.000,2.533,0.000
39379.380,36420.790,59756.630,45831.500,52195.390,47457.000,39256.430,37890.780,-0.058,0.841,-0.496,-8.850,6.195,-0.854,66.667,145.000,1.000,2.497,0.000
39071.130,36129.960,59310.640,45482.020,51955.750,47049.090,38953.840,37579.850,-0.061,0.847,-0.495,-8.514,5.920,-1.007,66.667,146.000,1.000,2.475,0.000
38548.070,35649.880,58644.360,44914.820,51324.550,46408.250,38458.710,37049.770,-0.065,0.852,-0.494,-8.270,5.646,-1.068,66.667,147.000,1.000,2.498,0.000
38151.790,35285.380,58164.580,44478.270,50695.300,46000.980,38075.300,36663.790,-0.070,0.858,-0.490,-8.148,5.005,-1.068,66.667,148.000,1.000,2.496,0.000
38037.950,35161.990,57993.670,44318.210,50507.910,45967.630,37929.900,36568.780,-0.069,0.867,-0.488,-8.148,4.547,-1.038,66.667,149.000,1.000,2.473,0.000
37991.680,35091.150,57849.460,44227.290,50615.910,45940.240,37840.390,36533.670,-0.065,0.872,-0.490,-8.118,4.150,-0.916,66.667,150.000,1.000,2.532,0.000
37724.350,34830.010,57446.320,43921.530,50509.950,45560.970,37568.990,36254.900,-0.065,0.880,-0.491,-8.209,3.906,-0.885,66.667,151.000,1.000,2.471,0.000
37175.460,34324.080,56769.510,43334.750,49902.710,44873.150,37054.390,35690.220,-0.061,0.887,-0.497,-8.484,3.601,-0.671,66.667,152.000,1.000,3.103,0.000
36743.720,33932.640,56263.130,42865.570,49182.510,44429.180,36646.840,35269.980,-0.061,0.892,-0.499,-8.575,3.357,-0.549,66.667,153.000,1.000,0.009,0.000
36634.610,33819.650,56087.760,42706.950,48934.250,44418.700,36510.640,35188.950,-0.058,0.893,-0.500,-8.789,2.991,-0.397,66.667,154.000,1.000,1.908,0.000
36633.240,33792.980,55980.920,42658.710,49093.450,44454.050,36466.380,35209.840,-0.057,0.893,-0.507,-8.972,2.808,-0.244,66.667,155.000,1.000,14.340,0.000
36393.720,33558.780,55614.670,42383.450,49079.180,44104.450,36221.790,34962.890,-0.053,0.887,-0.509,-9.064,2.655,-0.153,66.667,156.000,1.000,0.013,0.000
35827.370,33038.780,54939.330,41787.840,48495.820,43389.880,35688.940,34376.340,-0.046,0.883,-0.510,-9.064,2.533,-0.153,66.667,157.000,1.000,1.922,0.000
35362.890,32621.570,54411.860,41291.750,47719.880,42910.020,35253.310,33923.090,-0.039,0.880,-0.510,-9.064,2.594,0.000,66.667,158.000,1.000,2.485,0.000
35229.970,32490.490,54207.050,41106.950,47407.130,42879.180,35098.520,33825.060,-0.037,0.875,-0.512,-8.942,2.625,0.031,66.667,159.000,1.000,2.424,0.000
35226.480,32459.630,54090.010,41054.760,47553.270,42913.020,35048.250,33844.350,-0.032,0.872,-0.512,-8.850,2.594,0.366,66.667,160.000,1.000,3.742,0.000
35008.060,32238.770,53747.930,40804.860,47586.320,42581.920,34820.520,33614.290,-0.033,0.865,-0.512,-8.514,2.930,0.641,66.667,161.000,1.000,11.851,0.000
34467.560,31738.620,53108.510,40245.200,47056.100,41890.800,34318.380,33055.660,-0.033,0.854,-0.508,-8.331,3.082,0.824,66.667,162.000,1.000,0.013,0.000
34011.850,31326.750,52591.930,39763.520,46284.980,41412.570,33894.610,32611.230,-0.029,0.842,-0.507,-8.087,3.265,1.251,66.667,163.000,1.000,2.494,0.000
33879.270,31194.240,52380.250,39576.070,45947.310,41371.930,33739.880,32509.890,-0.026,0.839,-0.504,-7.446,3.540,1.556,66.667,164.000,1.000,0.009,0.000
33880.660,31168.700,52266.750,39526.400,46081.340,41411.560,33698.520,32536.590,-0.026,0.843,-0.498,-6.775,3.906,1.953,66.667,165.000,1.000,1.916,0.000
33673.940,30960.630,51943.830,39287.800,46132.250,41104.390,33483.300,32320.400,-0.027,0.851,-0.495,-6.409,4.150,2.136,66.667,166.000,1.000,7.542,0.000
33151.650,30480.560,51331.520,38744.010,45639.160,40444.000,32995.830,31776.880,-0.031,0.858,-0.488,-6.134,4.303,2.441,66.667,167.000,1.000,3.713,0.000
32699.470,30078.580,50820.410,38261.620,44889.100,39972.170,32577.520,31336.840,-0.037,0.857,-0.486,-6.104,4.547,2.594,66.667,168.000,1.000,6.211,0.000
32560.230,29948.980,50596.940,38066.450,44541.250,39916.430,32421.310,31233.070,-0.038,0.856,-0.487,-5.859,4.608,2.716,66.667,169.000,1.000,9.321,0.000
32563.920,29930.590,50483.250,38021.710,44656.940,39955.270,32383.000,31260.150,-0.042,0.855,-0.486,-5.737,4.517,2.747,66.667,170.000,1.000,0.011,0.000
32367.490,29730.210,50176.100,37795.190,44708.130,39672.650,32177.570,31052.390,-0.040,0.851,-0.484,-5.524,4.517,2.625,66.667,171.000,1.000,1.926,0.000
31870.510,29268.680,49596.970,37277.160,44252.360,39053.070,31715.940,30537.540,-0.036,0.846,-0.485,-5.341,4.425,2.411,66.667,172.000,1.000,2.524,0.000
31439.040,28879.850,49107.020,36816.900,43548.020,38598.440,31318.060,30119.910,-0.033,0.844,-0.486,-5.127,4.395,2.197,66.667,173.000,1.000,3.661,0.000
31284.280,28733.060,48866.060,36609.280,43192.450,38515.860,31152.560,30002.570,-0.035,0.847,-0.490,-4.944,4.486,2.106,66.667,174.000,1.000,14.426,0.000
31246.520,28678.850,48714.000,36524.440,43248.570,38513.200,31082.910,29993.510,-0.038,0.852,-0.493,-4.639,4.578,1.984,66.667,175.000,1.000,0.007,0.000
31037.970,28469.000,48397.680,36286.200,43262.280,38224.520,30862.230,29775.630,-0.044,0.857,-0.496,-4.333,4.547,1.709,66.667,176.000,1.000,1.875,0.000
30580.240,28040.680,47856.480,35809.110,42840.270,37647.490,30424.760,29296.140,-0.045,0.863,-0.496,-4.089,4.547,1.465,66.667,177.000,1.000,2.465,0.000
30171.270,27668.000,47384.140,35373.030,42182.860,37212.330,30041.250,28896.450,-0.047,0.865,-0.498,-3.998,4.364,1.129,66.667,178.000,1.000,2.537,0.000
29992.760,27496.530,47115.820,35143.070,41813.890,37093.530,29854.470,28750.420,-0.043,0.863,-0.502,-3.754,4.333,0.732,66.667,179.000,1.000,9.301,0.000
29932.780,27419.890,46942.080,35035.630,41823.010,37057.240,29763.260,28713.880,-0.036,0.858,-0.504,-3.601,4.303,0.275,66.667,180.000,1.000,0.009,0.000
29741.430,27226.570,46647.380,34813.050,41824.540,36791.650,29554.920,28515.490,-0.030,0.849,-0.511,-3.204,4.456,0.183,66.667,181.000,1.000,1.913,0.000
29328.690,26844.250,46156.200,34380.380,41450.200,36275.370,29157.120,28088.750,-0.026,0.844,-0.518,-2.869,4.608,0.061,66.667,182.000,1.000,3.775,0.000
28941.940,26494.770,45705.980,33966.920,40851.710,35862.960,28791.950,27710.630,-0.024,0.844,-0.521,-2.350,4.944,0.214,66.667,183.000,1.000,3.700,0.000
28749.840,26311.020,45423.070,33724.710,40487.040,35713.700,28588.780,27540.830,-0.022,0.851,-0.525,-1.831,5.096,0.366,66.667,184.000,1.000,19.348,0.000
28668.820,26216.970,45231.090,33596.410,40453.600,35647.520,28477.220,27474.670,-0.023,0.857,-0.525,-1.373,5.341,0.641,66.667,185.000,1.000,0.013,0.000
28481.770,26030.380,44945.610,33377.600,40429.940,35399.640,28278.220,27279.050,-0.023,0.862,-0.523,-0.977,5.554,0.946,66.667,186.000,1.000,3.150,0.000
28105.070,25680.890,44493.710,32980.380,40092.140,34936.470,27918.340,26889.400,-0.023,0.870,-0.519,-0.763,5.707,1.160,66.667,187.000,1.000,0.007,0.000
27740.110,25349.600,44064.180,32589.590,39552.980,34543.730,27575.490,26536.000,-0.023,0.871,-0.513,-0.610,6.012,1.404,66.667,188.000,1.000,0.004,0.000
27532.820,25154.840,43767.060,32336.120,39198.160,34365.970,27366.040,26357.090,-0.021,0.872,-0.515,-0.702,6.348,1.587,66.667,189.000,1.000,2.454,0.000
27424.440,25040.690,43553.050,32183.510,39123.230,34269.380,27239.290,26269.420,-0.026,0.873,-0.515,-0.763,6.409,1.709,66.667,190.000,1.000,2.537,0.000
27231.990,24848.260,43266.550,31960.450,39062.540,34025.540,27038.820,26074.270,-0.028,0.875,-0.517,-0.763,6.439,1.831,66.667,191.000,1.000,3.705,0.000
26884.380,24518.420,42841.940,31588.900,38741.770,33597.840,26697.780,25713.420,-0.034,0.880,-0.514,-0.793,6.500,1.831,66.667,192.000,1.000,9.396,0.000
26549.670,24206.240,42433.700,31220.430,38252.060,33223.690,26363.620,25375.270,-0.041,0.884,-0.511,-1.007,6.439,1.831,66.667,193.000,1.000,0.009,0.000
26337.710,24001.050,42126.040,30959.810,37903.220,33020.600,26135.740,25173.950,-0.045,0.886,-0.506,-1.526,6.348,1.556,66.667,194.000,1.000,1.879,0.000
26192.290,23850.480,41876.980,30773.710,37774.110,32880.180,25978.250,25047.760,-0.046,0.888,-0.504,-2.136,6.195,1.373,66.667,195.000,1.000,13.797,0.000
25987.570,23648.140,41581.760,30540.460,37673.890,32631.950,25774.320,24853.410,-0.046,0.886,-0.506,-2.441,5.981,1.129,66.667,196.000,1.000,3.110,0.000
25680.870,23359.120,41198.900,30210.280,37390.640,32254.430,25471.910,24545.150,-0.042,0.880,-0.510,-2.930,5.798,0.854,66.667,197.000,1.000,0.011,0.000
25379.760,23081.060,40825.360,29879.460,36968.890,31918.190,25170.440,24243.860,-0.040,0.872,-0.510,-3.143,5.585,0.702,66.667,198.000,1.000,1.801,0.000
25163.320,22877.190,40519.270,29619.300,36640.740,31706.470,24941.810,24033.630,-0.038,0.862,-0.511,-3.357,5.310,0.427,66.667,199.000,1.000,2.592,0.000
25004.240,22719.540,40262.880,29417.940,36483.070,31543.990,24766.510,23882.180,-0.037,0.853,-0.510,-3.448,5.310,0.275,66.667,200.000,1.000,3.689,0.000
24795.540,22515.570,39967.540,29177.100,36348.980,31299.740,24555.840,23675.880,-0.033,0.845,-0.511,-3.265,5.157,-0.092,66.667,201.000,1.000,9.409,0.000
24497.920,22235.950,39597.130,28855.940,36074.010,30957.670,24276.030,23382.590,-0.031,0.841,-0.509,-3.021,5.188,-0.336,66.667,202.000,1.000,0.013,0.000
24212.910,21973.500,39240.340,28543.060,35701.200,30649.180,24004.660,23106.810,-0.029,0.840,-0.509,-2.594,5.280,-0.580,66.667,203.000,1.000,4.343,0.000
24001.940,21774.330,38940.250,28292.750,35399.630,30431.830,23785.090,22905.840,-0.026,0.839,-0.512,-2.136,5.280,-0.702,66.667,204.000,1.000,2.527,0.000
23826.100,21600.520,38669.550,28079.780,35215.440,30244.560,23595.670,22740.540,-0.025,0.841,-0.514,-1.587,5.371,-0.916,66.667,205.000,1.000,3.701,0.000
23608.140,21387.460,38366.650,27831.110,35047.190,29994.010,23374.470,22526.980,-0.025,0.839,-0.515,-1.190,5.432,-0.916,66.667,206.000,1.000,14.324,0.000
23332.120,21126.320,38016.980,27529.140,34783.450,29676.100,23104.930,22251.560,-0.025,0.840,-0.510,-0.732,5.432,-1.068,66.667,207.000,1.000,0.015,0.000
23066.540,20879.510,37677.800,27235.240,34448.880,29383.510,22845.670,21991.480,-0.026,0.844,-0.509,-0.305,5.554,-0.977,66.667,208.000,1.000,1.905,0.000
22849.680,20676.130,37374.090,26982.850,34159.260,29155.550,22626.760,21785.500,-0.028,0.850,-0.511,0.000,5.432,-1.007,66.667,209.000,1.000,2.513,0.000
22663.460,20498.120,37098.100,26762.410,33958.310,28957.630,22433.210,21608.410,-0.031,0.853,-0.510,0.336,5.554,-1.160,66.667,210.000,1.000,2.572,0.000
22463.050,20305.370,36815.450,26530.560,33786.300,28728.810,22225.900,21408.320,-0.032,0.860,-0.509,0.488,5.493,-1.129,66.667,211.000,1.000,8.649,0.000
22223.980,20078.260,36501.080,26261.550,33551.570,28452.190,21988.130,21169.660,-0.033,0.866,-0.508,0.580,5.463,-1.099,66.667,212.000,1.000,3.061,0.000
21968.730,19838.560,36170.040,25974.580,33245.950,28170.080,21741.770,20924.830,-0.035,0.871,-0.509,0.519,5.341,-1.038,66.667,213.000,1.000,0.012,0.000
21729.650,19612.060,35846.540,25699.570,32950.710,27913.690,21506.330,20698.950,-0.039,0.877,-0.511,0.336,5.127,-0.946,66.667,214.000,1.000,1.982,0.000
21516.350,19406.640,35547.570,25451.820,32715.680,27680.110,21284.240,20489.210,-0.042,0.880,-0.516,0.000,4.852,-0.824,66.667,215.000,1.000,11.237,0.000
21304.860,19203.070,35256.590,25209.910,32513.800,27441.810,21061.600,20273.920,-0.050,0.883,-0.518,-0.397,4.608,-0.854,66.667,216.000,1.000,3.007,0.000
21076.850,18987.860,34955.550,24956.220,32286.160,27188.710,20835.880,20050.930,-0.055,0.881,-0.517,-0.854,4.486,-1.099,66.667,217.000,1.000,0.007,0.000
20841.850,18769.570,34647.600,24696.430,32018.990,26936.250,20614.780,19834.170,-0.058,0.879,-0.522,-1.251,4.059,-1.221,66.667,218.000,1.000,2.021,0.000
20620.130,18562.780,34345.570,24446.710,31757.430,26700.260,20405.020,19632.510,-0.057,0.878,-0.519,-1.709,3.693,-1.404,66.667,219.000,1.000,7.383,0.000
20409.080,18363.150,34051.780,24205.360,31523.150,26471.780,20192.540,19430.710,-0.053,0.875,-0.517,-2.075,3.296,-1.678,66.667,220.000,1.000,9.218,0.000
20184.160,18149.670,33747.200,23947.590,31293.070,26221.490,19951.580,19202.350,-0.049,0.865,-0.515,-2.441,2.930,-1.801,66.667,221.000,1.000,0.007,0.000
19949.400,17927.760,33435.110,23680.460,31048.150,25954.480,19702.460,18965.010,-0.046,0.859,-0.509,-2.716,2.716,-1.953,66.667,222.000,1.000,7.077,0.000
19719.260,17709.280,33125.480,23420.480,30790.520,25693.740,19473.640,18743.280,-0.044,0.854,-0.510,-2.960,2.502,-2.167,66.667,223.000,1.000,2.484,0.000
19496.100,17494.690,32819.660,23168.650,30534.190,25445.380,19259.570,18535.070,-0.044,0.853,-0.514,-2.930,2.350,-2.258,66.667,224.000,1.000,3.074,0.000
19280.390,17284.960,32523.240,22925.120,30292.630,25204.760,19047.190,18332.700,-0.043,0.853,-0.516,-2.899,2.167,-2.350,66.667,225.000,1.000,0.010,0.000
19065.700,17076.020,32231.550,22682.600,30065.360,24963.880,18831.550,18126.310,-0.045,0.858,-0.514,-2.838,2.136,-2.594,66.667,226.000,1.000,3.207,0.000
18848.900,16868.080,31939.360,22436.100,29838.080,24723.970,18615.360,17912.940,-0.044,0.859,-0.517,-2.838,1.984,-2.777,66.667,227.000,1.000,14.288,0.000
18621.500,16653.890,31634.430,22177.160,29592.880,24476.910,18389.950,17688.890,-0.047,0.863,-0.518,-2.838,1.862,-2.838,66.667,228.000,1.000,0.014,0.000
18383.460,16432.640,31317.680,21909.110,29330.840,24222.530,18156.590,17460.710,-0.048,0.867,-0.517,-2.869,1.709,-2.869,66.667,229.000,1.000,1.848,0.000
18164.110,16229.800,31021.800,21660.190,29086.680,23989.720,17942.900,17254.280,-0.050,0.870,-0.516,-3.143,1.434,-2.869,66.667,230.000,1.000,2.521,0.000
17974.450,16052.780,30757.310,21439.710,28878.380,23785.790,17757.780,17074.950,-0.048,0.872,-0.518,-3.418,1.282,-2.899,66.667,231.000,1.000,3.790,0.000
17788.960,15878.000,30497.470,21224.610,28680.150,23584.770,17578.810,16898.920,-0.046,0.874,-0.517,-3.448,1.068,-2.899,66.667,232.000,1.000,13.729,0.000
17580.910,15680.410,30211.960,20986.850,28457.590,23356.010,17373.930,16697.450,-0.042,0.873,-0.516,-3.815,0.977,-2.960,66.667,233.000,1.000,15.485,0.000
17353.390,15461.980,29903.530,20727.750,28202.010,23098.690,17140.760,16471.320,-0.039,0.872,-0.517,-4.028,0.916,-2.991,66.667,234.000,1.000,0.008,0.000
17128.130,15245.300,29599.320,20470.410,27941.750,22845.670,16912.150,16251.320,-0.036,0.870,-0.523,-4.242,0.916,-2.991,66.667,235.000,1.000,0.003,0.000
16914.020,15040.030,29310.560,20226.220,27701.270,22613.410,16700.950,16049.500,-0.035,0.868,-0.520,-4.700,1.007,-2.899,66.667,236.000,1.000,0.003,0.000
16707.630,14840.590,29029.900,19992.300,27478.070,22386.220,16491.600,15851.630,-0.036,0.867,-0.519,-5.035,1.251,-2.808,66.667,237.000,1.000,1.992,0.000
16502.710,14642.600,28747.130,19758.720,27259.950,22150.280,16275.840,15646.050,-0.033,0.861,-0.523,-5.341,1.312,-2.808,66.667,238.000,1.000,2.475,0.000
16296.180,14448.420,28463.360,19521.610,27032.730,21913.110,16061.010,15436.900,-0.030,0.860,-0.523,-5.402,1.373,-2.838,66.667,239.000,1.000,2.491,0.000
16084.180,14252.320,28178.600,19280.740,26792.150,21677.660,15848.520,15228.920,-0.028,0.860,-0.521,-5.554,1.434,-2.747,66.667,240.000,1.000,2.514,0.000
15874.540,14055.830,27897.770,19045.100,26555.290,21449.230,15640.550,15028.740,-0.025,0.864,-0.515,-5.676,1.740,-2.594,66.667,241.000,1.000,2.517,0.000
15677.810,13867.650,27627.250,18821.340,26340.240,21235.070,15441.410,14839.800,-0.023,0.864,-0.510,-6.012,2.014,-2.472,66.667,242.000,1.000,4.328,0.000
15477.830,13674.050,27348.940,18591.200,26129.490,21009.190,15233.490,14643.310,-0.021,0.862,-0.510,-6.317,2.441,-2.502,66.667,243.000,1.000,0.009,0.000
15265.450,13469.060,27057.040,18348.050,25896.290,20759.330,15009.570,14431.500,-0.022,0.858,-0.508,-6.348,2.869,-2.380,66.667,244.000,1.000,10.702,0.000
15053.730,13266.710,26768.420,18105.260,25650.150,20513.660,14788.400,14220.010,-0.026,0.852,-0.510,-6.378,3.326,-2.319,66.667,245.000,1.000,3.028,0.000
14852.490,13075.850,26494.900,17874.710,25416.930,20294.960,14587.000,14026.300,-0.030,0.851,-0.514,-6.134,3.601,-2.258,66.667,246.000,1.000,0.009,0.000
14659.780,12892.590,26232.500,17656.380,25207.460,20092.750,14399.440,13846.480,-0.035,0.846,-0.514,-5.768,3.693,-2.167,66.667,247.000,1.000,1.924,0.000
14466.030,12708.470,25966.910,17436.930,25009.280,19881.800,14208.080,13660.680,-0.036,0.847,-0.510,-5.219,3.784,-2.258,66.667,248.000,1.000,11.494,0.000
14263.430,12518.760,25691.680,17206.090,24794.660,19654.410,14008.120,13462.030,-0.036,0.851,-0.508,-4.730,3.876,-2.197,66.667,249.000,1.000,5.343,0.000
14049.130,12317.410,25404.950,16961.980,24551.680,19415.150,13796.760,13252.450,-0.036,0.857,-0.506,-4.303,3.998,-2.228,66.667,250.000,1.000,0.012,0.000
13842.590,12119.140,25124.460,16725.860,24308.670,19185.350,13587.620,13051.750,-0.036,0.866,-0.502,-3.906,4.120,-2.289,66.667,251.000,1.000,1.931,0.000
13657.220,11938.800,24863.480,16510.640,24095.690,18975.800,13393.140,12869.630,-0.040,0.868,-0.500,-3.784,4.120,-2.350,66.667,252.000,1.000,3.754,0.000
13469.940,11757.840,24600.020,16292.960,23895.710,18758.960,13195.720,12682.000,-0.040,0.864,-0.497,-3.601,4.181,-2.258,66.667,253.000,1.000,14.350,0.000
13268.080,11565.630,24324.410,16062.070,23678.300,18525.540,12989.620,12481.040,-0.040,0.858,-0.496,-3.418,4.242,-2.289,66.667,254.000,1.000,0.010,0.000
13063.140,11372.330,24047.630,15828.260,23444.590,18295.650,12785.170,12280.120,-0.041,0.851,-0.495,-3.174,4.181,-2.319,66.667,255.000,1.000,2.426,0.000
12869.670,11190.160,23781.570,15605.230,23216.490,18084.440,12592.500,12094.020,-0.041,0.851,-0.498,-2.563,4.242,-2.289,66.667,256.000,1.000,0.004,0.000
12684.640,11014.320,23523.090,15391.130,23006.700,17882.400,12407.640,11919.220,-0.042,0.852,-0.498,-2.075,4.150,-2.380,66.667,257.000,1.000,1.950,0.000
12489.190,10827.240,23254.460,15168.140,22801.770,17664.690,12210.100,11731.280,-0.045,0.855,-0.497,-1.617,4.089,-2.380,66.667,258.000,1.000,11.808,0.000
12284.650,10633.130,22978.950,14937.880,22584.880,17434.420,12002.180,11527.950,-0.045,0.855,-0.498,-1.282,4.059,-2.380,66.667,259.000,1.000,0.013,0.000
12087.500,10447.550,22711.950,14714.340,22361.470,17213.940,11803.260,11330.090,-0.048,0.851,-0.499,-0.946,3.937,-2.441,66.667,260.000,1.000,2.491,0.000
11901.660,10272.570,22455.980,14501.050,22142.800,17009.960,11616.730,11146.910,-0.047,0.850,-0.499,-0.763,3.937,-2.411,66.667,261.000,1.000,0.006,0.000
11718.910,10099.540,22202.710,14291.380,21936.570,16811.440,11432.510,10969.110,-0.047,0.849,-0.501,-0.244,3.906,-2.380,66.667,262.000,1.000,8.223,0.000
11529.890,9919.272,21943.100,14077.140,21739.190,16602.520,11243.510,10787.250,-0.049,0.854,-0.500,0.092,3.662,-2.350,66.667,263.000,1.000,2.983,0.000
11333.580,9732.296,21677.140,13856.120,21531.520,16378.540,11048.610,10599.450,-0.048,0.859,-0.505,0.305,3.540,-2.441,66.667,264.000,1.000,0.012,0.000
11131.100,9540.164,21405.910,13628.090,21304.540,16147.010,10846.670,10404.600,-0.052,0.864,-0.507,0.458,3.418,-2.441,66.667,265.000,1.000,1.971,0.000
10930.610,9348.756,21137.010,13402.370,21073.600,15924.050,10645.820,10211.760,-0.053,0.868,-0.510,0.519,3.174,-2.289,66.667,266.000,1.000,13.747,0.000
10746.960,9170.670,20881.450,13190.750,20862.290,15717.170,10454.860,10031.460,-0.058,0.875,-0.509,0.549,2.991,-2.167,66.667,267.000,1.000,2.498,0.000
10572.700,9000.581,20631.620,12986.770,20668.070,15512.040,10268.480,9856.108,-0.060,0.880,-0.509,0.305,2.594,-2.014,66.667,268.000,1.000,2.474,0.000
10390.940,8825.695,20376.380,12778.430,20467.140,15299.210,10080.300,9674.916,-0.062,0.883,-0.514,-0.031,2.228,-1.801,66.667,269.000,1.000,2.494,0.000
10196.380,8642.141,20111.920,12559.460,20248.270,15083.360,9887.163,9485.845,-0.064,0.883,-0.517,-0.488,1.831,-1.526,66.667,270.000,1.000,3.740,0.000
9999.617,8458.689,19847.180,12338.060,20025.420,14876.170,9697.059,9300.158,-0.066,0.883,-0.520,-0.916,1.373,-1.251,66.667,271.000,1.000,9.363,0.000
9812.415,8284.297,19592.250,12123.100,19818.440,14678.300,9514.655,9123.189,-0.067,0.884,-0.522,-1.282,0.824,-0.916,66.667,272.000,1.000,0.010,0.000
9631.163,8115.069,19343.040,11910.930,19625.780,14479.120,9332.822,8945.163,-0.068,0.881,-0.525,-1.740,0.183,-0.519,66.667,273.000,1.000,1.897,0.000
9450.792,7947.151,19095.620,11700.130,19431.490,14279.490,9151.820,8764.175,-0.067,0.882,-0.524,-2.197,-0.336,-0.336,66.667,274.000,1.000,3.782,0.000
9262.564,7770.794,18840.150,11483.350,19219.740,14074.030,8963.992,8577.352,-0.066,0.878,-0.529,-2.686,-0.824,-0.061,66.667,275.000,1.000,16.830,0.000
9067.001,7584.092,18575.840,11260.860,18995.070,13860.610,8768.866,8387.682,-0.064,0.879,-0.530,-3.143,-1.373,0.153,66.667,276.000,1.000,0.010,0.000
8880.120,7403.772,18319.760,11048.730,18785.930,13654.620,8585.619,8209.922,-0.062,0.876,-0.528,-3.540,-1.801,0.275,66.667,277.000,1.000,1.820,0.000
8709.416,7241.321,18080.990,10855.490,18603.810,13462.100,8419.817,8050.275,-0.061,0.872,-0.525,-3.967,-2.136,0.366,66.667,278.000,1.000,2.491,0.000
8538.451,7081.359,17843.870,10663.160,18419.760,13265.970,8248.912,7888.063,-0.058,0.866,-0.523,-4.303,-2.380,0.458,66.667,279.000,1.000,2.543,0.000
8341.233,6894.055,17581.140,10442.320,18200.000,13041.170,8046.200,7692.611,-0.054,0.855,-0.523,-4.730,-2.563,0.702,66.667,280.000,1.000,2.476,0.000
8136.132,6695.940,17308.830,10210.880,17964.550,12804.790,7830.953,7485.948,-0.049,0.841,-0.522,-5.066,-2.655,0.854,66.667,281.000,1.000,6.807,0.000
7957.521,6524.620,17061.470,10004.740,17758.650,12598.210,7642.895,7307.474,-0.048,0.832,-0.524,-5.035,-2.808,1.007,66.667,282.000,1.000,0.010,0.000
7786.712,6364.008,16824.240,9809.211,17573.180,12411.720,7474.075,7142.292,-0.046,0.829,-0.520,-4.791,-2.960,1.190,66.667,283.000,1.000,1.960,0.000
7605.843,6195.144,16580.100,9607.487,17381.130,12219.320,7303.164,6972.860,-0.047,0.835,-0.517,-4.364,-3.021,1.526,66.667,284.000,1.000,11.194,0.000
7431.657,6032.378,16341.540,9411.570,17187.370,12027.070,7133.915,6809.836,-0.049,0.844,-0.515,-4.272,-3.174,1.862,66.667,285.000,1.000,5.697,0.000
7256.777,5866.813,16100.100,9212.730,16986.760,11831.360,6958.588,6643.411,-0.051,0.852,-0.512,-4.150,-3.387,2.075,66.667,286.000,1.000,0.009,0.000
7066.246,5683.173,15842.230,8998.188,16774.060,11621.070,6766.797,6460.500,-0.052,0.853,-0.508,-4.089,-3.418,2.167,66.667,287.000,1.000,1.869,0.000
6878.337,5500.573,15585.370,8784.684,16568.080,11410.650,6575.237,6276.955,-0.054,0.851,-0.509,-3.967,-3.571,2.014,66.667,288.000,1.000,2.438,0.000
6707.355,5335.262,15344.670,8584.718,16376.420,11213.520,6399.458,6105.901,-0.055,0.852,-0.510,-3.754,-3.632,1.923,66.667,289.000,1.000,11.903,0.000
6542.775,5177.881,15112.210,8391.432,16187.620,11024.210,6232.660,5941.742,-0.056,0.852,-0.508,-3.479,-3.754,1.648,66.667,290.000,1.000,0.010,0.000
6377.102,5021.505,14881.360,8200.228,15997.260,10841.750,6068.171,5781.324,-0.056,0.855,-0.506,-3.387,-4.059,1.373,66.667,291.000,1.000,1.925,0.000
6211.085,4866.754,14651.740,8010.513,15810.840,10665.570,5905.995,5626.159,-0.053,0.860,-0.509,-3.357,-4.333,1.068,66.667,292.000,1.000,3.710,0.000
6031.016,4698.127,14408.090,7807.940,15614.900,10474.510,5730.398,5458.603,-0.053,0.862,-0.501,-3.326,-4.517,0.641,66.667,293.000,1.000,4.244,0.000
5829.839,4506.493,14142.460,7585.004,15396.000,10255.840,5530.983,5267.369,-0.051,0.864,-0.503,-3.204,-4.517,0.244,66.667,294.000,1.000,0.059,0.000
5636.612,4320.364,13883.720,7369.245,15180.370,10038.520,5337.141,5082.306,-0.046,0.866,-0.500,-3.235,-4.669,-0.031,66.667,295.000,1.000,30.609,0.000
5473.411,4164.056,13655.150,7181.915,14992.410,9852.203,5172.852,4924.617,-0.041,0.864,-0.502,-3.174,-4.669,-0.397,66.667,296.000,1.000,3.009,0.000
5319.077,4017.709,13435.970,7001.606,14814.030,9676.755,5012.627,4770.219,-0.036,0.860,-0.503,-2.960,-4.547,-0.702,66.667,297.000,1.000,0.009,0.000
5154.010,3861.171,13206.130,6809.768,14627.210,9487.439,4837.995,4604.199,-0.030,0.852,-0.506,-2.899,-4.395,-0.763,66.667,298.000,1.000,6.933,0.000
4975.742,3692.936,12964.220,6606.779,14429.630,9284.975,4655.193,4430.936,-0.025,0.846,-0.507,-2.655,-4.120,-0.824,66.667,299.000,1.000,2.496,0.000
4784.634,3513.723,12710.780,6394.196,14220.180,9074.707,4465.638,4249.338,-0.021,0.844,-0.505,-2.380,-3.693,-0.732,66.667,300.000,1.000,4.978,0.000
4602.500,3343.117,12465.990,6191.079,14017.540,8875.512,4284.803,4076.156,-0.018,0.840,-0.504,-2.014,-3.296,-0.610,66.667,301.000,1.000,2.517,0.000
4439.913,3190.717,12240.040,6005.833,13833.480,8695.012,4121.108,3919.552,-0.019,0.842,-0.508,-1.495,-2.960,-0.275,66.667,302.000,1.000,2.440,0.000
4283.333,3043.015,12019.920,5824.808,13656.450,8518.617,3962.874,3765.087,-0.019,0.849,-0.507,-0.916,-2.502,-0.122,66.667,303.000,1.000,2.601,0.000
4127.682,2894.137,11800.360,5644.355,13479.720,8339.708,3805.013,3608.861,-0.022,0.854,-0.506,-0.610,-1.953,0.153,66.667,304.000,1.000,2.485,0.000
3964.802,2737.400,11573.320,5457.504,13294.210,8152.219,3638.703,3444.886,-0.022,0.856,-0.509,-0.519,-1.465,0.397,66.667,305.000,1.000,2.491,0.000
3786.702,2566.122,11331.720,5255.109,13092.600,7949.448,3455.667,3266.774,-0.024,0.858,-0.510,-0.519,-1.038,0.671,66.667,306.000,1.000,4.999,0.000
3604.664,2391.658,11088.120,5049.930,12889.680,7743.296,3269.524,3089.092,-0.026,0.861,-0.514,-0.427,-0.610,0.916,66.667,307.000,1.000,8.780,0.000
3428.549,2223.808,10852.280,4853.502,12696.840,7545.869,3092.836,2921.767,-0.028,0.864,-0.513,-0.275,-0.153,1.190,66.667,308.000,1.000,3.121,0.000
3259.589,2062.059,10623.500,4663.953,12511.780,7358.830,2925.241,2761.200,-0.034,0.868,-0.516,-0.214,0.214,1.404,66.667,309.000,1.000,0.009,0.000
3101.488,1910.888,10404.260,4482.193,12334.920,7183.152,2767.074,2608.517,-0.036,0.872,-0.515,-0.305,0.641,1.556,66.667,310.000,1.000,4.421,0.000
2945.486,1764.157,10186.410,4300.892,12157.670,7007.755,2609.828,2456.513,-0.037,0.875,-0.511,-0.427,0.916,1.678,66.667,311.000,1.000,2.438,0.000
2779.280,1608.959,9958.388,4109.674,11970.320,6822.382,2444.106,2295.635,-0.039,0.876,-0.508,-0.549,1.129,1.770,66.667,312.000,1.000,2.581,0.000
2607.795,1448.352,9725.678,3914.789,11779.310,6634.115,2275.018,2131.975,-0.039,0.877,-0.510,-0.702,1.465,1.709,66.667,313.000,1.000,2.969,0.000
2439.771,1290.542,9497.549,3726.201,11593.630,6451.277,2110.687,1974.612,-0.037,0.878,-0.511,-0.977,1.648,1.709,66.667,314.000,1.000,0.011,0.000
2282.629,1143.712,9281.137,3549.177,11419.210,6280.130,1957.889,1828.872,-0.036,0.877,-0.515,-1.251,1.953,1.587,66.667,315.000,1.000,1.942,0.000
2131.028,1002.568,9070.236,3375.734,11248.120,6112.272,1808.697,1685.020,-0.035,0.874,-0.517,-1.587,2.106,1.587,66.667,316.000,1.000,2.442,0.000
1963.606,844.580,8843.194,3185.710,11059.810,5925.274,1641.586,1522.205,-0.035,0.874,-0.518,-1.648,2.472,1.373,66.667,317.000,1.000,4.341,0.000
1780.514,670.244,8600.536,2980.792,10856.870,5723.782,1458.828,1343.400,-0.040,0.876,-0.516,-1.953,2.594,1.373,66.667,318.000,1.000,0.011,0.000
1601.271,500.635,8361.818,2779.174,10659.200,5529.190,1280.671,1168.630,-0.042,0.878,-0.515,-2.289,2.747,1.282,66.667,319.000,1.000,11.491,0.000
1435.901,346.203,8137.087,2590.012,10475.800,5347.741,1116.468,1008.898,-0.046,0.879,-0.516,-2.686,2.747,1.129,66.667,320.000,1.000,0.014,0.000
1288.468,209.560,7930.731,2419.166,10309.800,5182.862,969.847,868.076,-0.049,0.877,-0.515,-3.113,2.838,0.946,66.667,321.000,1.000,13.491,0.000
1152.447,83.264,7736.452,2262.197,10154.780,5030.993,835.788,738.616,-0.053,0.877,-0.516,-3.418,2.777,0.854,66.667,322.000,1.000,0.016,0.000
1003.772,-56.398,7529.379,2093.803,9985.896,4865.785,688.165,595.101,-0.057,0.877,-0.514,-3.693,2.625,0.641,66.667,323.000,1.000,3.015,0.000
835.574,-217.454,7301.467,1904.230,9795.608,4675.760,515.605,429.200,-0.058,0.882,-0.511,-4.028,2.502,0.519,66.667,324.000,1.000,0.008,0.000
670.775,-376.772,7077.059,1718.015,9609.575,4487.606,345.413,266.575,-0.058,0.884,-0.510,-4.333,2.228,0.458,66.667,325.000,1.000,0.003,0.000
517.718,-523.831,6865.696,1544.943,9437.883,4315.653,192.404,118.372,-0.060,0.884,-0.508,-4.761,1.984,0.549,66.667,326.000,1.000,4.474,0.000
364.091,-671.964,6652.185,1369.139,9263.188,4142.363,38.844,-31.230,-0.058,0.884,-0.504,-5.157,1.770,0.702,66.667,327.000,1.000,0.008,0.000
208.051,-824.471,6433.060,1187.555,9079.879,3959.881,-124.647,-188.292,-0.054,0.881,-0.506,-5.524,1.495,0.824,66.667,328.000,1.000,11.844,0.000
51.589,-977.128,6213.025,1004.902,8894.457,3774.814,-292.631,-349.165,-0.050,0.869,-0.508,-6.012,1.404,1.190,66.667,329.000,1.000,4.340,0.000
-106.322,-1129.093,5992.937,821.448,8709.052,3590.108,-461.421,-511.721,-0.049,0.853,-0.508,-6.348,1.160,1.495,66.667,330.000,1.000,0.011,0.000
-262.212,-1277.245,5776.243,640.668,8526.285,3408.285,-627.454,-670.265,-0.046,0.841,-0.504,-6.470,0.977,1.831,66.667,331.000,1.000,8.754,0.000
-412.431,-1419.569,5567.041,467.193,8351.021,3234.359,-784.111,-818.590,-0.044,0.835,-0.500,-6.226,0.885,1.862,66.667,332.000,1.000,0.010,0.000
-553.582,-1554.454,5368.896,304.731,8188.552,3074.261,-924.945,-953.463,-0.042,0.837,-0.504,-5.768,0.977,1.862,66.667,333.000,1.000,1.925,0.000
-689.058,-1683.262,5178.148,148.251,8035.773,2923.739,-1055.022,-1081.010,-0.042,0.842,-0.503,-5.432,0.885,1.923,66.667,334.000,1.000,11.772,0.000
-833.653,-1819.724,4978.533,-18.419,7875.254,2764.705,-1193.947,-1218.806,-0.038,0.848,-0.500,-5.219,0.977,1.923,66.667,335.000,1.000,0.015,0.000
-992.402,-1972.100,4762.667,-200.020,7697.996,2589.380,-1352.095,-1374.016,-0.037,0.851,-0.499,-5.005,0.977,1.831,66.667,336.000,1.000,8.777,0.000
-1152.291,-2126.992,4544.444,-381.921,7517.598,2411.056,-1514.948,-1530.871,-0.031,0.852,-0.497,-4.669,1.190,1.587,66.667,337.000,1.000,0.010,0.000
-1302.993,-2270.195,4336.483,-553.174,7347.358,2242.196,-1666.481,-1675.197,-0.029,0.854,-0.498,-4.303,1.160,1.434,66.667,338.000,1.000,6.223,0.000
-1446.134,-2402.785,4136.937,-716.376,7185.681,2082.506,-1808.361,-1811.182,-0.029,0.858,-0.498,-3.998,1.434,1.160,66.667,339.000,1.000,0.010,0.000
-1590.061,-2535.557,3937.334,-880.425,7023.779,1923.279,-1950.978,-1949.429,-0.029,0.861,-0.499,-3.876,1.678,0.824,66.667,340.000,1.000,6.204,0.000
-1740.411,-2674.046,3733.159,-1049.636,6857.663,1759.175,-2098.887,-2092.225,-0.029,0.861,-0.496,-3.784,1.862,0.366,66.667,341.000,1.000,0.007,0.000
-1892.733,-2813.084,3528.231,-1218.938,6691.074,1595.635,-2247.060,-2234.245,-0.030,0.860,-0.495,-3.571,2.106,0.031,66.667,342.000,1.000,6.319,0.000
-2040.774,-2949.406,3326.343,-1385.889,6526.168,1435.117,-2390.851,-2374.654,-0.030,0.857,-0.503,-3.387,2.411,-0.458,66.667,343.000,1.000,0.014,0.000
-2185.143,-3085.488,3126.044,-1552.533,6361.404,1272.667,-2532.954,-2516.009,-0.031,0.857,-0.504,-3.174,2.625,-0.732,66.667,344.000,1.000,5.624,0.000
-2329.760,-3223.574,2924.128,-1719.213,6195.169,1106.892,-2678.563,-2659.361,-0.031,0.861,-0.508,-3.082,2.655,-1.068,66.667,345.000,1.000,14.372,0.000
-2474.347,-3361.145,2721.525,-1884.625,6029.688,943.804,-2825.276,-2803.521,-0.031,0.862,-0.505,-2.960,2.869,-1.465,66.667,346.000,1.000,0.019,0.000
-2614.330,-3493.333,2523.831,-2046.062,5868.899,786.064,-2967.507,-2943.523,-0.029,0.861,-0.504,-2.808,3.052,-1.770,66.667,347.000,1.000,2.382,0.000
-2751.782,-3622.910,2330.308,-2205.396,5709.738,627.114,-3108.167,-3079.115,-0.031,0.859,-0.505,-2.594,3.357,-1.923,66.667,348.000,1.000,0.015,0.000
-2892.993,-3756.489,2134.917,-2367.156,5547.303,463.549,-3252.152,-3215.707,-0.030,0.855,-0.505,-2.502,3.693,-2.045,66.667,349.000,1.000,1.982,0.000
-3034.765,-3891.896,1939.959,-2527.551,5385.289,299.975,-3396.516,-3353.135,-0.031,0.853,-0.510,-2.258,3.845,-2.289,66.667,350.000,1.000,2.498,0.000
-3176.417,-4028.197,1745.584,-2685.872,5224.348,136.348,-3540.329,-3491.783,-0.032,0.852,-0.512,-1.892,4.028,-2.289,66.667,351.000,1.000,18.716,0.000
-3322.236,-4168.162,1546.728,-2848.682,5059.718,-29.768,-3686.070,-3633.624,-0.037,0.852,-0.509,-1.709,4.211,-2.197,66.667,352.000,1.000,3.066,0.000
-3467.517,-4307.070,1347.110,-3013.989,4894.801,-192.869,-3829.967,-3774.505,-0.042,0.855,-0.505,-1.526,4.303,-2.167,66.667,353.000,1.000,0.007,0.000
-3608.467,-4441.468,1150.226,-3177.109,4733.123,-350.254,-3970.016,-3912.702,-0.045,0.857,-0.503,-1.312,4.242,-2.075,66.667,354.000,1.000,1.925,0.000
-3746.236,-4570.617,956.167,-3337.008,4574.518,-503.656,-4107.047,-4048.164,-0.048,0.858,-0.500,-1.343,4.272,-1.801,66.667,355.000,1.000,2.515,0.000
-3882.823,-4697.202,764.946,-3493.755,4417.946,-657.134,-4243.471,-4180.605,-0.050,0.861,-0.505,-1.343,4.242,-1.648,66.667,356.000,1.000,2.439,0.000
-4020.731,-4827.700,574.217,-3650.829,4260.202,-814.221,-4382.304,-4313.169,-0.053,0.864,-0.504,-1.312,4.150,-1.434,66.667,357.000,1.000,3.879,0.000
-4159.713,-4961.219,383.645,-3809.722,4101.656,-971.554,-4521.255,-4446.155,-0.054,0.867,-0.503,-1.221,4.028,-1.312,66.667,358.000,1.000,4.188,0.000
-4298.444,-5093.046,194.028,-3967.531,3945.224,-1125.919,-4657.661,-4576.724,-0.055,0.865,-0.500,-1.129,3.815,-1.129,66.667,359.000,1.000,0.009,0.000
-4435.084,-5221.384,5.222,-4122.750,3791.517,-1276.724,-4791.476,-4704.521,-0.055,0.865,-0.503,-1.129,3.723,-1.099,66.667,360.000,1.000,13.268,0.000
-4569.583,-5347.909,-184.520,-4277.776,3637.244,-1427.770,-4926.671,-4833.613,-0.054,0.866,-0.504,-1.099,3.510,-1.038,66.667,361.000,1.000,5.460,0.000
-4704.672,-5474.893,-376.183,-4433.876,3479.709,-1581.833,-5066.013,-4966.589,-0.053,0.869,-0.505,-1.160,3.326,-0.854,66.667,362.000,1.000,0.008,0.000
-4840.855,-5601.800,-566.021,-4587.653,3322.460,-1733.798,-5204.623,-5097.820,-0.052,0.872,-0.502,-1.160,3.235,-0.702,66.667,363.000,1.000,2.029,0.000
-4978.946,-5730.298,-754.256,-4740.469,3166.232,-1884.166,-5341.556,-5225.662,-0.050,0.874,-0.500,-1.251,3.052,-0.671,66.667,364.000,1.000,2.432,0.000
-5117.960,-5860.922,-943.674,-4895.353,3008.730,-2037.231,-5480.107,-5355.800,-0.050,0.879,-0.499,-1.282,2.960,-0.458,66.667,365.000,1.000,2.557,0.000
-5252.368,-5988.314,-1131.177,-5049.497,2852.874,-2189.569,-5617.532,-5488.084,-0.049,0.884,-0.499,-1.526,2.808,-0.336,66.667,366.000,1.000,3.705,0.000
-5381.850,-6111.378,-1315.647,-5201.443,2699.650,-2338.844,-5751.730,-5619.343,-0.049,0.886,-0.500,-1.831,2.716,-0.214,66.667,367.000,1.000,9.322,0.000
-5510.933,-6235.273,-1499.939,-5351.703,2546.552,-2487.906,-5885.430,-5749.543,-0.049,0.882,-0.502,-2.197,2.716,-0.214,66.667,368.000,1.000,0.009,0.000
-5643.071,-6364.251,-1686.991,-5503.133,2391.022,-2640.910,-6022.678,-5881.248,-0.045,0.874,-0.507,-2.472,2.625,-0.153,66.667,369.000,1.000,2.005,0.000
-5780.596,-6498.823,-1878.662,-5660.170,2230.873,-2799.127,-6165.270,-6016.297,-0.042,0.872,-0.509,-2.747,2.655,-0.122,66.667,370.000,1.000,6.093,0.000
-5918.318,-6631.368,-2069.209,-5818.120,2071.687,-2955.229,-6306.541,-6150.272,-0.041,0.871,-0.512,-2.838,2.716,-0.275,66.667,371.000,1.000,9.431,0.000
-6047.857,-6753.114,-2250.613,-5968.594,1921.691,-3101.320,-6438.340,-6277.141,-0.039,0.870,-0.513,-2.930,2.716,-0.122,66.667,372.000,1.000,0.010,0.000
-6174.140,-6869.385,-2427.041,-6115.159,1776.897,-3241.584,-6564.777,-6399.571,-0.038,0.867,-0.513,-2.991,2.899,-0.153,66.667,373.000,1.000,2.453,0.000
-6306.958,-6991.396,-2607.453,-6265.978,1627.806,-3385.656,-6695.308,-6525.854,-0.038,0.864,-0.510,-3.143,3.082,-0.244,66.667,374.000,1.000,0.074,0.000
-6441.179,-7116.831,-2788.673,-6417.073,1476.749,-3533.257,-6828.395,-6654.211,-0.037,0.859,-0.510,-3.052,3.113,-0.122,66.667,375.000,1.000,10.567,0.000
-6567.693,-7236.381,-2963.477,-6561.027,1331.468,-3677.620,-6956.176,-6776.897,-0.037,0.857,-0.512,-3.113,3.265,-0.122,66.667,376.000,1.000,3.103,0.000
-6692.770,-7353.673,-3137.198,-6703.694,1187.708,-3820.851,-7081.160,-6898.045,-0.037,0.854,-0.517,-3.052,3.357,-0.061,66.667,377.000,1.000,0.006,0.000
-6826.142,-7478.650,-3319.629,-6854.946,1035.440,-3972.009,-7214.119,-7027.564,-0.039,0.851,-0.515,-3.021,3.540,0.092,66.667,378.000,1.000,1.771,0.000
-6962.613,-7607.676,-3507.712,-7011.600,877.128,-4127.590,-7353.259,-7163.762,-0.041,0.848,-0.515,-2.899,3.510,0.153,66.667,379.000,1.000,7.661,0.000
-7093.823,-7733.070,-3692.840,-7164.797,722.656,-4276.967,-7487.331,-7296.869,-0.045,0.848,-0.519,-2.716,3.571,0.305,66.667,380.000,1.000,2.454,0.000
-7218.741,-7854.422,-3871.077,-7309.912,576.742,-4418.723,-7612.758,-7419.972,-0.046,0.849,-0.514,-2.625,3.723,0.458,66.667,381.000,1.000,3.698,0.000
-7334.940,-7967.686,-4037.791,-7441.877,442.045,-4551.669,-7728.678,-7530.289,-0.049,0.856,-0.513,-2.472,3.693,0.458,66.667,382.000,1.000,8.826,0.000
-7447.785,-8075.034,-4198.770,-7568.286,311.039,-4681.064,-7842.349,-7638.479,-0.051,0.860,-0.509,-2.502,3.601,0.610,66.667,383.000,1.000,2.951,0.000
-7569.335,-8188.066,-4367.485,-7704.794,170.930,-4818.549,-7965.043,-7756.680,-0.051,0.865,-0.508,-2.533,3.632,0.793,66.667,384.000,1.000,0.017,0.000
-7698.281,-8307.024,-4543.158,-7849.989,23.669,-4962.739,-8093.898,-7880.890,-0.051,0.871,-0.506,-2.747,3.510,0.885,66.667,385.000,1.000,10.759,0.000
-7827.354,-8426.549,-4718.970,-7996.067,-123.992,-5108.293,-8222.649,-8005.920,-0.051,0.874,-0.504,-2.960,3.479,1.068,66.667,386.000,1.000,2.984,0.000
-7957.301,-8548.078,-4895.828,-8144.124,-272.720,-5256.126,-8352.405,-8133.085,-0.046,0.876,-0.503,-3.113,3.296,1.404,66.667,387.000,1.000,0.013,0.000
-8086.316,-8669.599,-5072.671,-8292.132,-420.504,-5402.577,-8482.012,-8259.602,-0.045,0.882,-0.501,-3.296,3.204,1.465,66.667,388.000,1.000,1.997,0.000
-8208.000,-8785.524,-5244.069,-8432.453,-562.260,-5542.126,-8606.642,-8379.122,-0.044,0.883,-0.500,-3.540,3.174,1.587,66.667,389.000,1.000,8.689,0.000
-8326.319,-8899.820,-5413.412,-8569.191,-702.514,-5679.479,-8728.349,-8494.480,-0.041,0.885,-0.500,-3.754,3.174,1.678,66.667,390.000,1.000,3.018,0.000
-8446.196,-9016.425,-5585.416,-8709.829,-846.308,-5819.948,-8850.863,-8610.979,-0.039,0.885,-0.501,-4.028,3.265,1.678,66.667,391.000,1.000,0.007,0.000
-8565.663,-9132.190,-5757.662,-8851.510,-990.555,-5960.070,-8973.174,-8728.912,-0.037,0.884,-0.503,-4.211,3.235,1.709,66.667,392.000,1.000,8.259,0.000
-8684.800,-9246.896,-5928.508,-8991.050,-1133.285,-6097.728,-9096.376,-8848.910,-0.034,0.880,-0.501,-4.517,3.357,1.862,66.667,393.000,1.000,2.423,0.000
-8801.703,-9359.397,-6094.802,-9126.787,-1272.427,-6233.940,-9220.216,-8968.006,-0.031,0.872,-0.500,-4.822,3.448,1.953,66.667,394.000,1.000,3.830,0.000
-8913.290,-9465.890,-6253.167,-9256.682,-1404.679,-6366.126,-9338.632,-9080.693,-0.030,0.863,-0.500,-5.035,3.540,1.953,66.667,395.000,1.000,11.724,0.000
-9025.229,-9571.777,-6410.767,-9386.104,-1536.041,-6496.287,-9453.196,-9191.104,-0.028,0.857,-0.502,-4.974,3.815,2.014,66.667,396.000,1.000,0.008,0.000
-9146.185,-9687.946,-6578.555,-9524.572,-1677.528,-6634.594,-9576.137,-9310.367,-0.029,0.853,-0.504,-5.035,3.906,1.953,66.667,397.000,1.000,2.468,0.000
-9271.450,-9809.810,-6751.821,-9668.287,-1824.371,-6779.558,-9705.563,-9434.032,-0.028,0.849,-0.506,-4.913,4.059,1.801,66.667,398.000,1.000,0.008,0.000
-9391.520,-9925.364,-6920.063,-9807.118,-1964.489,-6918.342,-9826.521,-9548.900,-0.026,0.846,-0.506,-4.578,4.272,1.434,66.667,399.000,1.000,8.187,0.000
-9507.968,-10035.330,-7084.658,-9940.967,-2098.490,-7048.475,-9937.222,-9655.679,-0.024,0.844,-0.506,-4.242,4.486,1.068,66.667,400.000,1.000,2.556,0.000
-9626.056,-10145.310,-7250.133,-10074.300,-2232.692,-7177.705,-10049.510,-9765.067,-0.026,0.839,-0.507,-3.876,4.669,0.702,66.667,401.000,1.000,3.763,0.000
-9746.567,-10257.580,-7418.456,-10209.960,-2371.669,-7314.435,-10173.900,-9884.531,-0.024,0.834,-0.507,-3.540,4.944,0.519,66.667,402.000,1.000,4.314,0.000
-9860.696,-10365.260,-7582.910,-10340.840,-2508.967,-7451.439,-10299.000,-10002.280,-0.023,0.831,-0.508,-2.960,5.188,0.122,66.667,403.000,1.000,0.006,0.000
-9962.228,-10461.510,-7734.588,-10459.060,-2634.389,-7574.499,-10407.380,-10104.920,-0.023,0.831,-0.508,-2.502,5.463,-0.153,66.667,404.000,1.000,11.898,0.000
-10064.650,-10559.160,-7883.741,-10576.890,-2758.424,-7694.565,-10511.900,-10206.140,-0.025,0.834,-0.507,-2.075,5.676,-0.397,66.667,405.000,1.000,5.061,0.000
-10177.990,-10668.610,-8041.295,-10705.540,-2892.306,-7826.019,-10627.330,-10317.890,-0.025,0.840,-0.505,-1.648,5.951,-0.641,66.667,406.000,1.000,2.485,0.000
-10293.550,-10780.600,-8200.765,-10836.780,-3028.201,-7961.593,-10744.480,-10430.650,-0.026,0.844,-0.506,-1.282,6.195,-1.007,66.667,407.000,1.000,3.062,0.000
-10405.910,-10889.610,-8358.458,-10965.500,-3160.962,-8093.266,-10856.960,-10540.220,-0.028,0.850,-0.506,-0.977,6.378,-1.160,66.667,408.000,1.000,0.009,0.000
-10517.250,-10996.560,-8515.853,-11094.310,-3291.780,-8220.112,-10967.350,-10650.130,-0.026,0.853,-0.507,-0.671,6.592,-1.343,66.667,409.000,1.000,1.923,0.000
-10628.980,-11101.100,-8672.237,-11223.030,-3420.578,-8343.817,-11077.020,-10759.770,-0.028,0.857,-0.506,-0.580,6.683,-1.587,66.667,410.000,1.000,8.737,0.000
-10744.770,-11208.270,-8831.703,-11355.110,-3552.542,-8470.380,-11190.070,-10871.560,-0.028,0.863,-0.507,-0.366,6.775,-1.953,66.667,411.000,1.000,3.105,0.000
-10864.550,-11320.510,-8995.829,-11492.320,-3690.018,-8601.571,-11306.880,-10986.960,-0.030,0.868,-0.506,-0.366,6.714,-2.167,66.667,412.000,1.000,0.009,0.000
-10980.690,-11430.870,-9157.402,-11626.200,-3825.237,-8731.699,-11419.750,-11099.310,-0.031,0.872,-0.504,-0.397,6.836,-2.350,66.667,413.000,1.000,8.173,0.000
-11088.680,-11533.430,-9311.326,-11750.210,-3952.386,-8856.489,-11525.610,-11203.760,-0.032,0.874,-0.506,-0.488,6.836,-2.563,66.667,414.000,1.000,2.424,0.000
-11193.830,-11632.060,-9462.072,-11870.190,-4076.041,-8978.695,-11631.610,-11305.970,-0.033,0.877,-0.505,-0.641,6.836,-2.808,66.667,415.000,1.000,8.872,0.000
-11303.600,-11734.560,-9616.961,-11995.360,-4204.130,-9104.588,-11744.330,-11414.030,-0.034,0.880,-0.507,-0.793,6.897,-2.869,66.667,416.000,1.000,2.996,0.000
-11416.510,-11839.610,-9774.053,-12124.600,-4335.489,-9232.890,-11859.610,-11524.740,-0.036,0.884,-0.505,-0.977,6.836,-3.052,66.667,417.000,1.000,0.011,0.000
-11528.140,-11941.620,-9927.738,-12252.810,-4464.257,-9357.590,-11971.400,-11631.130,-0.040,0.883,-0.505,-1.160,6.714,-3.174,66.667,418.000,1.000,1.942,0.000
-11639.870,-12042.330,-10079.180,-12380.390,-4590.192,-9478.866,-12080.350,-11734.810,-0.045,0.887,-0.505,-1.526,6.622,-3.448,66.667,419.000,1.000,13.724,0.000
-11752.700,-12144.860,-10230.080,-12506.710,-4714.543,-9599.161,-12187.210,-11837.980,-0.046,0.888,-0.504,-1.770,6.348,-3.571,66.667,420.000,1.000,5.550,0.000
-11865.620,-12249.420,-10381.350,-12630.620,-4839.513,-9721.286,-12294.210,-11941.030,-0.050,0.887,-0.506,-2.136,6.195,-3.693,66.667,421.000,1.000,0.080,0.000
-11975.910,-12352.750,-10532.640,-12751.480,-4965.553,-9844.564,-12402.060,-12043.450,-0.050,0.882,-0.505,-2.625,5.859,-3.845,66.667,422.000,1.000,2.345,0.000
-12079.670,-12450.000,-10680.580,-12866.930,-5088.667,-9962.378,-12506.130,-12142.400,-0.051,0.875,-0.506,-2.991,5.676,-3.967,66.667,423.000,1.000,0.011,0.000
-12186.130,-12550.900,-10833.050,-12986.060,-5215.663,-10082.640,-12613.640,-12244.890,-0.051,0.870,-0.507,-3.235,5.341,-3.998,66.667,424.000,1.000,1.907,0.000
-12305.310,-12665.840,-10997.490,-13117.940,-5353.991,-10218.000,-12734.040,-12357.960,-0.052,0.866,-0.510,-3.235,5.035,-4.089,66.667,425.000,1.000,14.425,0.000
-12424.720,-12779.910,-11158.840,-13250.200,-5489.907,-10354.020,-12853.350,-12470.100,-0.052,0.863,-0.510,-3.418,4.730,-4.120,66.667,426.000,1.000,0.012,0.000
-12530.960,-12877.200,-11303.460,-13370.240,-5610.398,-10471.450,-12956.180,-12569.810,-0.049,0.862,-0.510,-3.479,4.333,-4.059,66.667,427.000,1.000,13.737,0.000
-12629.710,-12964.390,-11439.490,-13483.480,-5723.442,-10577.790,-13051.100,-12662.830,-0.048,0.858,-0.511,-3.571,3.998,-3.967,66.667,428.000,1.000,0.008,0.000
-12729.830,-13052.850,-11578.240,-13598.850,-5840.248,-10688.250,-13151.340,-12759.700,-0.047,0.857,-0.508,-3.510,3.784,-3.723,66.667,429.000,1.000,3.157,0.000
-12832.680,-13146.420,-11721.400,-13717.950,-5961.602,-10805.500,-13256.720,-12862.340,-0.044,0.857,-0.509,-3.540,3.448,-3.571,66.667,430.000,1.000,0.007,0.000
-12935.420,-13243.210,-11865.330,-13837.090,-6082.718,-10923.720,-13360.580,-12963.580,-0.045,0.854,-0.511,-3.723,3.204,-3.204,66.667,431.000,1.000,0.004,0.000
-13036.540,-13339.890,-12008.510,-13954.320,-6202.313,-11039.500,-13461.000,-13060.050,-0.046,0.853,-0.511,-3.815,2.899,-2.960,66.667,432.000,1.000,3.716,0.000
-13139.410,-13438.410,-12154.390,-14072.270,-6324.820,-11157.040,-13563.150,-13158.190,-0.047,0.852,-0.516,-3.845,2.533,-2.808,66.667,433.000,1.000,6.280,0.000
-13243.950,-13539.460,-12302.890,-14190.670,-6450.465,-11277.660,-13669.190,-13260.330,-0.049,0.850,-0.517,-3.815,2.258,-2.472,66.667,434.000,1.000,6.848,0.000
-13346.780,-13638.550,-12450.430,-14307.820,-6575.004,-11396.910,-13775.420,-13362.950,-0.051,0.852,-0.517,-3.784,1.923,-2.228,66.667,435.000,1.000,0.007,0.000
-13449.730,-13734.590,-12596.550,-14424.550,-6696.689,-11512.150,-13878.830,-13464.480,-0.052,0.854,-0.517,-3.754,1.526,-2.106,66.667,436.000,1.000,11.168,0.000
-13555.440,-13831.550,-12741.990,-14542.240,-6816.005,-11627.920,-13981.210,-13563.910,-0.054,0.861,-0.517,-3.876,1.190,-1.892,66.667,437.000,1.000,0.011,0.000
-13662.070,-13930.560,-12885.780,-14660.710,-6933.829,-11748.560,-14084.580,-13661.570,-0.054,0.868,-0.517,-3.845,0.763,-1.740,66.667,438.000,1.000,2.411,0.000
-13765.280,-14026.600,-13025.270,-14775.630,-7048.857,-11866.580,-14184.980,-13757.680,-0.054,0.873,-0.515,-3.998,0.458,-1.495,66.667,439.000,1.000,0.004,0.000
-13864.700,-14117.860,-13162.140,-14888.150,-7162.668,-11978.600,-14282.390,-13853.820,-0.055,0.876,-0.513,-4.242,0.092,-1.465,66.667,440.000,1.000,13.243,0.000
-13963.390,-14208.600,-13300.760,-15002.930,-7279.116,-12091.750,-14380.880,-13951.090,-0.054,0.880,-0.512,-4.547,-0.275,-1.312,66.667,441.000,1.000,4.958,0.000
-14061.650,-14301.130,-13439.660,-15115.910,-7395.619,-12206.330,-14478.370,-14045.530,-0.056,0.883,-0.507,-4.883,-0.641,-1.190,66.667,442.000,1.000,0.011,0.000
-14159.410,-14394.090,-13576.240,-15224.040,-7509.362,-12319.290,-14573.460,-14136.510,-0.056,0.885,-0.508,-5.249,-1.038,-1.068,66.667,443.000,1.000,0.005,0.000
-14256.090,-14484.870,-13710.510,-15329.300,-7621.011,-12429.760,-14666.770,-14225.480,-0.055,0.884,-0.504,-5.676,-1.404,-0.946,66.667,444.000,1.000,2.530,0.000
-14349.980,-14572.600,-13842.670,-15432.740,-7731.286,-12536.170,-14758.400,-14312.890,-0.057,0.882,-0.505,-6.134,-1.740,-0.763,66.667,445.000,1.000,2.537,0.000
-14440.030,-14657.330,-13972.330,-15534.260,-7840.161,-12639.400,-14850.280,-14399.240,-0.055,0.879,-0.504,-6.409,-2.136,-0.824,66.667,446.000,1.000,16.312,0.000
-14529.000,-14741.460,-14101.410,-15636.040,-7948.598,-12741.990,-14942.800,-14485.660,-0.052,0.873,-0.501,-6.683,-2.411,-0.885,66.667,447.000,1.000,2.998,0.000
-14626.020,-14833.800,-14237.980,-15746.530,-8063.283,-12850.470,-15039.060,-14579.450,-0.049,0.868,-0.502,-6.866,-2.594,-0.824,66.667,448.000,1.000,0.013,0.000
-14731.190,-14935.360,-14382.970,-15866.500,-8186.098,-12968.600,-15141.920,-14681.920,-0.043,0.864,-0.502,-6.836,-2.777,-0.702,66.667,449.000,1.000,4.393,0.000
-14832.080,-15033.670,-14525.160,-15983.690,-8307.127,-13086.880,-15244.440,-14782.750,-0.038,0.859,-0.500,-6.653,-2.777,-0.580,66.667,450.000,1.000,2.528,0.000
-14925.630,-15123.320,-14659.900,-16093.130,-8420.841,-13197.610,-15340.470,-14876.770,-0.034,0.856,-0.498,-6.653,-2.625,-0.519,66.667,451.000,1.000,2.414,0.000
-15017.180,-15208.060,-14790.550,-16198.750,-8529.686,-13301.190,-15430.570,-14965.460,-0.032,0.853,-0.499,-6.409,-2.625,-0.549,66.667,452.000,1.000,2.587,0.000
-15108.000,-15289.910,-14919.130,-16302.720,-8635.722,-13398.250,-15516.160,-15050.740,-0.031,0.848,-0.501,-6.226,-2.563,-0.397,66.667,453.000,1.000,3.709,0.000
-15198.130,-15371.000,-15047.700,-16406.800,-8741.894,-13494.820,-15601.570,-15135.980,-0.028,0.848,-0.501,-5.981,-2.258,-0.275,66.667,454.000,1.000,3.746,0.000
-15288.710,-15453.890,-15177.900,-16512.720,-8851.283,-13597.180,-15691.060,-15224.090,-0.031,0.846,-0.499,-5.585,-2.014,-0.183,66.667,455.000,1.000,28.162,0.000
-15379.920,-15539.040,-15308.760,-16619.710,-8962.796,-13702.050,-15782.360,-15314.420,-0.026,0.848,-0.500,-5.096,-1.862,-0.275,66.667,456.000,1.000,0.025,0.000
-15468.000,-15621.870,-15436.110,-16723.150,-9070.934,-13803.360,-15869.960,-15401.900,-0.027,0.853,-0.501,-4.822,-1.495,-0.275,66.667,457.000,1.000,1.827,0.000
-15551.670,-15700.150,-15559.090,-16822.900,-9175.010,-13903.370,-15955.940,-15486.220,-0.026,0.855,-0.503,-4.608,-1.068,-0.153,66.667,458.000,1.000,2.509,0.000
-15638.050,-15781.510,-15684.240,-16926.170,-9282.335,-14009.160,-16048.480,-15574.660,-0.023,0.856,-0.503,-4.303,-0.732,-0.153,66.667,459.000,1.000,2.463,0.000
-15729.990,-15869.510,-15814.070,-17033.100,-9394.842,-14120.110,-16146.950,-15667.430,-0.024,0.856,-0.506,-4.059,-0.549,-0.183,66.667,460.000,1.000,2.585,0.000
-15824.660,-15960.250,-15946.670,-17139.620,-9509.354,-14232.410,-16246.690,-15761.180,-0.024,0.856,-0.505,-3.876,-0.153,-0.092,66.667,461.000,1.000,2.433,0.000
-15921.180,-16050.820,-16080.850,-17246.190,-9624.168,-14343.480,-16346.140,-15856.090,-0.026,0.856,-0.506,-3.571,0.183,0.000,66.667,462.000,1.000,2.533,0.000
-16017.160,-16139.600,-16212.610,-17350.720,-9735.885,-14450.810,-16441.990,-15947.570,-0.024,0.857,-0.506,-3.387,0.671,0.153,66.667,463.000,1.000,2.415,0.000
-16111.010,-16227.190,-16340.080,-17451.010,-9843.197,-14555.680,-16532.540,-16031.550,-0.024,0.859,-0.499,-3.174,0.946,0.214,66.667,464.000,1.000,2.549,0.000
-16202.670,-16312.820,-16464.560,-17547.870,-9947.002,-14657.200,-16618.200,-16110.250,-0.025,0.860,-0.502,-2.991,1.312,0.244,66.667,465.000,1.000,2.474,0.000
-16292.270,-16395.000,-16587.630,-17643.750,-10048.750,-14754.470,-16701.490,-16188.050,-0.024,0.859,-0.500,-2.838,1.495,0.397,66.667,466.000,1.000,3.030,0.000
-16378.270,-16473.600,-16709.220,-17739.760,-10148.880,-14849.480,-16783.820,-16265.770,-0.025,0.860,-0.501,-2.716,1.862,0.458,66.667,467.000,1.000,0.009,0.000
-16454.720,-16543.970,-16823.480,-17830.100,-10241.960,-14936.800,-16859.310,-16337.120,-0.028,0.863,-0.497,-2.625,2.014,0.488,66.667,468.000,1.000,1.927,0.000
-16527.290,-16610.320,-16934.400,-17917.590,-10332.420,-15020.860,-16932.130,-16406.010,-0.030,0.863,-0.496,-2.533,2.289,0.519,66.667,469.000,1.000,2.571,0.000
-16613.290,-16690.610,-17058.040,-18017.150,-10436.790,-15120.750,-17018.680,-16488.790,-0.033,0.863,-0.497,-2.380,2.502,0.549,66.667,470.000,1.000,8.751,0.000
-16713.360,-16787.580,-17195.100,-18129.510,-10555.740,-15236.330,-17119.240,-16585.980,-0.035,0.863,-0.499,-2.258,2.747,0.671,66.667,471.000,1.000,4.280,0.000
-16814.790,-16887.050,-17333.490,-18243.870,-10677.050,-15352.880,-17221.510,-16685.540,-0.037,0.863,-0.501,-2.350,2.686,0.641,66.667,472.000,1.000,0.016,0.000
-16912.940,-16982.470,-17468.450,-18355.880,-10796.270,-15466.170,-17321.650,-16783.930,-0.039,0.864,-0.500,-2.319,2.716,0.641,66.667,473.000,1.000,13.169,0.000
-17005.470,-17072.150,-17597.190,-18461.520,-10910.460,-15574.820,-17417.750,-16878.740,-0.041,0.865,-0.500,-2.350,2.777,0.427,66.667,474.000,1.000,3.660,0.000
-17088.560,-17152.180,-17715.720,-18556.580,-11013.730,-15673.990,-17503.950,-16961.900,-0.042,0.865,-0.504,-2.319,2.838,0.458,66.667,475.000,1.000,0.008,0.000
-17165.450,-17223.960,-17827.400,-18645.000,-11107.340,-15764.040,-17580.520,-17033.820,-0.042,0.868,-0.503,-2.319,2.747,0.366,66.667,476.000,1.000,0.003,0.000
-17244.990,-17296.340,-17942.030,-18735.760,-11201.550,-15854.070,-17657.570,-17107.580,-0.045,0.871,-0.502,-2.380,2.563,0.244,66.667,477.000,1.000,2.555,0.000
-17330.150,-17375.020,-18063.000,-18831.630,-11301.700,-15950.950,-17740.900,-17188.700,-0.046,0.873,-0.503,-2.594,2.380,0.092,66.667,478.000,1.000,3.761,0.000
-17413.740,-17454.170,-18182.170,-18927.160,-11401.120,-16048.980,-17824.180,-17268.800,-0.048,0.875,-0.505,-2.716,2.258,0.031,66.667,479.000,1.000,8.778,0.000
-17490.630,-17526.210,-18294.470,-19019.740,-11495.110,-16140.750,-17902.670,-17343.880,-0.047,0.875,-0.501,-2.869,2.075,-0.122,66.667,480.000,1.000,4.336,0.000
-17565.430,-17594.160,-18405.510,-19112.570,-11588.520,-16229.260,-17979.630,-17419.010,-0.046,0.875,-0.503,-3.113,1.984,-0.183,66.667,481.000,1.000,0.015,0.000
-17643.620,-17664.940,-18519.420,-19206.880,-11684.900,-16319.850,-18058.410,-17497.370,-0.046,0.875,-0.504,-3.418,1.892,-0.214,66.667,482.000,1.000,10.619,0.000
-17725.890,-17739.870,-18635.190,-19301.690,-11782.700,-16412.600,-18139.590,-17578.030,-0.044,0.876,-0.507,-3.662,1.648,-0.397,66.667,483.000,1.000,3.086,0.000
-17809.610,-17816.280,-18751.330,-19395.200,-11880.010,-16504.770,-18221.220,-17658.620,-0.042,0.877,-0.504,-3.906,1.465,-0.458,66.667,484.000,1.000,0.010,0.000
-17888.190,-17887.790,-18862.460,-19481.340,-11972.030,-16591.040,-18297.030,-17733.080,-0.041,0.878,-0.505,-3.998,1.404,-0.610,66.667,485.000,1.000,1.927,0.000
-17959.530,-17951.520,-18965.810,-19559.440,-12056.570,-16669.720,-18364.450,-17799.500,-0.039,0.877,-0.502,-4.211,1.343,-0.732,66.667,486.000,1.000,8.659,0.000
-18031.470,-18016.570,-19069.880,-19640.150,-12142.750,-16751.860,-18434.210,-17867.490,-0.039,0.880,-0.502,-4.486,1.190,-0.793,66.667,487.000,1.000,3.102,0.000
-18111.500,-18092.340,-19183.650,-19731.510,-12240.110,-16847.640,-18516.890,-17945.820,-0.040,0.876,-0.506,-4.761,1.129,-0.885,66.667,488.000,1.000,0.006,0.000
-18195.800,-18172.970,-19302.930,-19828.820,-12343.830,-16948.200,-18604.570,-18028.940,-0.040,0.873,-0.502,-4.974,1.068,-1.038,66.667,489.000,1.000,1.924,0.000
-18271.370,-18243.830,-19413.560,-19918.690,-12439.170,-17036.410,-18681.040,-18103.220,-0.043,0.867,-0.505,-5.127,0.916,-1.068,66.667,490.000,1.000,8.814,0.000
-18336.900,-18305.260,-19513.860,-19998.920,-12525.220,-17114.110,-18749.100,-18169.350,-0.043,0.862,-0.501,-4.974,0.702,-1.129,66.667,491.000,1.000,4.206,0.000
-18409.190,-18374.690,-19620.880,-20085.500,-12619.580,-17203.060,-18829.260,-18244.430,-0.044,0.858,-0.503,-4.944,0.702,-1.221,66.667,492.000,1.000,0.011,0.000
-18494.160,-18457.560,-19740.550,-20183.710,-12726.860,-17308.500,-18922.840,-18332.010,-0.044,0.852,-0.505,-4.730,0.549,-1.160,66.667,493.000,1.000,5.787,0.000
-18580.340,-18541.170,-19860.870,-20282.130,-12832.980,-17411.920,-19011.640,-18418.510,-0.043,0.846,-0.508,-4.517,0.458,-1.007,66.667,494.000,1.000,3.613,0.000
-18664.050,-18619.960,-19977.990,-20377.960,-12933.520,-17506.540,-19092.840,-18499.600,-0.043,0.844,-0.505,-4.089,0.427,-0.854,66.667,495.000,1.000,9.384,0.000
-18745.280,-18695.750,-20092.720,-20470.920,-13030.320,-17597.230,-19171.140,-18575.720,-0.046,0.843,-0.500,-3.815,0.275,-0.671,66.667,496.000,1.000,0.015,0.000
-18819.520,-18766.190,-20200.740,-20555.810,-13120.040,-17681.290,-19242.700,-18644.530,-0.045,0.844,-0.497,-3.479,0.061,-0.488,66.667,497.000,1.000,1.917,0.000
-18887.220,-18829.680,-20301.400,-20633.500,-13202.650,-17757.050,-19306.930,-18708.740,-0.046,0.847,-0.493,-3.174,-0.092,-0.275,66.667,498.000,1.000,8.734,0.000
-18953.600,-18889.650,-20399.450,-20710.620,-13283.680,-17831.780,-19370.990,-18772.970,-0.046,0.847,-0.496,-2.808,-0.244,-0.061,66.667,499.000,1.000,4.358,0.000
-19025.600,-18955.220,-20502.970,-20794.440,-13371.240,-17916.040,-19442.810,-18842.090,-0.049,0.851,-0.496,-2.563,-0.427,0.275,66.667,500.000,1.000,0.007,0.000
-19104.410,-19030.490,-20613.660,-20884.240,-13466.580,-18010.610,-19521.590,-18916.930,-0.049,0.854,-0.496,-2.380,-0.610,0.427,66.667,501.000,1.000,1.887,0.000
-19183.220,-19107.600,-20723.560,-20972.790,-13561.320,-18103.930,-19598.080,-18991.040,-0.049,0.858,-0.498,-2.197,-0.824,0.458,66.667,502.000,1.000,8.710,0.000
-19258.010,-19178.800,-20828.260,-21058.410,-13650.950,-18189.410,-19668.420,-19060.790,-0.050,0.864,-0.497,-1.953,-1.038,0.519,66.667,503.000,1.000,4.292,0.000
-19331.380,-19244.940,-20930.790,-21144.240,-13738.510,-18270.890,-19737.980,-19130.140,-0.049,0.867,-0.494,-1.862,-1.160,0.519,66.667,504.000,1.000,0.011,0.000
-19404.570,-19309.050,-21033.010,-21228.650,-13825.580,-18352.070,-19809.080,-19200.590,-0.047,0.869,-0.495,-1.801,-1.221,0.519,66.667,505.000,1.000,5.679,0.000
-19475.940,-19372.450,-21134.520,-21308.590,-13911.020,-18433.740,-19878.840,-19269.430,-0.046,0.869,-0.494,-1.892,-1.434,0.519,66.667,506.000,1.000,14.402,0.000
-19545.810,-19436.110,-21235.820,-21385.440,-13994.460,-18514.070,-19945.180,-19334.620,-0.043,0.868,-0.498,-1.923,-1.556,0.519,66.667,507.000,1.000,0.013,0.000
-19616.060,-19500.620,-21338.220,-21463.270,-14077.630,-18592.130,-20009.650,-19397.550,-0.041,0.871,-0.499,-2.014,-1.556,0.610,66.667,508.000,1.000,6.187,0.000
-19687.220,-19566.350,-21441.960,-21542.880,-14161.820,-18670.460,-20075.280,-19461.610,-0.040,0.871,-0.500,-2.075,-1.587,0.671,66.667,509.000,1.000,0.013,0.000
-19759.230,-19633.870,-21545.680,-21621.380,-14246.740,-18750.550,-20142.870,-19527.340,-0.040,0.873,-0.498,-2.106,-1.587,0.641,66.667,510.000,1.000,1.937,0.000
-19832.890,-19703.080,-21649.380,-21700.800,-14333.550,-18832.800,-20212.910,-19595.030,-0.035,0.874,-0.501,-2.228,-1.556,0.549,66.667,511.000,1.000,2.461,0.000
-19904.520,-19769.360,-21750.080,-21780.400,-14419.310,-18912.850,-20280.990,-19661.220,-0.035,0.879,-0.502,-2.289,-1.526,0.580,66.667,512.000,1.000,2.530,0.000
-19971.610,-19831.200,-21846.830,-21857.710,-14502.650,-18989.130,-20345.580,-19724.140,-0.037,0.880,-0.504,-2.594,-1.373,0.488,66.667,513.000,1.000,8.061,0.000
-20041.630,-19897.530,-21948.450,-21940.110,-14593.090,-19073.610,-20418.830,-19793.840,-0.036,0.879,-0.504,-2.686,-1.312,0.366,66.667,514.000,1.000,0.007,0.000
-20117.570,-19970.840,-22056.710,-22029.470,-14691.910,-19167.240,-20501.980,-19872.050,-0.033,0.880,-0.504,-2.869,-1.190,0.275,66.667,515.000,1.000,6.271,0.000
-20190.360,-20040.890,-22161.060,-22115.090,-14786.520,-19254.580,-20580.380,-19945.700,-0.032,0.875,-0.508,-3.021,-0.977,0.031,66.667,516.000,1.000,0.006,0.000
-20255.930,-20104.110,-22258.800,-22193.620,-14874.130,-19334.930,-20652.370,-20012.670,-0.033,0.873,-0.504,-3.113,-0.702,-0.061,66.667,517.000,1.000,10.669,0.000
-20320.320,-20166.410,-22356.650,-22271.010,-14961.000,-19415.640,-20724.280,-20080.330,-0.032,0.870,-0.500,-3.265,-0.488,-0.122,66.667,518.000,1.000,7.402,0.000
-20385.060,-20227.960,-22454.340,-22346.620,-15045.400,-19492.920,-20793.250,-20146.840,-0.030,0.869,-0.502,-3.265,-0.427,-0.183,66.667,519.000,1.000,0.011,0.000
-20448.810,-20287.620,-22549.350,-22418.720,-15125.990,-19567.590,-20859.430,-20210.420,-0.030,0.866,-0.498,-3.265,-0.031,-0.427,66.667,520.000,1.000,0.005,0.000
-20516.690,-20351.240,-22646.640,-22494.530,-15209.270,-19648.370,-20929.790,-20277.350,-0.032,0.865,-0.496,-3.235,0.092,-0.305,66.667,521.000,1.000,3.121,0.000
-20588.560,-20418.030,-22745.900,-22574.880,-15295.090,-19732.250,-21001.840,-20346.790,-0.028,0.865,-0.496,-3.204,0.275,-0.366,66.667,522.000,1.000,0.013,0.000
-20654.990,-20478.770,-22838.710,-22649.970,-15375.230,-19809.000,-21066.410,-20409.400,-0.029,0.867,-0.497,-2.991,0.610,-0.397,66.667,523.000,1.000,8.209,0.000
-20712.630,-20532.090,-22923.700,-22716.630,-15447.900,-19876.640,-21121.880,-20463.340,-0.030,0.867,-0.497,-2.899,0.702,-0.366,66.667,524.000,1.000,3.722,0.000
-20769.050,-20585.420,-23009.480,-22783.940,-15521.130,-19943.130,-21177.220,-20518.630,-0.031,0.869,-0.494,-2.777,0.977,-0.397,66.667,525.000,1.000,11.803,0.000
-20829.940,-20641.440,-23100.520,-22858.250,-15599.770,-20015.000,-21239.120,-20581.160,-0.032,0.870,-0.497,-2.747,1.282,-0.366,66.667,526.000,1.000,0.009,0.000
-20893.830,-20698.840,-23193.690,-22934.910,-15680.530,-20090.900,-21304.410,-20645.440,-0.034,0.866,-0.494,-2.838,1.434,-0.458,66.667,527.000,1.000,2.481,0.000
-20961.570,-20761.680,-23290.290,-23011.790,-15763.740,-20171.240,-21372.560,-20710.450,-0.035,0.861,-0.498,-2.808,1.587,-0.549,66.667,528.000,1.000,0.013,0.000
-21032.490,-20828.970,-23390.430,-23089.570,-15849.270,-20254.530,-21442.620,-20776.660,-0.037,0.856,-0.498,-2.747,1.648,-0.641,66.667,529.000,1.000,8.130,0.000
-21099.320,-20891.690,-23486.590,-23163.400,-15930.490,-20333.200,-21508.070,-20838.060,-0.039,0.851,-0.498,-2.533,1.740,-0.702,66.667,530.000,1.000,11.862,0.000
-21160.550,-20948.730,-23576.760,-23231.350,-16006.990,-20406.490,-21569.120,-20895.150,-0.041,0.850,-0.501,-2.258,1.709,-0.732,66.667,531.000,1.000,0.020,0.000
-21221.910,-21005.570,-23666.390,-23298.710,-16084.880,-20478.870,-21631.280,-20954.310,-0.041,0.850,-0.499,-2.197,1.770,-0.916,66.667,532.000,1.000,2.977,0.000
-21285.800,-21064.160,-23758.010,-23369.030,-16166.020,-20551.980,-21696.560,-21016.180,-0.041,0.854,-0.501,-1.831,1.678,-1.068,66.667,533.000,1.000,0.017,0.000
-21352.560,-21125.840,-23852.010,-23442.490,-16249.910,-20628.630,-21764.790,-21079.030,-0.042,0.856,-0.504,-1.709,1.587,-1.221,66.667,534.000,1.000,0.005,0.000
-21421.840,-21190.400,-23947.920,-23517.830,-16334.900,-20709.030,-21833.170,-21141.850,-0.045,0.862,-0.503,-1.495,1.526,-1.312,66.667,535.000,1.000,3.877,0.000
-21489.720,-21253.330,-24042.620,-23591.180,-16416.920,-20787.190,-21897.890,-21202.540,-0.050,0.865,-0.503,-1.617,1.373,-1.373,66.667,536.000,1.000,10.015,0.000
-21553.790,-21312.610,-24134.450,-23661.660,-16494.780,-20859.650,-21959.060,-21261.110,-0.052,0.867,-0.504,-1.770,1.129,-1.465,66.667,537.000,1.000,4.266,0.000
-21614.900,-21369.610,-24223.650,-23731.800,-16570.460,-20928.590,-22019.340,-21319.800,-0.054,0.871,-0.505,-1.953,0.793,-1.587,66.667,538.000,1.000,0.008,0.000
-21674.120,-21425.290,-24310.910,-23802.390,-16645.670,-20997.380,-22079.760,-21379.660,-0.054,0.874,-0.505,-2.045,0.336,-1.648,66.667,539.000,1.000,8.249,0.000
-21732.070,-21479.900,-24396.460,-23872.600,-16719.650,-21065.830,-22137.410,-21438.410,-0.056,0.878,-0.506,-2.411,-0.031,-1.740,66.667,540.000,1.000,14.831,0.000
-21789.180,-21533.630,-24480.040,-23941.060,-16791.450,-21133.440,-22191.890,-21493.760,-0.058,0.883,-0.507,-2.716,-0.427,-1.801,66.667,541.000,1.000,0.014,0.000
-21845.650,-21586.210,-24562.850,-24007.370,-16862.830,-21201.900,-22247.960,-21548.490,-0.059,0.886,-0.506,-3.174,-0.854,-1.831,66.667,542.000,1.000,0.005,0.000
-21901.750,-21637.210,-24645.700,-24072.590,-16934.670,-21269.660,-22305.420,-21604.910,-0.059,0.887,-0.507,-3.693,-1.373,-1.892,66.667,543.000,1.000,2.606,0.000
-21958.940,-21688.060,-24728.640,-24138.120,-17006.250,-21334.840,-22360.990,-21660.270,-0.061,0.891,-0.509,-4.242,-1.831,-2.075,66.667,544.000,1.000,2.534,0.000
-22019.590,-21742.420,-24814.130,-24206.680,-17079.900,-21402.330,-22418.170,-21715.110,-0.058,0.893,-0.509,-4.822,-2.228,-2.045,66.667,545.000,1.000,2.467,0.000
-22083.820,-21801.630,-24904.150,-24279.230,-17157.530,-21475.700,-22479.520,-21772.900,-0.060,0.894,-0.508,-5.341,-2.747,-1.923,66.667,546.000,1.000,2.464,0.000
-22147.400,-21860.390,-24994.650,-24350.800,-17234.380,-21549.520,-22539.740,-21830.650,-0.057,0.893,-0.510,-5.829,-3.113,-2.014,66.667,547.000,1.000,2.519,0.000
-22206.840,-21913.780,-25080.360,-24416.370,-17306.130,-21619.330,-22595.780,-21883.230,-0.056,0.891,-0.512,-6.500,-3.510,-1.953,66.667,548.000,1.000,6.221,0.000
-22262.320,-21962.830,-25160.790,-24476.470,-17373.730,-21684.980,-22649.670,-21932.100,-0.055,0.887,-0.512,-7.080,-3.815,-2.014,66.667,549.000,1.000,9.277,0.000
-22316.890,-22011.560,-25239.930,-24536.990,-17441.460,-21747.790,-22704.800,-21984.090,-0.051,0.880,-0.513,-7.629,-4.150,-2.167,66.667,550.000,1.000,0.010,0.000
-22374.370,-22063.590,-25322.280,-24602.720,-17513.800,-21812.000,-22763.330,-22042.100,-0.048,0.874,-0.514,-7.904,-4.456,-2.014,66.667,551.000,1.000,1.959,0.000
-22434.760,-22119.130,-25407.600,-24671.600,-17590.670,-21880.840,-22823.940,-22102.870,-0.048,0.872,-0.512,-8.209,-4.608,-1.862,66.667,552.000,1.000,3.772,0.000
-22491.540,-22172.850,-25490.140,-24736.970,-17666.160,-21951.060,-22882.710,-22161.140,-0.046,0.867,-0.512,-8.362,-4.761,-1.862,66.667,553.000,1.000,4.293,0.000
-22541.280,-22221.710,-25567.320,-24796.140,-17736.780,-22018.810,-22938.190,-22213.500,-0.044,0.865,-0.510,-8.514,-4.761,-1.831,66.667,554.000,1.000,0.009,0.000
-22590.900,-22270.580,-25644.440,-24853.580,-17806.080,-22085.900,-22992.440,-22261.630,-0.043,0.863,-0.508,-8.667,-4.791,-1.740,66.667,555.000,1.000,8.174,0.000
-22645.450,-22322.750,-25725.030,-24914.090,-17876.850,-22153.400,-23046.730,-22310.060,-0.043,0.862,-0.512,-8.850,-4.822,-1.617,66.667,556.000,1.000,9.386,0.000
-22703.510,-22377.860,-25809.030,-24979.860,-17949.820,-22220.970,-23102.800,-22363.600,-0.045,0.861,-0.510,-8.881,-4.761,-1.556,66.667,557.000,1.000,0.025,0.000
-22760.510,-22432.060,-25892.600,-25046.250,-18021.720,-22286.710,-23158.720,-22419.460,-0.043,0.862,-0.504,-8.820,-4.700,-1.495,66.667,558.000,1.000,1.818,0.000
-22814.390,-22481.690,-25971.720,-25107.590,-18088.390,-22346.780,-23209.680,-22470.410,-0.041,0.864,-0.502,-8.881,-4.700,-1.343,66.667,559.000,1.000,2.490,0.000
-22868.550,-22530.610,-26049.850,-25167.630,-18154.110,-22405.510,-23259.020,-22518.840,-0.041,0.867,-0.500,-8.942,-4.517,-1.129,66.667,560.000,1.000,8.802,0.000
-22923.300,-22582.310,-26129.860,-25230.290,-18223.850,-22470.800,-23313.410,-22570.700,-0.041,0.867,-0.498,-9.033,-4.364,-1.068,66.667,561.000,1.000,3.033,0.000
-22974.930,-22633.750,-26208.120,-25292.550,-18294.600,-22539.550,-23371.680,-22623.430,-0.042,0.868,-0.498,-9.064,-4.211,-1.068,66.667,562.000,1.000,0.014,0.000
-23026.120,-22684.740,-26285.450,-25355.110,-18365.320,-22606.970,-23430.580,-22675.870,-0.042,0.868,-0.495,-9.064,-3.967,-1.038,66.667,563.000,1.000,8.187,0.000
-23081.490,-22737.580,-26365.370,-25420.850,-18438.100,-22673.560,-23488.640,-22732.760,-0.042,0.869,-0.495,-8.972,-3.754,-0.916,66.667,564.000,1.000,2.523,0.000
-23134.610,-22786.560,-26442.190,-25483.620,-18507.080,-22735.250,-23541.080,-22789.330,-0.042,0.869,-0.490,-8.942,-3.693,-0.916,66.667,565.000,1.000,6.225,0.000
-23181.150,-22828.080,-26512.650,-25539.320,-18568.450,-22789.910,-23587.260,-22838.380,-0.044,0.866,-0.488,-8.881,-3.448,-0.885,66.667,566.000,1.000,2.481,0.000
-23226.280,-22867.090,-26581.450,-25591.740,-18626.330,-22841.640,-23630.890,-22881.050,-0.042,0.865,-0.489,-8.759,-3.357,-0.763,66.667,567.000,1.000,4.391,0.000
-23272.610,-22906.670,-26651.130,-25643.710,-18683.700,-22892.200,-23672.570,-22920.390,-0.042,0.861,-0.488,-8.484,-3.082,-0.580,66.667,568.000,1.000,0.008,0.000
-23317.080,-22945.160,-26720.080,-25693.930,-18740.350,-22941.230,-23711.680,-22957.730,-0.043,0.860,-0.488,-8.118,-2.838,-0.488,66.667,569.000,1.000,5.565,0.000
-23359.490,-22984.770,-26789.050,-25742.960,-18798.710,-22993.750,-23753.770,-22997.400,-0.044,0.858,-0.487,-7.874,-2.777,-0.366,66.667,570.000,1.000,9.388,0.000
-23404.650,-23029.970,-26861.770,-25795.710,-18863.040,-23054.130,-23804.640,-23045.310,-0.046,0.859,-0.487,-7.538,-2.594,-0.275,66.667,571.000,1.000,0.009,0.000
-23454.960,-23079.180,-26938.130,-25854.260,-18932.460,-23119.200,-23860.780,-23098.920,-0.049,0.856,-0.486,-7.324,-2.441,-0.092,66.667,572.000,1.000,1.937,0.000
-23508.670,-23129.870,-27015.120,-25915.010,-19003.740,-23185.760,-23917.730,-23152.490,-0.049,0.853,-0.480,-6.775,-2.380,0.122,66.667,573.000,1.000,3.703,0.000
-23561.010,-23179.620,-27089.270,-25972.650,-19073.700,-23250.670,-23972.630,-23203.860,-0.048,0.853,-0.481,-6.256,-2.441,0.305,66.667,574.000,1.000,11.287,0.000
-23608.320,-23225.040,-27159.010,-26026.320,-19139.680,-23310.040,-24022.250,-23251.830,-0.043,0.853,-0.481,-5.768,-2.319,0.519,66.667,575.000,1.000,2.990,0.000
-23651.210,-23266.250,-27225.630,-26077.790,-19200.570,-23362.420,-24065.410,-23295.040,-0.042,0.853,-0.482,-5.341,-2.289,0.641,66.667,576.000,1.000,0.007,0.000
-23695.880,-23308.780,-27294.290,-26130.180,-19260.770,-23414.700,-24107.830,-23337.000,-0.044,0.853,-0.483,-4.913,-2.106,1.007,66.667,577.000,1.000,1.930,0.000
-23748.040,-23357.710,-27370.490,-26187.830,-19327.320,-23477.240,-24158.890,-23384.900,-0.044,0.849,-0.481,-4.547,-2.045,1.282,66.667,578.000,1.000,6.284,0.000
-23802.280,-23409.430,-27450.350,-26248.820,-19397.560,-23546.890,-24216.480,-23437.490,-0.045,0.847,-0.478,-4.211,-1.862,1.312,66.667,579.000,1.000,3.723,0.000
-23849.200,-23455.590,-27524.040,-26305.010,-19462.210,-23609.570,-24268.150,-23485.840,-0.044,0.847,-0.479,-3.662,-1.862,1.434,66.667,580.000,1.000,3.730,0.000
-23891.010,-23497.110,-27591.640,-26355.500,-19521.770,-23663.410,-24312.630,-23530.100,-0.047,0.848,-0.482,-3.052,-1.709,1.312,66.667,581.000,1.000,9.395,0.000
-23934.790,-23541.260,-27660.620,-26406.470,-19583.180,-23718.410,-24358.960,-23576.430,-0.048,0.852,-0.486,-2.533,-1.617,1.373,66.667,582.000,1.000,0.012,0.000
-23977.660,-23585.480,-27729.510,-26457.090,-19644.100,-23774.350,-24405.090,-23620.820,-0.047,0.858,-0.484,-2.167,-1.648,1.312,66.667,583.000,1.000,4.990,0.000
-24017.430,-23625.900,-27795.210,-26506.180,-19701.380,-23827.240,-24446.880,-23660.780,-0.045,0.865,-0.484,-1.923,-1.465,1.251,66.667,584.000,1.000,0.012,0.000
-24059.710,-23666.580,-27861.560,-26558.620,-19759.630,-23880.480,-24490.560,-23703.750,-0.045,0.868,-0.486,-1.770,-1.312,1.129,66.667,585.000,1.000,1.920,0.000
-24104.030,-23707.540,-27927.380,-26612.720,-19818.660,-23934.180,-24536.250,-23749.450,-0.042,0.869,-0.490,-1.556,-1.129,1.129,66.667,586.000,1.000,8.699,0.000
-24142.520,-23743.810,-27986.190,-26660.590,-19871.510,-23983.610,-24575.380,-23789.330,-0.040,0.869,-0.490,-1.495,-0.946,0.916,66.667,587.000,1.000,2.555,0.000
-24176.500,-23777.200,-28041.380,-26703.790,-19920.410,-24029.770,-24610.080,-23825.670,-0.038,0.871,-0.486,-1.404,-0.854,0.916,66.667,588.000,1.000,3.768,0.000
-24215.310,-23814.510,-28102.460,-26750.840,-19974.270,-24078.730,-24650.020,-23866.420,-0.040,0.874,-0.491,-1.251,-0.580,0.793,66.667,589.000,1.000,9.303,0.000
-24258.910,-23855.270,-28168.750,-26800.700,-20032.230,-24130.460,-24693.610,-23908.210,-0.041,0.879,-0.493,-1.282,-0.275,0.671,66.667,590.000,1.000,0.010,0.000
-24301.080,-23893.940,-28233.570,-26847.480,-20088.560,-24181.400,-24735.370,-23945.000,-0.040,0.883,-0.490,-1.373,-0.092,0.488,66.667,591.000,1.000,1.932,0.000
-24342.410,-23931.260,-28296.750,-26893.430,-20144.700,-24232.600,-24778.260,-23981.870,-0.040,0.889,-0.492,-1.434,0.244,0.244,66.667,592.000,1.000,8.691,0.000
-24385.320,-23972.210,-28360.930,-26942.040,-20203.470,-24286.060,-24823.400,-24024.350,-0.037,0.890,-0.492,-1.587,0.519,-0.031,66.667,593.000,1.000,3.083,0.000
-24427.460,-24015.500,-28425.010,-26990.900,-20262.810,-24342.100,-24867.980,-24068.500,-0.031,0.889,-0.496,-1.801,0.885,-0.336,66.667,594.000,1.000,0.009,0.000
-24468.640,-24056.210,-28488.210,-27037.990,-20320.410,-24397.230,-24910.090,-24110.440,-0.029,0.887,-0.499,-1.892,1.343,-0.488,66.667,595.000,1.000,10.614,0.000
-24513.780,-24096.390,-28554.360,-27087.380,-20378.950,-24449.080,-24950.170,-24152.380,-0.025,0.884,-0.499,-2.167,1.831,-0.549,66.667,596.000,1.000,2.556,0.000
-24563.510,-24138.540,-28624.750,-27141.790,-20440.810,-24499.960,-24991.910,-24197.080,-0.024,0.880,-0.500,-2.411,2.228,-0.549,66.667,597.000,1.000,3.714,0.000
-24610.150,-24176.920,-28691.700,-27194.650,-20500.220,-24548.960,-25034.420,-24240.300,-0.022,0.876,-0.500,-2.502,2.899,-0.458,66.667,598.000,1.000,8.793,0.000
-24648.680,-24209.230,-28750.880,-27240.570,-20553.070,-24595.490,-25073.840,-24277.760,-0.025,0.872,-0.498,-2.625,3.510,-0.366,66.667,599.000,1.000,2.979,0.000
-24686.540,-24244.390,-28810.710,-27285.820,-20606.500,-24644.300,-25113.160,-24315.470,-0.025,0.873,-0.504,-2.686,4.089,-0.305,66.667,600.000,1.000,0.010,0.000
-24729.420,-24284.980,-28874.600,-27334.230,-20663.680,-24695.770,-25155.140,-24356.360,-0.027,0.874,-0.498,-2.686,4.578,-0.305,66.667,601.000,1.000,1.999,0.000
-24768.040,-24319.800,-28931.310,-27376.340,-20715.140,-24743.320,-25193.630,-24389.940,-0.029,0.876,-0.497,-2.655,5.005,-0.305,66.667,602.000,1.000,9.315,0.000
-24803.560,-24349.440,-28982.520,-27414.470,-20762.050,-24788.070,-25228.920,-24418.580,-0.030,0.876,-0.496,-2.625,5.615,-0.275,66.667,603.000,1.000,0.008,0.000
-24852.070,-24388.430,-29045.380,-27465.750,-20818.630,-24838.270,-25272.090,-24461.360,-0.033,0.876,-0.494,-2.563,6.073,-0.275,66.667,604.000,1.000,1.895,0.000
-24909.120,-24435.540,-29117.850,-27527.230,-20883.170,-24893.750,-25322.880,-24515.830,-0.037,0.881,-0.496,-2.686,6.317,-0.183,66.667,605.000,1.000,2.469,0.000
-24958.010,-24479.010,-29185.870,-27582.820,-20944.080,-24949.540,-25371.130,-24564.090,-0.041,0.883,-0.492,-2.747,6.561,-0.122,66.667,606.000,1.000,14.339,0.000
-24997.040,-24516.370,-29247.510,-27629.520,-20999.200,-25000.970,-25412.700,-24603.860,-0.044,0.884,-0.489,-3.082,6.622,0.000,66.667,607.000,1.000,0.010,0.000
-25026.580,-24544.080,-29300.540,-27667.360,-21044.780,-25038.040,-25443.100,-24635.100,-0.048,0.881,-0.489,-3.387,6.561,0.153,66.667,608.000,1.000,1.851,0.000
-25048.950,-24562.920,-29344.530,-27698.410,-21080.610,-25063.990,-25463.950,-24655.740,-0.054,0.878,-0.488,-3.601,6.500,0.336,66.667,609.000,1.000,2.507,0.000
-25076.170,-24585.760,-29389.930,-27731.930,-21118.910,-25097.630,-25489.740,-24676.700,-0.059,0.877,-0.491,-3.693,6.317,0.366,66.667,610.000,1.000,3.763,0.000
-25111.770,-24616.280,-29441.080,-27770.200,-21164.700,-25140.690,-25524.630,-24705.980,-0.061,0.877,-0.490,-3.754,6.042,0.458,66.667,611.000,1.000,9.275,0.000
-25152.020,-24651.200,-29497.120,-27811.660,-21215.690,-25185.010,-25562.460,-24742.030,-0.063,0.875,-0.485,-3.784,5.768,0.397,66.667,612.000,1.000,0.011,0.000
-25193.980,-24689.400,-29556.760,-27854.630,-21269.300,-25229.360,-25600.040,-24780.120,-0.064,0.874,-0.483,-3.815,5.310,0.275,66.667,613.000,1.000,2.468,0.000
-25234.370,-24727.470,-29615.960,-27895.680,-21322.000,-25274.740,-25636.100,-24814.950,-0.065,0.873,-0.483,-3.784,4.852,0.183,66.667,614.000,1.000,0.005,0.000
-25274.220,-24764.900,-29674.990,-27937.880,-21375.400,-25323.290,-25673.380,-24848.580,-0.066,0.872,-0.481,-3.815,4.333,0.153,66.667,615.000,1.000,9.515,0.000
-25307.640,-24795.790,-29728.390,-27976.680,-21423.470,-25366.430,-25706.760,-24877.650,-0.067,0.868,-0.483,-3.845,3.845,0.092,66.667,616.000,1.000,24.987,0.000
-25335.360,-24820.560,-29777.220,-28011.270,-21465.910,-25402.420,-25734.450,-24902.520,-0.070,0.863,-0.484,-3.967,3.326,-0.031,66.667,617.000,1.000,2.440,0.000
-25375.630,-24857.160,-29839.150,-28058.530,-21520.830,-25449.900,-25773.060,-24938.850,-0.070,0.860,-0.486,-3.815,2.808,-0.092,66.667,618.000,1.000,2.527,0.000
-25428.480,-24906.650,-29912.640,-28117.160,-21588.490,-25511.510,-25825.550,-24987.410,-0.071,0.858,-0.490,-3.723,2.167,-0.153,66.667,619.000,1.000,2.440,0.000
-25474.990,-24949.950,-29977.740,-28168.200,-21649.470,-25568.980,-25874.780,-25032.530,-0.069,0.854,-0.490,-3.540,1.617,-0.305,66.667,620.000,1.000,2.562,0.000
-25508.510,-24979.320,-30028.410,-28207.060,-21696.790,-25614.550,-25911.980,-25067.760,-0.068,0.853,-0.488,-3.357,1.099,-0.397,66.667,621.000,1.000,2.463,0.000
-25536.550,-25002.760,-30072.870,-28241.290,-21737.550,-25654.710,-25941.410,-25098.140,-0.066,0.852,-0.488,-3.204,0.702,-0.549,66.667,622.000,1.000,2.559,0.000
-25565.270,-25028.410,-30117.050,-28274.800,-21777.010,-25693.660,-25967.970,-25127.270,-0.063,0.852,-0.493,-2.960,0.153,-0.641,66.667,623.000,1.000,2.392,0.000
-25597.270,-25059.900,-30164.260,-28309.750,-21818.900,-25732.980,-25996.990,-25159.060,-0.064,0.854,-0.492,-2.716,-0.275,-0.763,66.667,624.000,1.000,2.593,0.000
-25631.610,-25094.450,-30215.720,-28348.010,-21865.340,-25773.890,-26031.060,-25196.180,-0.064,0.859,-0.491,-2.655,-0.702,-0.793,66.667,625.000,1.000,3.069,0.000
-25665.330,-25127.090,-30268.810,-28388.200,-21913.880,-25815.790,-26066.740,-25234.640,-0.062,0.863,-0.492,-2.655,-1.160,-0.854,66.667,626.000,1.000,0.016,0.000
-25697.890,-25156.210,-30320.550,-28427.440,-21960.650,-25856.710,-26099.670,-25269.660,-0.061,0.870,-0.491,-2.686,-1.556,-0.793,66.667,627.000,1.000,4.301,0.000
-25730.020,-25182.890,-30371.100,-28465.780,-22005.520,-25897.340,-26130.940,-25301.410,-0.055,0.874,-0.490,-2.625,-1.892,-0.732,66.667,628.000,1.000,3.089,0.000
-25761.470,-25208.610,-30421.530,-28505.360,-22050.970,-25938.630,-26163.680,-25332.540,-0.047,0.880,-0.492,-2.838,-2.106,-0.824,66.667,629.000,1.000,0.008,0.000
-25789.840,-25231.730,-30468.680,-28543.380,-22095.260,-25976.170,-26194.020,-25361.050,-0.038,0.883,-0.494,-2.838,-2.045,-0.854,66.667,630.000,1.000,1.891,0.000
-25816.900,-25255.230,-30513.450,-28578.340,-22138.920,-26012.110,-26221.990,-25388.070,-0.032,0.887,-0.495,-3.204,-1.923,-0.793,66.667,631.000,1.000,3.879,0.000
-25845.540,-25283.450,-30559.530,-28610.570,-22183.720,-26051.030,-26250.990,-25415.470,-0.029,0.889,-0.496,-3.540,-1.862,-0.671,66.667,632.000,1.000,14.226,0.000
-25878.280,-25317.140,-30609.500,-28642.360,-22230.700,-26093.340,-26281.790,-25442.750,-0.028,0.891,-0.493,-3.784,-1.587,-0.671,66.667,633.000,1.000,0.012,0.000
-25919.890,-25357.410,-30667.540,-28680.500,-22283.640,-26139.780,-26316.830,-25473.900,-0.026,0.890,-0.494,-3.967,-1.190,-0.580,66.667,634.000,1.000,2.548,0.000
-25963.340,-25396.740,-30727.390,-28721.400,-22336.760,-26183.180,-26351.180,-25505.840,-0.026,0.890,-0.494,-4.242,-0.946,-0.610,66.667,635.000,1.000,0.005,0.000
-25997.270,-25426.070,-30778.800,-28756.390,-22381.430,-26216.720,-26378.640,-25532.450,-0.024,0.890,-0.494,-4.547,-0.610,-0.763,66.667,636.000,1.000,5.596,0.000
-26025.910,-25450.480,-30825.460,-28789.760,-22422.480,-26246.390,-26403.890,-25558.260,-0.021,0.887,-0.497,-4.791,-0.214,-0.824,66.667,637.000,1.000,9.405,0.000
-26054.230,-25474.730,-30871.580,-28825.110,-22463.700,-26276.400,-26428.790,-25585.140,-0.019,0.890,-0.495,-5.127,0.336,-0.885,66.667,638.000,1.000,0.007,0.000
-26077.930,-25494.290,-30913.460,-28857.470,-22501.130,-26302.930,-26450.410,-25608.550,-0.019,0.890,-0.498,-5.188,0.793,-1.068,66.667,639.000,1.000,11.238,0.000
-26098.700,-25510.920,-30953.020,-28887.810,-22536.790,-26329.880,-26472.250,-25630.590,-0.021,0.891,-0.498,-5.402,1.221,-1.221,66.667,640.000,1.000,0.013,0.000
-26126.560,-25535.410,-30999.580,-28924.540,-22579.440,-26367.490,-26501.000,-25658.840,-0.023,0.892,-0.496,-5.737,1.648,-1.495,66.667,641.000,1.000,2.445,0.000
-26164.870,-25571.940,-31056.480,-28970.270,-22632.370,-26416.330,-26539.550,-25696.650,-0.026,0.890,-0.492,-6.073,2.075,-1.770,66.667,642.000,1.000,0.012,0.000
-26203.550,-25610.850,-31114.050,-29015.550,-22686.390,-26466.320,-26581.250,-25737.970,-0.028,0.887,-0.495,-6.439,2.411,-2.106,66.667,643.000,1.000,11.232,0.000
-26229.640,-25637.890,-31158.590,-29046.960,-22727.270,-26504.820,-26611.810,-25769.400,-0.029,0.883,-0.496,-6.653,2.777,-2.350,66.667,644.000,1.000,0.009,0.000
-26245.230,-25653.130,-31190.810,-29064.780,-22755.570,-26531.330,-26629.430,-25788.390,-0.031,0.879,-0.497,-6.744,3.052,-2.533,66.667,645.000,1.000,2.449,0.000
-26262.880,-25668.690,-31223.150,-29083.000,-22784.870,-26555.880,-26647.030,-25808.030,-0.036,0.875,-0.494,-6.927,3.265,-2.838,66.667,646.000,1.000,0.006,0.000
-26282.740,-25685.690,-31257.310,-29106.590,-22818.170,-26581.530,-26669.380,-25831.060,-0.043,0.869,-0.493,-6.866,3.571,-3.113,66.667,647.000,1.000,18.846,0.000
-26304.130,-25704.800,-31293.890,-29135.600,-22856.470,-26615.290,-26698.220,-25855.530,-0.046,0.863,-0.493,-6.683,3.723,-3.387,66.667,648.000,1.000,0.013,0.000
-26331.900,-25731.870,-31337.340,-29170.470,-22902.310,-26660.860,-26734.360,-25884.570,-0.051,0.855,-0.493,-6.531,3.754,-3.479,66.667,649.000,1.000,3.033,0.000
-26363.270,-25763.080,-31384.900,-29206.950,-22949.470,-26705.120,-26769.400,-25914.540,-0.056,0.850,-0.489,-6.165,3.845,-3.754,66.667,650.000,1.000,0.009,0.000
-26396.000,-25795.410,-31435.900,-29245.910,-22996.020,-26743.570,-26801.090,-25943.760,-0.061,0.849,-0.487,-5.890,3.754,-3.784,66.667,651.000,1.000,0.007,0.000
-26425.440,-25825.130,-31484.780,-29283.100,-23038.500,-26777.250,-26827.520,-25968.820,-0.063,0.849,-0.483,-5.615,3.571,-3.754,66.667,652.000,1.000,3.163,0.000
-26443.620,-25842.460,-31520.270,-29307.870,-23068.480,-26799.640,-26841.550,-25981.950,-0.063,0.852,-0.482,-5.280,3.479,-3.448,66.667,653.000,1.000,0.026,0.000
-26458.290,-25853.370,-31549.620,-29326.630,-23094.270,-26818.740,-26852.670,-25990.810,-0.066,0.853,-0.475,-4.974,3.357,-3.204,66.667,654.000,1.000,8.091,0.000
-26483.850,-25875.090,-31589.360,-29354.010,-23132.030,-26852.550,-26878.220,-26011.320,-0.065,0.856,-0.476,-4.791,3.113,-2.869,66.667,655.000,1.000,4.335,0.000
-26516.930,-25906.090,-31636.960,-29387.030,-23178.110,-26897.340,-26913.240,-26040.670,-0.067,0.857,-0.478,-4.639,2.991,-2.533,66.667,656.000,1.000,0.012,0.000
-26544.120,-25930.570,-31677.770,-29412.670,-23216.530,-26934.170,-26939.870,-26062.110,-0.070,0.858,-0.478,-4.456,2.899,-2.167,66.667,657.000,1.000,8.209,0.000
-26564.070,-25945.220,-31710.320,-29432.060,-23246.050,-26958.890,-26956.680,-26075.820,-0.072,0.860,-0.482,-4.211,2.472,-1.801,66.667,658.000,1.000,2.399,0.000
-26587.830,-25962.970,-31747.160,-29458.420,-23279.990,-26984.940,-26976.410,-26097.140,-0.071,0.861,-0.480,-3.876,2.197,-1.495,66.667,659.000,1.000,3.726,0.000
-26618.890,-25989.820,-31792.320,-29493.730,-23322.220,-27018.880,-27003.430,-26127.240,-0.069,0.867,-0.479,-3.632,2.045,-1.068,66.667,660.000,1.000,14.342,0.000
-26648.420,-26016.570,-31836.730,-29527.230,-23363.720,-27052.570,-27031.250,-26155.870,-0.068,0.870,-0.479,-3.418,1.617,-0.763,66.667,661.000,1.000,0.014,0.000
-26673.280,-26039.330,-31877.630,-29556.080,-23401.470,-27082.710,-27057.290,-26181.890,-0.064,0.875,-0.478,-3.235,1.343,-0.336,66.667,662.000,1.000,1.908,0.000
-26698.440,-26064.000,-31920.470,-29587.440,-23440.920,-27114.650,-27085.620,-26211.260,-0.062,0.878,-0.477,-3.113,1.221,0.031,66.667,663.000,1.000,3.099,0.000
-26721.410,-26087.930,-31962.010,-29619.340,-23479.760,-27145.810,-27112.810,-26240.810,-0.062,0.880,-0.478,-3.143,1.068,0.397,66.667,664.000,1.000,0.011,0.000
-26736.690,-26103.460,-31994.600,-29642.560,-23510.200,-27168.900,-27130.410,-26261.340,-0.060,0.883,-0.479,-3.174,0.854,0.671,66.667,665.000,1.000,1.897,0.000
-26751.930,-26116.330,-32024.020,-29662.020,-23537.430,-27189.980,-27144.600,-26276.790,-0.058,0.882,-0.480,-3.357,0.793,0.916,66.667,666.000,1.000,11.578,0.000
-26775.700,-26134.410,-32059.410,-29688.350,-23570.800,-27218.550,-27165.790,-26297.380,-0.055,0.880,-0.480,-3.418,0.732,1.160,66.667,667.000,1.000,4.716,0.000
-26802.430,-26153.410,-32097.460,-29718.060,-23607.490,-27250.990,-27190.100,-26321.620,-0.052,0.881,-0.480,-3.540,0.732,1.282,66.667,668.000,1.000,2.495,0.000
-26824.140,-26168.520,-32132.050,-29743.320,-23641.510,-27280.090,-27210.550,-26342.720,-0.051,0.882,-0.484,-3.693,0.610,1.282,66.667,669.000,1.000,2.469,0.000
-26841.550,-26182.950,-32164.210,-29764.440,-23673.060,-27305.210,-27227.740,-26359.590,-0.047,0.883,-0.483,-3.876,0.641,1.312,66.667,670.000,1.000,6.243,0.000
-26863.020,-26203.970,-32200.860,-29788.620,-23708.190,-27333.360,-27248.670,-26378.320,-0.045,0.884,-0.480,-3.906,0.671,1.221,66.667,671.000,1.000,6.849,0.000
-26893.130,-26233.540,-32245.380,-29820.830,-23750.750,-27370.220,-27278.030,-26405.060,-0.044,0.885,-0.482,-4.059,0.824,1.160,66.667,672.000,1.000,0.008,0.000
-26920.860,-26260.360,-32286.790,-29851.000,-23790.800,-27405.590,-27306.050,-26431.380,-0.042,0.885,-0.487,-4.395,1.007,0.793,66.667,673.000,1.000,4.450,0.000
-26934.200,-26272.200,-32313.430,-29866.860,-23816.080,-27424.690,-27319.070,-26443.660,-0.040,0.886,-0.491,-4.547,0.977,0.671,66.667,674.000,1.000,2.410,0.000
-26940.300,-26275.470,-32333.690,-29876.830,-23833.830,-27434.090,-27322.880,-26448.500,-0.041,0.884,-0.490,-4.791,1.190,0.336,66.667,675.000,1.000,9.376,0.000
-26952.100,-26284.710,-32361.230,-29894.880,-23858.750,-27452.540,-27334.640,-26461.060,-0.039,0.882,-0.491,-5.005,1.373,0.061,66.667,676.000,1.000,0.020,0.000
-26968.460,-26300.290,-32393.450,-29917.700,-23889.320,-27479.400,-27354.930,-26479.320,-0.037,0.879,-0.491,-5.127,1.648,-0.336,66.667,677.000,1.000,1.918,0.000
-26987.130,-26318.330,-32426.730,-29941.210,-23921.520,-27506.140,-27377.180,-26499.690,-0.038,0.875,-0.492,-5.188,1.740,-0.671,66.667,678.000,1.000,2.461,0.000
-27011.730,-26339.720,-32463.960,-29968.800,-23957.510,-27533.930,-27400.620,-26523.550,-0.039,0.871,-0.490,-5.127,1.953,-1.068,66.667,679.000,1.000,8.767,0.000
-27037.170,-26360.270,-32499.910,-29995.030,-23991.790,-27560.050,-27419.510,-26542.210,-0.040,0.869,-0.489,-5.066,2.106,-1.404,66.667,680.000,1.000,4.317,0.000
-27053.630,-26373.380,-32526.430,-30011.570,-24017.390,-27579.100,-27429.050,-26549.890,-0.046,0.870,-0.487,-5.005,2.106,-1.678,66.667,681.000,1.000,0.012,0.000
-27061.650,-26380.510,-32546.280,-30021.370,-24037.770,-27593.660,-27434.030,-26554.650,-0.049,0.868,-0.485,-5.066,2.106,-2.014,66.667,682.000,1.000,8.724,0.000
-27071.460,-26391.360,-32570.830,-30034.920,-24063.720,-27615.020,-27446.870,-26566.850,-0.053,0.864,-0.483,-5.096,2.075,-2.106,66.667,683.000,1.000,0.008,0.000
-27088.420,-26410.500,-32604.950,-30057.480,-24100.180,-27650.020,-27474.660,-26588.760,-0.056,0.863,-0.483,-4.883,1.984,-2.350,66.667,684.000,1.000,1.885,0.000
-27108.900,-26433.100,-32643.050,-30085.540,-24141.210,-27689.970,-27507.990,-26615.370,-0.059,0.858,-0.485,-4.578,1.923,-2.472,66.667,685.000,1.000,3.727,0.000
-27127.680,-26454.130,-32679.180,-30112.880,-24179.650,-27723.010,-27535.020,-26639.810,-0.061,0.860,-0.482,-4.333,1.801,-2.563,66.667,686.000,1.000,14.404,0.000
-27144.500,-26472.640,-32713.350,-30138.190,-24215.290,-27749.630,-27556.620,-26661.410,-0.065,0.862,-0.480,-4.089,1.465,-2.563,66.667,687.000,1.000,0.010,0.000
-27158.640,-26485.090,-32743.010,-30159.020,-24244.800,-27769.820,-27571.650,-26678.420,-0.065,0.864,-0.477,-3.815,1.251,-2.350,66.667,688.000,1.000,1.808,0.000
-27169.080,-26489.680,-32764.970,-30172.340,-24264.800,-27781.630,-27577.990,-26687.140,-0.064,0.865,-0.475,-3.479,0.916,-2.167,66.667,689.000,1.000,2.594,0.000
-27183.310,-26496.950,-32788.040,-30187.030,-24285.970,-27797.330,-27587.990,-26697.430,-0.063,0.865,-0.472,-3.265,0.671,-2.014,66.667,690.000,1.000,2.428,0.000
-27206.460,-26514.900,-32819.940,-30211.280,-24316.530,-27824.810,-27607.870,-26718.330,-0.063,0.865,-0.470,-3.052,0.427,-1.831,66.667,691.000,1.000,8.840,0.000
-27233.480,-26538.350,-32856.150,-30240.360,-24351.260,-27855.970,-27630.100,-26742.820,-0.063,0.867,-0.475,-2.686,0.153,-1.556,66.667,692.000,1.000,3.017,0.000
-27256.080,-26558.480,-32888.230,-30264.590,-24381.780,-27881.440,-27647.410,-26760.760,-0.063,0.869,-0.472,-2.411,0.061,-1.373,66.667,693.000,1.000,0.011,0.000
-27269.770,-26571.360,-32912.680,-30280.140,-24405.070,-27898.610,-27657.800,-26771.170,-0.062,0.869,-0.471,-2.106,-0.275,-1.038,66.667,694.000,1.000,8.146,0.000
-27277.130,-26578.700,-32932.130,-30290.130,-24424.530,-27911.500,-27665.690,-26779.280,-0.060,0.869,-0.472,-1.831,-0.458,-0.641,66.667,695.000,1.000,3.052,0.000
-27285.070,-26585.010,-32951.640,-30298.940,-24444.810,-27924.720,-27674.940,-26788.100,-0.054,0.871,-0.471,-1.648,-0.519,-0.397,66.667,696.000,1.000,0.011,0.000
-27298.610,-26594.370,-32976.050,-30311.420,-24468.900,-27941.250,-27686.150,-26798.590,-0.054,0.871,-0.473,-1.434,-0.549,-0.122,66.667,697.000,1.000,5.769,0.000
-27317.580,-26607.460,-33006.150,-30329.420,-24496.850,-27961.730,-27699.200,-26810.790,-0.052,0.871,-0.477,-1.221,-0.671,0.092,66.667,698.000,1.000,4.258,0.000
-27336.570,-26621.420,-33036.700,-30347.600,-24524.520,-27982.710,-27711.470,-26821.760,-0.052,0.872,-0.479,-1.038,-0.641,0.397,66.667,699.000,1.000,0.013,0.000
-27352.640,-26635.810,-33064.620,-30363.360,-24550.620,-28004.360,-27723.330,-26831.570,-0.052,0.873,-0.479,-0.885,-0.671,0.702,66.667,700.000,1.000,1.917,0.000
-27370.560,-26653.990,-33094.250,-30382.250,-24579.560,-28030.540,-27738.750,-26845.050,-0.054,0.873,-0.481,-0.702,-0.641,0.824,66.667,701.000,1.000,13.809,0.000
-27390.280,-26674.140,-33125.500,-30403.370,-24610.440,-28057.990,-27755.800,-26861.650,-0.055,0.874,-0.481,-0.580,-0.580,0.946,66.667,702.000,1.000,3.089,0.000
-27403.220,-26688.660,-33150.820,-30417.980,-24635.860,-28077.890,-27767.380,-26874.550,-0.052,0.875,-0.482,-0.427,-0.641,1.038,66.667,703.000,1.000,0.016,0.000
-27408.090,-26696.710,-33169.960,-30427.370,-24655.990,-28090.960,-27773.740,-26883.250,-0.050,0.876,-0.482,-0.458,-0.702,1.038,66.667,704.000,1.000,1.878,0.000
-27413.210,-26703.660,-33189.780,-30440.240,-24677.600,-28105.250,-27782.810,-26893.430,-0.048,0.880,-0.484,-0.488,-0.671,0.946,66.667,705.000,1.000,6.149,0.000
-27420.040,-26707.930,-33209.040,-30454.890,-24698.700,-28118.950,-27793.360,-26903.340,-0.049,0.881,-0.481,-0.427,-0.641,0.885,66.667,706.000,1.000,9.512,0.000
-27427.440,-26709.380,-33227.230,-30468.520,-24718.510,-28131.300,-27802.630,-26912.220,-0.047,0.881,-0.484,-0.488,-0.671,0.763,66.667,707.000,1.000,0.021,0.000
-27439.580,-26715.960,-33250.820,-30485.300,-24743.760,-28149.170,-27815.500,-26924.650,-0.046,0.882,-0.487,-0.641,-0.641,0.732,66.667,708.000,1.000,1.671,0.000
-27459.560,-26733.170,-33282.240,-30507.900,-24776.570,-28174.560,-27834.470,-26942.050,-0.045,0.886,-0.489,-0.824,-0.549,0.763,66.667,709.000,1.000,8.771,0.000
-27485.190,-26756.610,-33317.210,-30534.120,-24812.700,-28203.420,-27857.610,-26963.470,-0.045,0.886,-0.488,-1.007,-0.549,0.641,66.667,710.000,1.000,3.154,0.000
-27504.840,-26772.070,-33344.250,-30553.670,-24841.150,-28224.340,-27875.120,-26979.940,-0.043,0.890,-0.489,-1.190,-0.458,0.519,66.667,711.000,1.000,0.012,0.000
-27510.640,-26774.090,-33357.490,-30560.450,-24856.260,-28231.690,-27880.410,-26984.260,-0.042,0.890,-0.489,-1.495,-0.305,0.305,66.667,712.000,1.000,8.134,0.000
-27513.510,-26776.200,-33368.950,-30566.290,-24870.190,-28240.120,-27885.430,-26986.600,-0.041,0.892,-0.492,-1.770,-0.183,0.183,66.667,713.000,1.000,9.903,0.000
-27528.150,-26791.050,-33392.640,-30585.710,-24896.660,-28264.080,-27903.490,-27000.750,-0.041,0.895,-0.491,-2.045,-0.244,0.092,66.667,714.000,1.000,0.077,0.000
-27547.570,-26808.890,-33421.340,-30610.340,-24927.220,-28291.550,-27924.750,-27019.640,-0.042,0.895,-0.489,-2.502,-0.183,-0.092,66.667,715.000,1.000,0.008,0.000
-27557.280,-26814.850,-33441.210,-30623.600,-24946.840,-28305.760,-27933.810,-27028.050,-0.044,0.896,-0.488,-3.021,-0.031,-0.336,66.667,716.000,1.000,2.409,0.000
-27563.600,-26816.540,-33458.660,-30630.360,-24962.130,-28314.710,-27938.040,-27031.620,-0.045,0.898,-0.491,-3.387,0.153,-0.549,66.667,717.000,1.000,2.458,0.000
-27577.580,-26826.700,-33484.800,-30642.810,-24985.240,-28329.130,-27948.370,-27041.570,-0.043,0.897,-0.491,-3.876,0.183,-0.763,66.667,718.000,1.000,2.576,0.000
-27593.610,-26840.000,-33514.250,-30657.960,-25011.470,-28343.770,-27959.340,-27053.290,-0.042,0.893,-0.495,-4.272,0.214,-1.038,66.667,719.000,1.000,16.207,0.000
-27603.520,-26848.210,-33537.580,-30667.880,-25032.520,-28355.660,-27966.690,-27059.490,-0.043,0.888,-0.494,-4.639,0.275,-1.373,66.667,720.000,1.000,2.446,0.000
-27609.690,-26854.310,-33555.310,-30673.400,-25050.270,-28369.070,-27974.320,-27062.520,-0.042,0.886,-0.497,-4.944,0.397,-1.526,66.667,721.000,1.000,2.560,0.000
-27616.400,-26862.270,-33570.670,-30679.150,-25068.370,-28384.390,-27982.230,-27067.660,-0.043,0.881,-0.496,-5.127,0.488,-1.770,66.667,722.000,1.000,2.445,0.000
-27625.010,-26871.740,-33585.410,-30687.920,-25087.870,-28402.020,-27991.150,-27076.630,-0.044,0.881,-0.495,-5.280,0.458,-1.923,66.667,723.000,1.000,2.555,0.000
-27634.590,-26881.430,-33600.680,-30698.240,-25108.740,-28422.620,-28003.140,-27085.710,-0.046,0.881,-0.488,-5.432,0.519,-2.106,66.667,724.000,1.000,2.445,0.000
-27645.980,-26893.100,-33619.400,-30710.910,-25132.650,-28444.060,-28017.040,-27095.490,-0.046,0.881,-0.489,-5.524,0.549,-2.045,66.667,725.000,1.000,3.808,0.000
-27660.130,-26907.660,-33643.190,-30727.970,-25161.010,-28465.280,-28032.750,-27110.570,-0.047,0.877,-0.485,-5.707,0.610,-2.136,66.667,726.000,1.000,4.221,0.000
-27671.540,-26919.150,-33665.960,-30742.920,-25187.670,-28483.800,-28046.940,-27125.030,-0.047,0.870,-0.482,-5.798,0.580,-2.014,66.667,727.000,1.000,0.006,0.000
-27678.690,-26925.450,-33684.870,-30753.320,-25208.620,-28497.630,-28055.750,-27134.320,-0.043,0.862,-0.484,-5.890,0.580,-2.075,66.667,728.000,1.000,13.820,0.000
-27688.170,-26932.100,-33705.820,-30766.210,-25229.480,-28510.600,-28063.270,-27144.760,-0.047,0.854,-0.485,-5.920,0.671,-1.770,66.667,729.000,1.000,0.014,0.000
-27700.430,-26939.840,-33730.220,-30782.400,-25252.470,-28524.520,-28072.270,-27157.920,-0.049,0.847,-0.482,-5.676,0.671,-1.740,66.667,730.000,1.000,1.877,0.000
-27707.320,-26942.730,-33750.610,-30794.450,-25271.370,-28534.300,-28077.310,-27166.680,-0.049,0.844,-0.477,-5.219,0.488,-1.740,66.667,731.000,1.000,2.577,0.000
-27706.910,-26939.960,-33764.110,-30801.100,-25285.090,-28539.220,-28078.290,-27170.100,-0.049,0.841,-0.474,-4.761,0.519,-1.862,66.667,732.000,1.000,3.682,0.000
-27708.440,-26939.400,-33778.110,-30810.100,-25301.420,-28547.250,-28083.620,-27175.820,-0.049,0.846,-0.476,-4.333,0.610,-1.923,66.667,733.000,1.000,19.346,0.000
-27713.860,-26942.070,-33793.300,-30820.700,-25319.480,-28558.450,-28091.320,-27182.730,-0.049,0.847,-0.476,-3.876,0.671,-1.923,66.667,734.000,1.000,0.014,0.000
-27715.150,-26941.220,-33802.240,-30824.830,-25330.980,-28564.400,-28091.800,-27183.120,-0.050,0.845,-0.475,-3.418,0.793,-2.136,66.667,735.000,1.000,3.012,0.000
-27716.750,-26942.220,-33810.210,-30828.230,-25341.460,-28570.680,-28091.290,-27182.670,-0.051,0.849,-0.478,-3.052,0.824,-2.350,66.667,736.000,1.000,0.008,0.000
-27728.220,-26953.210,-33826.450,-30839.560,-25360.180,-28586.890,-28100.470,-27189.880,-0.052,0.851,-0.481,-2.625,0.824,-2.472,66.667,737.000,1.000,0.004,0.000
-27742.400,-26965.530,-33844.040,-30850.860,-25380.030,-28604.730,-28112.070,-27198.230,-0.055,0.859,-0.480,-2.014,0.793,-2.625,66.667,738.000,1.000,3.237,0.000
-27748.530,-26968.330,-33853.610,-30853.050,-25391.540,-28613.790,-28115.500,-27200.370,-0.057,0.865,-0.476,-1.556,0.854,-2.838,66.667,739.000,1.000,0.010,0.000
-27751.730,-26966.900,-33860.920,-30852.220,-25400.220,-28619.180,-28114.760,-27200.530,-0.056,0.871,-0.480,-1.221,0.793,-3.143,66.667,740.000,1.000,3.074,0.000
-27759.730,-26970.240,-33874.720,-30856.050,-25414.670,-28628.900,-28118.020,-27203.990,-0.057,0.883,-0.476,-1.160,0.916,-3.021,66.667,741.000,1.000,14.461,0.000
-27770.630,-26977.830,-33894.240,-30864.250,-25434.780,-28642.710,-28126.070,-27210.470,-0.056,0.890,-0.479,-1.343,0.793,-3.113,66.667,742.000,1.000,0.014,0.000
-27780.510,-26985.410,-33914.800,-30874.550,-25456.660,-28657.080,-28134.690,-27217.600,-0.053,0.893,-0.481,-1.160,0.946,-3.174,66.667,743.000,1.000,2.427,0.000
-27787.710,-26991.280,-33933.660,-30883.800,-25477.240,-28668.320,-28140.470,-27223.240,-0.052,0.896,-0.479,-1.282,1.007,-3.326,66.667,744.000,1.000,0.015,0.000
-27791.660,-26995.230,-33949.680,-30889.930,-25495.250,-28675.110,-28144.060,-27226.660,-0.049,0.901,-0.478,-1.373,1.129,-3.265,66.667,745.000,1.000,10.649,0.000
-27794.300,-26998.450,-33963.520,-30895.500,-25512.200,-28681.810,-28148.810,-27230.120,-0.047,0.902,-0.481,-1.740,1.190,-3.113,66.667,746.000,1.000,9.989,0.000
-27799.250,-27003.280,-33977.640,-30903.720,-25530.530,-28693.400,-28156.730,-27236.290,-0.044,0.901,-0.481,-2.014,1.495,-2.899,66.667,747.000,1.000,0.014,0.000
-27804.330,-27007.230,-33990.300,-30912.160,-25548.290,-28706.920,-28164.780,-27242.880,-0.040,0.897,-0.480,-2.258,1.770,-2.655,66.667,748.000,1.000,0.007,0.000
-27805.510,-27007.450,-33998.210,-30917.420,-25562.850,-28717.170,-28170.220,-27247.730,-0.041,0.897,-0.482,-2.563,2.014,-2.228,66.667,749.000,1.000,3.080,0.000
-27807.430,-27008.780,-34005.630,-30922.530,-25578.150,-28726.920,-28176.520,-27254.220,-0.039,0.894,-0.485,-2.930,2.380,-1.831,66.667,750.000,1.000,0.008,0.000
-27813.940,-27014.360,-34017.380,-30930.590,-25597.270,-28739.340,-28185.310,-27263.320,-0.042,0.888,-0.485,-3.174,2.716,-1.526,66.667,751.000,1.000,13.077,0.000
-27817.610,-27017.070,-34028.090,-30936.090,-25613.270,-28747.950,-28189.400,-27267.340,-0.046,0.889,-0.488,-3.296,2.930,-1.190,66.667,752.000,1.000,3.147,0.000
-27814.950,-27014.370,-34034.670,-30935.790,-25622.390,-28749.360,-28186.250,-27263.570,-0.048,0.889,-0.488,-3.448,3.052,-0.916,66.667,753.000,1.000,0.008,0.000
-27813.570,-27013.860,-34043.590,-30935.460,-25631.280,-28750.600,-28183.100,-27259.420,-0.051,0.888,-0.486,-3.601,3.235,-0.702,66.667,754.000,1.000,1.848,0.000
-27815.290,-27015.830,-34055.700,-30937.380,-25641.950,-28754.930,-28181.430,-27258.210,-0.053,0.888,-0.483,-3.906,3.265,-0.488,66.667,755.000,1.000,14.418,0.000
-27817.640,-27016.930,-34068.330,-30941.640,-25653.000,-28761.670,-28179.880,-27259.340,-0.053,0.888,-0.482,-4.211,3.296,-0.244,66.667,756.000,1.000,0.024,0.000
-27821.570,-27018.890,-34082.120,-30949.330,-25665.830,-28770.910,-28180.670,-27262.290,-0.058,0.884,-0.481,-4.486,3.296,0.031,66.667,757.000,1.000,1.872,0.000
-27825.020,-27020.680,-34094.580,-30956.510,-25678.770,-28779.860,-28182.910,-27265.170,-0.061,0.880,-0.484,-4.822,3.174,0.183,66.667,758.000,1.000,3.079,0.000
-27825.580,-27019.840,-34103.180,-30960.170,-25689.750,-28785.920,-28184.280,-27267.840,-0.062,0.877,-0.488,-5.005,2.991,0.336,66.667,759.000,1.000,0.016,0.000
-27824.410,-27016.840,-34108.790,-30961.140,-25699.390,-28789.020,-28183.720,-27270.300,-0.065,0.872,-0.489,-5.035,2.747,0.458,66.667,760.000,1.000,1.895,0.000
-27822.820,-27012.920,-34112.450,-30959.400,-25707.890,-28791.770,-28181.650,-27269.400,-0.066,0.868,-0.487,-5.157,2.502,0.488,66.667,761.000,1.000,14.294,0.000
-27822.810,-27010.590,-34116.700,-30956.710,-25716.720,-28796.680,-28181.420,-27266.480,-0.069,0.867,-0.488,-5.066,2.167,0.519,66.667,762.000,1.000,0.011,0.000
-27826.730,-27011.770,-34124.270,-30956.290,-25728.470,-28803.540,-28185.650,-27267.460,-0.068,0.864,-0.490,-5.035,1.801,0.366,66.667,763.000,1.000,1.933,0.000
-27834.010,-27015.870,-34134.380,-30958.300,-25743.050,-28813.490,-28193.260,-27272.170,-0.068,0.862,-0.489,-4.944,1.495,0.366,66.667,764.000,1.000,4.936,0.000
-27840.700,-27020.350,-34144.260,-30960.170,-25757.210,-28824.450,-28198.880,-27276.510,-0.066,0.864,-0.486,-4.791,1.160,0.214,66.667,765.000,1.000,2.556,0.000
-27842.610,-27021.050,-34151.320,-30958.320,-25767.250,-28828.750,-28196.760,-27277.520,-0.066,0.865,-0.482,-4.761,0.702,-0.092,66.667,766.000,1.000,3.794,0.000
-27841.920,-27018.880,-34157.710,-30955.480,-25775.030,-28827.120,-28190.460,-27275.370,-0.069,0.867,-0.483,-4.639,0.305,-0.305,66.667,767.000,1.000,14.358,0.000
