EEG 1, EEG 2, EEG 3, EEG 4, EEG 5, EEG 6, EEG 7, EEG 8, ACC X, ACC Y, ACC Z, GYR X, GYR Y, GYR Z, BAT, CNT, VALID, DT, TRIG
750000.100,750000.100,152284.300,665148.500,750000.100,750000.100,750000.100,750000.100,-0.126,0.900,-0.330,0.000,0.000,0.000,73.333,1.000,1.000,0.000,0.000
750000.100,750000.100,192386.100,567811.500,519392.300,700099.700,750000.100,750000.100,-0.122,0.913,-0.341,0.000,0.000,0.000,73.333,2.000,1.000,19.398,0.000
558057.800,750000.100,392144.700,640545.900,-160479.300,322286.900,750000.100,692725.600,-0.122,0.920,-0.342,0.000,0.000,0.000,73.333,3.000,1.000,2.396,0.000
482582.700,750000.100,634825.300,733141.200,-360613.200,198803.800,750000.100,625960.000,-0.122,0.924,-0.342,0.000,0.000,0.000,73.333,4.000,1.000,2.505,0.000
504840.500,729317.000,587628.400,750000.100,-517263.000,263431.100,750000.100,677032.400,-0.122,0.926,-0.346,-5.768,5.310,-7.721,73.333,5.000,1.000,2.438,0.000
405291.800,421937.000,657026.500,750000.100,-750000.100,423425.300,750000.100,731831.400,-0.125,0.928,-0.352,-5.829,4.974,-6.195,73.333,6.000,1.000,3.772,0.000
400891.600,184859.800,723272.800,750000.100,-750000.100,549088.300,750000.100,750000.100,-0.124,0.929,-0.352,-3.387,2.563,-2.350,73.333,7.000,1.000,8.852,0.000
750000.100,578198.400,750000.100,750000.100,208852.600,557967.400,750000.100,750000.100,-0.124,0.933,-0.356,-2.502,1.587,-0.824,73.333,8.000,1.000,3.026,0.000
750000.100,750000.100,750000.100,750000.100,750000.100,750000.100,750000.100,750000.100,-0.125,0.935,-0.356,-2.289,1.282,-0.427,73.333,9.000,1.000,0.011,0.000
750000.100,750000.100,750000.100,750000.100,750000.100,750000.100,750000.100,750000.100,-0.125,0.938,-0.352,-2.289,1.007,-0.275,73.333,10.000,1.000,5.597,0.000
750000.100,750000.100,750000.100,750000.100,750000.100,750000.100,750000.100,750000.100,-0.125,0.939,-0.352,-2.411,0.763,-0.183,73.333,11.000,1.000,9.439,0.000
750000.100,750000.100,750000.100,750000.100,750000.100,750000.100,750000.100,750000.100,-0.124,0.940,-0.354,-2.594,0.763,-0.305,73.333,12.000,1.000,0.013,0.000
750000.100,750000.100,750000.100,750000.100,750000.100,750000.100,750000.100,750000.100,-0.121,0.941,-0.355,-2.655,0.641,-0.366,73.333,13.000,1.000,1.833,0.000
750000.100,750000.100,750000.100,750000.100,750000.100,750000.100,691844.900,738834.700,-0.118,0.941,-0.353,-2.869,0.580,-0.427,73.333,14.000,1.000,3.707,0.000
750000.100,750000.100,750000.100,750000.100,663528.600,640131.800,584239.100,623351.800,-0.116,0.940,-0.359,-3.113,0.610,-0.305,73.333,15.000,1.000,7.558,0.000
693354.600,644686.600,750000.100,750000.100,567600.800,547388.000,500105.100,533081.200,-0.116,0.940,-0.358,-3.235,0.580,-0.397,73.333,16.000,1.000,9.376,0.000
597799.100,555757.800,750000.100,750000.100,489441.000,471897.300,431557.500,459542.800,-0.118,0.938,-0.355,-3.387,0.702,-0.458,73.333,17.000,1.000,0.021,0.000
518327.500,481700.300,750000.100,750000.100,424336.300,409071.000,374511.500,398354.800,-0.116,0.938,-0.356,-3.387,0.793,-0.397,73.333,18.000,1.000,2.456,0.000
451769.400,419696.300,750000.100,750000.100,370004.300,356534.600,326758.500,347349.800,-0.116,0.936,-0.356,-3.601,0.885,-0.397,73.333,19.000,1.000,0.010,0.000
396171.700,368062.900,750000.100,750000.100,324654.800,312845.000,286741.300,304687.700,-0.113,0.935,-0.356,-3.754,0.946,-0.244,73.333,20.000,1.000,8.116,0.000
357093.400,331838.800,750000.100,750000.100,292747.200,282129.400,258593.200,274695.400,-0.113,0.932,-0.356,-3.845,1.068,-0.275,73.333,21.000,1.000,2.489,0.000
341680.300,317460.300,750000.100,750000.100,280080.300,269959.300,247457.400,262750.300,-0.114,0.927,-0.358,-3.906,1.160,-0.275,73.333,22.000,1.000,2.453,0.000
332342.700,308802.200,750000.100,750000.100,272376.100,262540.800,240692.400,255467.000,-0.119,0.925,-0.353,-3.937,1.282,-0.153,73.333,23.000,1.000,3.780,0.000
323785.500,300803.300,750000.100,750000.100,265392.400,255773.500,234534.000,248914.000,-0.121,0.928,-0.358,-3.784,1.251,-0.153,73.333,24.000,1.000,10.617,0.000
315921.100,293480.400,750000.100,750000.100,259026.800,249624.900,228908.600,242930.500,-0.123,0.927,-0.357,-3.723,1.282,-0.214,73.333,25.000,1.000,0.019,0.000
308593.800,286691.000,750000.100,750000.100,253083.300,243881.300,223647.500,237324.900,-0.123,0.926,-0.354,-3.754,1.160,-0.275,73.333,26.000,1.000,1.964,0.000
301823.900,280453.100,750000.100,750000.100,247479.300,238514.800,218693.800,232038.500,-0.121,0.924,-0.355,-3.632,1.221,-0.366,73.333,27.000,1.000,2.434,0.000
295521.300,274620.900,750000.100,750000.100,242258.600,233530.700,214079.600,227131.400,-0.119,0.921,-0.355,-3.418,1.160,-0.458,73.333,28.000,1.000,13.787,0.000
289683.400,269112.200,750000.100,750000.100,237494.700,228935.100,209859.300,222666.600,-0.120,0.922,-0.353,-3.265,1.251,-0.336,73.333,29.000,1.000,3.178,0.000
284281.100,264114.200,750000.100,750000.100,233151.400,224706.200,205990.500,218579.900,-0.117,0.921,-0.352,-3.082,1.373,-0.214,73.333,30.000,1.000,0.015,0.000
279192.200,259457.800,750000.100,750000.100,229032.700,220745.100,202337.800,214690.100,-0.120,0.925,-0.348,-2.899,1.373,-0.183,73.333,31.000,1.000,1.794,0.000
274399.700,254979.700,750000.100,750000.100,225060.100,216959.800,198848.500,210956.800,-0.122,0.927,-0.348,-2.777,1.526,-0.031,73.333,32.000,1.000,2.475,0.000
269938.100,250784.000,750000.100,750000.100,221338.700,213409.500,195567.800,207475.300,-0.120,0.926,-0.347,-2.747,1.556,0.122,73.333,33.000,1.000,2.500,0.000
265792.700,246921.600,750000.100,750000.100,217957.800,210139.600,192563.300,204303.000,-0.118,0.923,-0.343,-2.747,1.678,0.275,73.333,34.000,1.000,8.693,0.000
261935.000,243355.200,750000.100,750000.100,214870.900,207123.600,189808.000,201391.400,-0.118,0.923,-0.344,-2.716,1.678,0.397,73.333,35.000,1.000,3.164,0.000
258276.100,239981.700,750000.100,750000.100,211911.400,204260.600,187179.200,198595.200,-0.118,0.924,-0.345,-2.594,1.831,0.519,73.333,36.000,1.000,0.014,0.000
254795.100,236776.300,750000.100,750000.100,209024.200,201510.000,184639.000,195879.600,-0.120,0.927,-0.347,-2.472,1.892,0.610,73.333,37.000,1.000,1.884,0.000
251513.500,233680.300,750000.100,750000.100,206278.100,198893.300,182226.100,193308.600,-0.121,0.928,-0.345,-2.380,1.984,0.610,73.333,38.000,1.000,8.676,0.000
248473.100,230863.400,750000.100,750000.100,203802.200,196495.900,180027.700,190987.800,-0.120,0.933,-0.344,-2.289,1.953,0.580,73.333,39.000,1.000,3.806,0.000
245626.500,228235.100,750000.100,750000.100,201542.700,194283.700,178007.300,188853.400,-0.121,0.936,-0.347,-2.319,2.014,0.580,73.333,40.000,1.000,6.936,0.000
242892.000,225681.800,750000.100,750000.100,199334.000,192130.200,176054.300,186773.600,-0.121,0.937,-0.349,-2.380,1.984,0.702,73.333,41.000,1.000,0.007,0.000
240256.300,223210.900,750000.100,750000.100,197144.300,190057.300,174140.600,184717.200,-0.122,0.939,-0.352,-2.411,2.045,0.763,73.333,42.000,1.000,8.073,0.000
237808.100,220953.100,750000.100,750000.100,195077.600,188090.000,172325.900,182788.900,-0.122,0.939,-0.354,-2.563,2.106,0.702,73.333,43.000,1.000,6.894,0.000
235521.100,218840.000,750000.100,749741.600,193214.200,186283.700,170666.700,181042.100,-0.121,0.938,-0.353,-2.563,2.228,0.702,73.333,44.000,1.000,0.010,0.000
233356.100,216804.600,750000.100,742278.600,191496.100,184594.500,169135.800,179430.200,-0.121,0.936,-0.347,-2.563,2.197,0.488,73.333,45.000,1.000,1.838,0.000
231272.700,214877.000,750000.100,735147.700,189819.000,182973.100,167656.500,177854.700,-0.119,0.934,-0.349,-2.625,2.411,0.397,73.333,46.000,1.000,3.707,0.000
229291.000,213056.100,750000.100,728301.800,188146.500,181391.700,166198.500,176288.100,-0.117,0.935,-0.352,-2.594,2.319,0.458,73.333,47.000,1.000,3.738,0.000
227407.600,211292.000,750000.100,721815.300,186555.000,179889.000,164809.500,174803.300,-0.114,0.933,-0.352,-2.563,2.197,0.275,73.333,48.000,1.000,19.424,0.000
225664.400,209676.700,750000.100,715744.400,185137.600,178519.500,163547.200,173477.300,-0.117,0.933,-0.351,-2.472,2.289,0.122,73.333,49.000,1.000,0.022,0.000
224015.100,208179.500,750000.100,709983.400,183839.800,177229.600,162383.100,172252.300,-0.117,0.929,-0.352,-2.441,2.350,0.000,73.333,50.000,1.000,3.006,0.000
222397.500,206619.500,750000.100,704471.900,182551.900,175982.500,161247.100,171034.000,-0.117,0.926,-0.353,-2.319,2.411,-0.092,73.333,51.000,1.000,0.013,0.000
220850.400,205176.400,750000.100,699144.400,181242.600,174746.200,160107.000,169807.100,-0.119,0.925,-0.351,-2.197,2.380,-0.275,73.333,52.000,1.000,0.006,0.000
219424.300,203899.900,750000.100,694108.100,180013.600,173586.400,159027.900,168658.100,-0.123,0.926,-0.354,-2.045,2.319,-0.427,73.333,53.000,1.000,2.533,0.000
218047.600,202567.300,746420.600,689365.300,178909.100,172511.200,158050.200,167630.000,-0.124,0.926,-0.355,-1.892,2.350,-0.519,73.333,54.000,1.000,3.711,0.000
216763.100,201372.600,741464.500,684871.400,177916.900,171525.100,157155.700,166694.700,-0.125,0.927,-0.355,-1.678,2.289,-0.702,73.333,55.000,1.000,13.107,0.000
215534.500,200263.600,736731.100,680561.800,176942.900,170576.300,156295.500,165771.100,-0.124,0.929,-0.356,-1.678,2.136,-0.732,73.333,56.000,1.000,0.011,0.000
214315.500,199144.800,732156.300,676367.500,175915.600,169616.300,155406.900,164808.600,-0.126,0.930,-0.353,-1.556,1.923,-0.824,73.333,57.000,1.000,2.462,0.000
213185.200,198109.000,727807.200,672390.700,174941.500,168706.100,154556.200,163904.400,-0.127,0.931,-0.355,-1.434,1.770,-0.824,73.333,58.000,1.000,0.011,0.000
212111.500,197095.800,723663.300,668623.900,174071.900,167856.100,153779.500,163090.900,-0.128,0.932,-0.354,-1.404,1.678,-0.946,73.333,59.000,1.000,5.783,0.000
211106.500,196148.500,719734.000,665083.300,173302.500,167088.300,153082.700,162365.300,-0.129,0.930,-0.352,-1.434,1.648,-1.038,73.333,60.000,1.000,11.800,0.000
210130.700,195247.500,715961.100,661656.400,172528.300,166337.100,152396.000,161629.600,-0.130,0.931,-0.354,-1.526,1.465,-1.068,73.333,61.000,1.000,0.013,0.000
209190.700,194386.300,712329.600,658330.700,171716.200,165585.000,151694.100,160866.200,-0.132,0.931,-0.351,-1.465,1.190,-0.885,73.333,62.000,1.000,2.394,0.000
208312.500,193581.000,708874.200,655177.500,170946.200,164865.400,151023.000,160150.800,-0.133,0.932,-0.351,-1.587,1.068,-1.038,73.333,63.000,1.000,0.007,0.000
207473.200,192773.600,705577.000,652196.700,170267.000,164200.200,150418.900,159516.300,-0.134,0.931,-0.353,-1.556,0.824,-1.038,73.333,64.000,1.000,8.179,0.000
206671.200,192013.100,702428.800,649358.300,169661.200,163590.500,149875.000,158946.300,-0.135,0.931,-0.353,-1.587,0.427,-0.946,73.333,65.000,1.000,7.502,0.000
205908.000,191349.200,699419.900,646606.900,169057.300,163004.000,149333.900,158365.100,-0.135,0.930,-0.351,-1.648,0.305,-0.885,73.333,66.000,1.000,0.007,0.000
205134.800,190599.400,696488.500,643935.600,168394.300,162384.900,148764.800,157749.000,-0.136,0.931,-0.350,-1.709,0.031,-0.763,73.333,67.000,1.000,0.003,0.000
204410.400,189928.300,693682.400,641370.600,167760.000,161803.900,148215.600,157162.500,-0.138,0.931,-0.349,-1.831,-0.305,-0.702,73.333,68.000,1.000,3.771,0.000
203764.600,189332.600,691044.700,638987.500,167240.100,161288.900,147745.600,156677.900,-0.139,0.931,-0.348,-1.923,-0.580,-0.610,73.333,69.000,1.000,8.775,0.000
203147.000,188752.400,688528.800,636737.600,166786.100,160811.300,147330.300,156248.400,-0.137,0.931,-0.351,-1.984,-0.885,-0.519,73.333,70.000,1.000,6.818,0.000
202524.100,188183.700,686088.400,634537.100,166304.400,160336.300,146904.300,155789.100,-0.136,0.930,-0.350,-2.167,-1.068,-0.336,73.333,71.000,1.000,0.008,0.000
201905.200,187600.300,683704.300,632353.500,165760.600,159842.000,146440.500,155279.600,-0.137,0.930,-0.348,-2.380,-1.343,-0.244,73.333,72.000,1.000,2.520,0.000
201350.000,187093.400,681441.300,630284.700,165254.100,159380.800,146008.000,154813.400,-0.135,0.928,-0.345,-2.472,-1.617,-0.061,73.333,73.000,1.000,0.019,0.000
200831.200,186600.100,679295.500,628358.200,164838.400,158972.100,145629.800,154424.800,-0.136,0.927,-0.345,-2.594,-1.801,0.031,73.333,74.000,1.000,8.136,0.000
200340.800,186149.500,677254.500,626542.900,164489.500,158603.300,145300.900,154088.800,-0.131,0.924,-0.348,-2.594,-1.953,0.244,73.333,75.000,1.000,9.287,0.000
199850.200,185697.000,675267.900,624740.100,164104.400,158223.400,144958.300,153719.500,-0.129,0.922,-0.349,-2.594,-2.014,0.488,73.333,76.000,1.000,0.006,0.000
199358.700,185221.800,673327.200,622960.300,163663.800,157818.600,144585.600,153313.000,-0.127,0.922,-0.348,-2.655,-2.075,0.732,73.333,77.000,1.000,2.524,0.000
198912.100,184835.600,671482.000,621280.100,163254.400,157444.200,144229.600,152934.500,-0.125,0.919,-0.348,-2.625,-2.014,0.885,73.333,78.000,1.000,0.013,0.000
198486.100,184420.000,669720.500,619697.300,162918.500,157111.200,143926.200,152626.200,-0.121,0.921,-0.347,-2.716,-2.014,1.129,73.333,79.000,1.000,10.570,0.000
198090.700,184046.800,668054.000,618217.600,162649.500,156826.000,143678.500,152372.200,-0.122,0.924,-0.344,-2.625,-1.892,1.251,73.333,80.000,1.000,3.220,0.000
197704.000,183701.900,666439.300,616760.100,162358.700,156538.900,143413.500,152084.900,-0.120,0.925,-0.343,-2.686,-1.831,1.434,73.333,81.000,1.000,0.008,0.000
197317.100,183360.700,664856.100,615317.600,162009.300,156228.700,143117.300,151753.000,-0.118,0.925,-0.347,-2.716,-1.648,1.495,73.333,82.000,1.000,1.813,0.000
196960.400,183043.300,663334.400,613926.600,161663.300,155917.100,142821.600,151436.700,-0.116,0.928,-0.343,-2.838,-1.495,1.526,73.333,83.000,1.000,11.261,0.000
196610.300,182673.100,661875.100,612622.400,161391.500,155653.400,142582.500,151194.300,-0.112,0.930,-0.343,-2.930,-1.343,1.648,73.333,84.000,1.000,2.535,0.000
196298.000,182395.900,660502.200,611396.900,161184.300,155422.800,142385.700,150993.700,-0.112,0.933,-0.348,-3.052,-1.160,1.770,73.333,85.000,1.000,2.507,0.000
195979.000,182103.800,659157.100,610198.000,160944.500,155171.500,142169.700,150761.500,-0.110,0.933,-0.344,-3.174,-0.824,1.801,73.333,86.000,1.000,2.458,0.000
195661.400,181837.100,657834.900,608984.400,160648.200,154911.200,141921.300,150482.800,-0.109,0.938,-0.346,-3.326,-0.427,1.801,73.333,87.000,1.000,3.695,0.000
195350.400,181514.200,656548.600,607819.900,160350.200,154646.600,141672.700,150214.300,-0.108,0.943,-0.345,-3.448,-0.244,1.740,73.333,88.000,1.000,11.941,0.000
195097.100,181285.100,655362.900,606770.400,160152.500,154448.900,141490.500,150031.400,-0.106,0.942,-0.342,-3.662,0.153,1.740,73.333,89.000,1.000,0.016,0.000
194848.800,181058.900,654231.400,605784.900,160007.900,154281.400,141350.700,149893.600,-0.106,0.943,-0.344,-3.876,0.427,1.648,73.333,90.000,1.000,4.954,0.000
194592.700,180824.600,653116.600,604796.600,159827.400,154095.900,141194.500,149719.000,-0.105,0.946,-0.342,-4.089,0.702,1.587,73.333,91.000,1.000,0.005,0.000
194333.900,180585.000,652010.800,603792.900,159579.000,153872.900,140983.800,149483.500,-0.104,0.948,-0.345,-4.456,1.129,1.404,73.333,92.000,1.000,15.622,0.000
194095.200,180376.000,650951.100,602819.300,159336.500,153664.500,140775.200,149261.700,-0.103,0.949,-0.346,-4.791,1.465,1.190,73.333,93.000,1.000,2.514,0.000
193888.200,180157.700,649957.800,601939.500,159176.000,153503.200,140623.700,149109.800,-0.104,0.948,-0.345,-5.066,1.862,1.068,73.333,94.000,1.000,2.495,0.000
193702.800,179997.100,649028.400,601137.900,159084.800,153388.800,140528.200,149014.400,-0.105,0.945,-0.342,-5.341,2.167,0.854,73.333,95.000,1.000,2.514,0.000
193505.700,179824.800,648103.400,600315.600,158945.800,153235.300,140404.100,148881.600,-0.105,0.941,-0.344,-5.554,2.411,0.671,73.333,96.000,1.000,2.453,0.000
193279.600,179626.000,647163.800,599454.300,158726.400,153044.800,140223.500,148677.500,-0.107,0.939,-0.343,-5.737,2.747,0.519,73.333,97.000,1.000,2.579,0.000
193082.200,179430.000,646264.800,598629.200,158518.700,152879.100,140052.700,148494.200,-0.108,0.935,-0.341,-5.768,3.143,0.275,73.333,98.000,1.000,2.458,0.000
192927.600,179307.000,645441.000,597909.300,158398.500,152753.600,139927.000,148379.700,-0.108,0.930,-0.343,-5.768,3.387,0.122,73.333,99.000,1.000,2.499,0.000
192782.400,179204.100,644664.100,597231.500,158331.900,152660.900,139850.200,148306.400,-0.105,0.925,-0.345,-5.829,3.815,-0.153,73.333,100.000,1.000,9.305,0.000
192594.200,178954.600,643856.000,596529.400,158201.800,152522.100,139742.800,148185.900,-0.105,0.924,-0.344,-5.615,4.150,-0.336,73.333,101.000,1.000,0.011,0.000
192414.600,178788.600,643060.200,595801.800,158015.000,152370.200,139598.400,148018.000,-0.104,0.922,-0.346,-5.493,4.395,-0.366,73.333,102.000,1.000,1.949,0.000
192255.500,178643.000,642292.800,595098.800,157830.700,152216.200,139439.200,147852.000,-0.105,0.923,-0.344,-5.188,4.486,-0.397,73.333,103.000,1.000,2.462,0.000
192126.000,178515.600,641587.600,594489.100,157732.200,152115.200,139343.700,147769.900,-0.108,0.922,-0.346,-5.096,4.730,-0.519,73.333,104.000,1.000,8.789,0.000
192001.900,178402.500,640919.400,593926.400,157683.000,152040.500,139286.300,147723.600,-0.112,0.923,-0.343,-4.944,4.974,-0.702,73.333,105.000,1.000,3.182,0.000
191862.300,178272.400,640245.900,593339.700,157590.500,151939.200,139206.600,147633.800,-0.117,0.923,-0.341,-4.700,5.096,-0.854,73.333,106.000,1.000,0.008,0.000
191712.800,178154.700,639566.300,592717.700,157431.900,151810.800,139080.300,147482.600,-0.119,0.921,-0.341,-4.456,5.157,-0.916,73.333,107.000,1.000,1.785,0.000
191586.800,178040.000,638917.800,592127.300,157282.400,151689.200,138957.100,147347.500,-0.121,0.919,-0.343,-4.120,5.096,-1.038,73.333,108.000,1.000,12.467,0.000
191492.900,177938.600,638325.600,591618.700,157214.200,151612.200,138890.300,147287.500,-0.120,0.919,-0.341,-3.937,5.188,-1.312,73.333,109.000,1.000,3.107,0.000
191397.700,177845.000,637756.800,591135.800,157186.800,151560.400,138853.000,147255.100,-0.126,0.919,-0.337,-3.632,5.127,-1.190,73.333,110.000,1.000,0.006,0.000
191289.500,177754.800,637183.600,590632.600,157121.200,151491.700,138792.500,147181.400,-0.136,0.923,-0.339,-3.418,5.005,-1.373,73.333,111.000,1.000,1.891,0.000
191162.000,177621.900,636588.500,590093.300,156981.000,151380.100,138684.200,147050.700,-0.146,0.927,-0.338,-3.235,4.639,-1.465,73.333,112.000,1.000,6.260,0.000
191058.900,177527.800,636021.100,589582.800,156848.800,151275.300,138575.500,146934.700,-0.150,0.928,-0.337,-3.052,4.303,-1.617,73.333,113.000,1.000,3.775,0.000
190981.300,177458.900,635504.200,589141.900,156794.200,151212.100,138516.100,146883.700,-0.153,0.931,-0.344,-2.808,3.815,-1.831,73.333,114.000,1.000,4.344,0.000
190912.600,177373.500,635017.600,588744.900,156788.600,151171.100,138494.500,146872.300,-0.150,0.934,-0.341,-2.594,3.174,-2.075,73.333,115.000,1.000,0.007,0.000
190826.700,177311.900,634522.600,588316.400,156740.000,151112.700,138445.400,146818.200,-0.146,0.937,-0.336,-2.472,2.625,-2.106,73.333,116.000,1.000,13.134,0.000
190726.600,177213.400,634007.200,587849.800,156619.700,151023.700,138352.300,146706.600,-0.143,0.940,-0.334,-2.319,2.228,-2.136,73.333,117.000,1.000,4.914,0.000
190646.200,177143.800,633517.900,587411.600,156503.800,150934.500,138259.400,146607.000,-0.137,0.943,-0.339,-2.441,1.953,-1.984,73.333,118.000,1.000,0.008,0.000
190583.400,177051.100,633070.400,587037.200,156462.000,150880.400,138214.200,146568.400,-0.137,0.945,-0.337,-2.472,1.465,-1.648,73.333,119.000,1.000,0.005,0.000
190521.700,176989.400,632647.800,586682.000,156466.800,150857.700,138204.500,146563.300,-0.135,0.943,-0.337,-2.563,1.251,-1.221,73.333,120.000,1.000,11.907,0.000
190450.600,176940.800,632215.600,586308.000,156429.200,150813.600,138168.800,146520.300,-0.136,0.942,-0.340,-2.563,1.007,-1.068,73.333,121.000,1.000,0.011,0.000
190371.000,176878.600,631766.000,585899.700,156320.900,150728.900,138084.400,146416.500,-0.137,0.944,-0.339,-2.563,0.641,-0.763,73.333,122.000,1.000,2.478,0.000
190297.200,176803.600,631331.400,585505.300,156217.000,150648.600,137996.500,146318.600,-0.140,0.943,-0.339,-2.655,0.275,-0.488,73.333,123.000,1.000,0.007,0.000
190253.700,176764.900,630940.900,585173.500,156184.700,150610.200,137961.200,146286.300,-0.140,0.944,-0.340,-2.716,0.000,-0.427,73.333,124.000,1.000,13.248,0.000
190208.300,176699.100,630569.400,584884.200,156197.900,150592.200,137960.900,146296.900,-0.138,0.943,-0.337,-2.777,-0.305,-0.366,73.333,125.000,1.000,2.423,0.000
190154.600,176651.600,630191.200,584571.300,156173.500,150560.100,137940.600,146269.500,-0.138,0.938,-0.337,-2.747,-0.580,-0.214,73.333,126.000,1.000,2.519,0.000
190073.200,176597.700,629782.300,584187.400,156070.300,150487.000,137860.200,146169.600,-0.135,0.937,-0.336,-2.838,-0.885,-0.183,73.333,127.000,1.000,2.473,0.000
190008.100,176526.600,629388.400,583833.800,155975.400,150416.000,137788.900,146087.500,-0.131,0.935,-0.334,-2.869,-1.099,-0.092,73.333,128.000,1.000,2.439,0.000
189965.600,176464.200,629038.300,583552.300,155954.900,150382.600,137765.300,146074.700,-0.130,0.934,-0.335,-2.869,-1.282,0.000,73.333,129.000,1.000,8.146,0.000
189934.800,176441.000,628720.000,583306.100,155985.100,150382.500,137778.500,146097.500,-0.128,0.932,-0.338,-3.052,-1.282,0.092,73.333,130.000,1.000,0.007,0.000
189886.700,176436.200,628389.600,583025.400,155972.200,150359.600,137763.500,146077.200,-0.125,0.931,-0.341,-3.113,-1.434,0.153,73.333,131.000,1.000,1.884,0.000
189815.500,176387.700,628027.600,582685.400,155885.700,150301.500,137703.100,145997.800,-0.124,0.933,-0.341,-3.052,-1.617,0.031,73.333,132.000,1.000,2.570,0.000
189748.100,176283.800,627659.900,582355.800,155783.200,150228.700,137625.200,145910.500,-0.120,0.933,-0.343,-3.113,-1.678,0.122,73.333,133.000,1.000,8.637,0.000
189714.400,176249.400,627344.900,582101.700,155762.300,150201.600,137602.800,145900.000,-0.119,0.931,-0.342,-3.296,-1.587,0.031,73.333,134.000,1.000,8.764,0.000
189692.600,176243.400,627060.900,581887.000,155791.300,150212.500,137616.700,145923.600,-0.115,0.931,-0.339,-3.296,-1.556,-0.061,73.333,135.000,1.000,27.601,0.000
189641.200,176202.000,626751.700,581621.800,155770.700,150188.900,137599.300,145903.300,-0.114,0.929,-0.340,-3.357,-1.465,-0.153,73.333,136.000,1.000,2.432,0.000
189581.800,176139.100,626424.800,581326.800,155687.900,150131.600,137540.900,145829.800,-0.114,0.928,-0.339,-3.357,-1.221,-0.275,73.333,137.000,1.000,2.497,0.000
189536.400,176102.100,626109.700,581034.800,155604.100,150072.400,137476.300,145757.900,-0.115,0.927,-0.344,-3.479,-1.160,-0.427,73.333,138.000,1.000,3.155,0.000
189523.400,176082.000,625839.600,580821.400,155604.000,150066.800,137469.500,145760.000,-0.116,0.926,-0.344,-3.448,-1.221,-0.458,73.333,139.000,1.000,0.008,0.000
189503.800,176061.200,625586.600,580636.600,155647.700,150075.400,137493.300,145794.500,-0.115,0.925,-0.345,-3.479,-1.068,-0.641,73.333,140.000,1.000,1.848,0.000
189467.100,176040.600,625312.300,580397.700,155642.600,150061.200,137481.700,145782.500,-0.113,0.927,-0.344,-3.510,-0.824,-0.763,73.333,141.000,1.000,2.478,0.000
189419.200,176000.400,625011.800,580120.100,155566.200,150007.900,137422.600,145710.000,-0.111,0.927,-0.346,-3.448,-0.671,-0.824,73.333,142.000,1.000,2.530,0.000
189381.500,175972.100,624718.500,579859.800,155493.000,149958.600,137368.500,145646.100,-0.112,0.928,-0.346,-3.540,-0.549,-0.977,73.333,143.000,1.000,2.401,0.000
189386.200,175992.600,624482.100,579667.100,155504.600,149960.500,137367.700,145657.700,-0.110,0.927,-0.345,-3.479,-0.305,-1.068,73.333,144.000,1.000,2.586,0.000
189355.800,175929.300,624236.100,579495.600,155537.500,149971.200,137391.400,145688.100,-0.110,0.929,-0.346,-3.448,-0.061,-1.129,73.333,145.000,1.000,3.187,0.000
189308.400,175884.200,623971.400,579274.300,155520.900,149956.700,137383.300,145671.300,-0.111,0.929,-0.347,-3.418,0.305,-1.160,73.333,146.000,1.000,0.009,0.000
189270.900,175854.200,623699.200,579025.600,155447.200,149909.800,137327.200,145605.900,-0.114,0.927,-0.346,-3.448,0.488,-1.129,73.333,147.000,1.000,1.789,0.000
189246.200,175836.600,623439.300,578794.500,155378.700,149868.300,137272.900,145551.700,-0.113,0.928,-0.347,-3.357,0.671,-1.038,73.333,148.000,1.000,2.488,0.000
189249.900,175830.400,623219.600,578623.900,155387.900,149864.300,137273.100,145554.800,-0.114,0.927,-0.348,-3.326,0.977,-0.916,73.333,149.000,1.000,2.508,0.000
189243.400,175812.900,623011.900,578477.400,155438.200,149880.300,137302.300,145595.500,-0.116,0.928,-0.347,-3.235,1.129,-0.824,73.333,150.000,1.000,3.089,0.000
189206.100,175801.000,622772.500,578271.300,155432.500,149867.500,137295.400,145584.300,-0.117,0.927,-0.347,-3.113,1.373,-0.702,73.333,151.000,1.000,0.006,0.000
189166.800,175754.300,622514.100,578031.600,155362.400,149817.600,137249.100,145521.500,-0.116,0.929,-0.344,-3.052,1.556,-0.641,73.333,152.000,1.000,8.117,0.000
189144.000,175743.200,622276.600,577818.800,155302.700,149776.600,137202.100,145468.800,-0.120,0.928,-0.348,-2.960,1.770,-0.488,73.333,153.000,1.000,6.936,0.000
189136.300,175706.300,622063.900,577658.900,155308.800,149773.100,137202.200,145480.900,-0.124,0.930,-0.350,-2.808,1.831,-0.427,73.333,154.000,1.000,0.009,0.000
189130.500,175710.600,621873.100,577523.000,155361.700,149803.700,137236.300,145524.500,-0.127,0.929,-0.354,-2.747,1.923,-0.519,73.333,155.000,1.000,1.862,0.000
189098.800,175688.100,621648.900,577332.600,155351.000,149789.800,137226.600,145506.000,-0.127,0.931,-0.350,-2.747,1.892,-0.519,73.333,156.000,1.000,3.727,0.000
189051.800,175638.500,621399.300,577104.000,155274.700,149740.000,137179.000,145443.200,-0.124,0.931,-0.349,-2.655,1.953,-0.336,73.333,157.000,1.000,14.335,0.000
189041.100,175628.400,621180.100,576915.200,155219.500,149711.400,137137.900,145396.900,-0.122,0.933,-0.351,-2.472,2.075,-0.336,73.333,158.000,1.000,0.011,0.000
189042.200,175633.000,620986.200,576760.900,155225.500,149714.400,137132.200,145402.500,-0.121,0.934,-0.352,-2.380,2.228,-0.214,73.333,159.000,1.000,5.714,0.000
189051.300,175660.900,620818.400,576645.000,155283.200,149746.800,137166.900,145450.900,-0.120,0.937,-0.350,-2.289,2.350,0.000,73.333,160.000,1.000,4.993,0.000
189020.600,175612.200,620612.400,576484.100,155282.200,149734.300,137166.300,145446.600,-0.119,0.936,-0.348,-2.411,2.411,0.061,73.333,161.000,1.000,2.470,0.000
188987.700,175589.800,620389.500,576267.400,155219.900,149701.600,137126.300,145391.200,-0.119,0.935,-0.349,-2.411,2.716,0.275,73.333,162.000,1.000,2.517,0.000
188955.800,175574.700,620172.100,576072.300,155153.700,149659.200,137072.100,145338.700,-0.116,0.936,-0.347,-2.411,2.686,0.305,73.333,163.000,1.000,2.453,0.000
188958.400,175552.000,619996.400,575945.800,155167.900,149660.700,137072.300,145354.000,-0.117,0.938,-0.349,-2.289,2.808,0.488,73.333,164.000,1.000,3.070,0.000
188956.700,175544.100,619828.900,575836.700,155218.500,149673.400,137103.200,145400.600,-0.116,0.937,-0.349,-2.228,2.991,0.549,73.333,165.000,1.000,0.013,0.000
188926.000,175527.500,619636.400,575676.300,155220.200,149669.900,137107.700,145400.700,-0.117,0.936,-0.349,-2.228,3.082,0.488,73.333,166.000,1.000,1.939,0.000
188894.300,175510.400,619426.900,575482.000,155160.800,149639.300,137068.600,145342.900,-0.122,0.936,-0.345,-2.319,3.174,0.397,73.333,167.000,1.000,15.567,0.000
188876.800,175495.700,619221.100,575289.100,155097.500,149603.900,137022.400,145288.500,-0.124,0.936,-0.345,-2.350,3.265,0.488,73.333,168.000,1.000,0.010,0.000
188884.700,175492.600,619053.300,575160.400,155108.100,149601.200,137025.000,145302.700,-0.127,0.935,-0.345,-2.380,3.235,0.244,73.333,169.000,1.000,1.828,0.000
188897.700,175485.900,618908.600,575067.400,155169.900,149630.500,137065.300,145351.000,-0.124,0.933,-0.348,-2.502,3.082,0.214,73.333,170.000,1.000,2.629,0.000
188879.800,175485.200,618735.100,574926.100,155175.300,149628.800,137066.500,145349.600,-0.125,0.935,-0.344,-2.502,2.991,0.031,73.333,171.000,1.000,2.459,0.000
188840.900,175455.800,618528.100,574730.500,155108.700,149590.000,137021.000,145291.200,-0.123,0.933,-0.345,-2.502,2.960,-0.122,73.333,172.000,1.000,3.700,0.000
188821.800,175438.000,618334.800,574548.600,155052.500,149551.200,136974.500,145234.600,-0.122,0.933,-0.346,-2.655,2.899,-0.275,73.333,173.000,1.000,14.459,0.000
188828.200,175434.900,618180.300,574436.600,155068.000,149551.600,136980.300,145252.500,-0.121,0.935,-0.345,-2.747,2.838,-0.183,73.333,174.000,1.000,0.015,0.000
188830.500,175448.600,618041.500,574352.500,155125.700,149582.400,137020.500,145303.300,-0.118,0.937,-0.342,-2.808,2.747,-0.214,73.333,175.000,1.000,4.300,0.000
188811.700,175440.800,617878.300,574220.200,155135.100,149585.800,137030.700,145305.400,-0.118,0.938,-0.348,-2.930,2.686,-0.214,73.333,176.000,1.000,2.478,0.000
188775.300,175388.000,617677.500,574023.300,155066.000,149539.700,136985.300,145243.100,-0.120,0.938,-0.345,-3.021,2.686,-0.092,73.333,177.000,1.000,2.549,0.000
188766.900,175370.500,617499.900,573870.100,155010.500,149501.300,136943.300,145201.900,-0.122,0.938,-0.343,-3.204,2.563,-0.122,73.333,178.000,1.000,2.553,0.000
188778.300,175382.000,617354.400,573756.100,155024.700,149509.700,136946.700,145217.400,-0.121,0.939,-0.341,-3.418,2.502,-0.061,73.333,179.000,1.000,4.355,0.000
188791.400,175412.100,617225.500,573674.600,155081.700,149539.500,136988.400,145271.900,-0.120,0.936,-0.342,-3.540,2.472,0.061,73.333,180.000,1.000,0.008,0.000
188756.400,175358.300,617049.400,573539.200,155075.200,149527.700,136987.400,145265.200,-0.120,0.936,-0.343,-3.754,2.380,0.153,73.333,181.000,1.000,8.083,0.000
188726.600,175349.800,616864.100,573369.100,155011.400,149492.100,136944.800,145208.900,-0.122,0.935,-0.343,-3.998,2.319,0.183,73.333,182.000,1.000,11.927,0.000
188703.500,175326.200,616681.200,573203.000,154955.200,149461.100,136905.800,145162.600,-0.122,0.936,-0.348,-3.998,2.289,0.214,73.333,183.000,1.000,0.010,0.000
188710.300,175330.100,616542.900,573110.000,154975.700,149467.800,136915.700,145182.600,-0.124,0.937,-0.344,-4.150,2.228,0.275,73.333,184.000,1.000,2.354,0.000
188710.300,175329.200,616412.300,573030.700,155031.900,149493.700,136952.300,145228.200,-0.124,0.938,-0.344,-4.364,2.167,0.275,73.333,185.000,1.000,0.009,0.000
188691.600,175326.100,616258.100,572900.100,155040.600,149499.200,136962.900,145227.000,-0.126,0.939,-0.344,-4.425,2.106,0.397,73.333,186.000,1.000,1.872,0.000
188664.400,175302.600,616077.300,572732.000,154978.200,149456.500,136921.700,145171.700,-0.123,0.939,-0.344,-4.700,1.923,0.488,73.333,187.000,1.000,14.395,0.000
188649.500,175287.800,615903.800,572568.800,154920.800,149429.200,136881.600,145122.800,-0.124,0.939,-0.344,-4.852,1.740,0.488,73.333,188.000,1.000,0.011,0.000
188659.500,175300.800,615768.900,572472.600,154937.200,149439.200,136886.000,145141.000,-0.123,0.937,-0.344,-4.852,1.465,0.488,73.333,189.000,1.000,9.418,0.000
188663.400,175292.800,615645.600,572402.000,154989.800,149462.500,136919.700,145187.100,-0.122,0.937,-0.342,-4.883,1.312,0.397,73.333,190.000,1.000,0.009,0.000
188650.800,175289.900,615501.800,572281.100,154993.500,149454.200,136919.900,145179.200,-0.124,0.933,-0.341,-5.035,1.312,0.366,73.333,191.000,1.000,0.003,0.000
188630.700,175274.000,615337.000,572124.400,154938.600,149423.300,136886.500,145128.200,-0.122,0.932,-0.344,-5.005,1.190,0.275,73.333,192.000,1.000,8.009,0.000
188616.900,175261.300,615175.200,571970.200,154883.800,149395.800,136845.900,145082.500,-0.121,0.933,-0.342,-5.096,1.160,0.366,73.333,193.000,1.000,0.006,0.000
188619.900,175260.200,615045.200,571876.200,154897.100,149397.100,136846.900,145101.300,-0.120,0.932,-0.341,-5.066,1.007,0.275,73.333,194.000,1.000,1.965,0.000
188626.600,175261.800,614930.300,571806.100,154952.200,149419.300,136881.700,145150.900,-0.120,0.932,-0.342,-5.035,1.068,0.305,73.333,195.000,1.000,2.445,0.000
188618.800,175266.600,614802.900,571710.100,154970.100,149432.100,136899.400,145157.200,-0.120,0.931,-0.338,-5.066,0.946,0.305,73.333,196.000,1.000,6.308,0.000
188599.600,175270.500,614645.800,571563.400,154920.400,149408.400,136865.300,145110.400,-0.121,0.930,-0.340,-5.005,0.885,0.427,73.333,197.000,1.000,11.775,0.000
188591.900,175256.700,614492.300,571427.600,154872.000,149378.600,136827.400,145070.600,-0.119,0.929,-0.338,-4.852,0.824,0.427,73.333,198.000,1.000,0.012,0.000
188598.900,175235.800,614364.200,571326.200,154886.400,149373.700,136830.400,145086.800,-0.117,0.927,-0.340,-4.913,0.824,0.275,73.333,199.000,1.000,2.526,0.000
188611.300,175259.700,614259.100,571265.100,154949.500,149409.400,136875.200,145146.300,-0.115,0.927,-0.339,-4.761,0.824,0.244,73.333,200.000,1.000,0.013,0.000
188598.600,175268.800,614131.800,571173.300,154964.100,149420.000,136883.800,145149.500,-0.117,0.927,-0.339,-4.761,0.885,0.305,73.333,201.000,1.000,1.857,0.000
188569.200,175209.600,613961.700,571017.300,154901.600,149379.300,136843.500,145092.600,-0.115,0.928,-0.335,-4.578,0.977,0.244,73.333,202.000,1.000,13.750,0.000
188561.500,175203.100,613808.400,570861.600,154850.500,149346.700,136809.300,145053.700,-0.115,0.930,-0.337,-4.425,1.038,0.305,73.333,203.000,1.000,7.486,0.000
188580.000,175202.500,613698.600,570794.200,154876.400,149361.200,136821.200,145083.300,-0.116,0.932,-0.339,-4.303,0.977,0.275,73.333,204.000,1.000,0.013,0.000
188589.200,175218.900,613595.000,570739.700,154935.900,149394.400,136862.500,145137.400,-0.117,0.933,-0.339,-4.303,1.038,0.458,73.333,205.000,1.000,0.006,0.000
188577.600,175222.000,613468.900,570642.000,154947.100,149398.300,136872.800,145141.200,-0.119,0.934,-0.337,-4.303,1.129,0.366,73.333,206.000,1.000,5.714,0.000
188549.800,175204.900,613312.500,570487.600,154888.000,149357.600,136828.200,145080.300,-0.119,0.934,-0.341,-4.333,1.038,0.366,73.333,207.000,1.000,0.010,0.000
188542.000,175197.500,613173.000,570360.600,154844.500,149333.900,136800.600,145044.500,-0.121,0.937,-0.339,-4.181,1.007,0.397,73.333,208.000,1.000,1.782,0.000
188548.500,175201.300,613060.400,570283.300,154867.000,149348.000,136817.500,145072.100,-0.124,0.940,-0.338,-4.181,1.068,0.366,73.333,209.000,1.000,8.751,0.000
188561.700,175207.000,612960.800,570227.300,154930.600,149386.800,136863.700,145133.300,-0.123,0.940,-0.337,-4.181,0.916,0.397,73.333,210.000,1.000,9.369,0.000
188554.300,175216.600,612837.300,570127.300,154942.600,149394.600,136867.000,145135.200,-0.123,0.935,-0.336,-4.242,0.977,0.427,73.333,211.000,1.000,0.015,0.000
188527.400,175195.200,612680.800,569979.700,154876.400,149353.100,136813.500,145073.400,-0.120,0.930,-0.338,-4.272,0.793,0.488,73.333,212.000,1.000,2.435,0.000
188521.100,175176.500,612536.700,569847.400,154818.200,149319.900,136770.400,145026.100,-0.120,0.927,-0.338,-4.242,0.824,0.488,73.333,213.000,1.000,0.009,0.000
188536.300,175181.500,612427.800,569776.100,154833.600,149328.100,136777.100,145044.900,-0.120,0.928,-0.339,-4.059,0.732,0.458,73.333,214.000,1.000,5.700,0.000
188546.100,175194.200,612332.400,569719.600,154888.900,149356.300,136812.700,145091.500,-0.120,0.926,-0.340,-3.937,0.763,0.488,73.333,215.000,1.000,2.559,0.000
188533.500,175187.700,612211.600,569621.400,154896.200,149361.000,136821.300,145092.300,-0.118,0.926,-0.342,-3.845,0.702,0.427,73.333,216.000,1.000,11.208,0.000
188508.200,175175.400,612066.200,569475.900,154839.400,149328.900,136786.300,145041.400,-0.117,0.927,-0.342,-3.784,0.732,0.488,73.333,217.000,1.000,5.614,0.000
188502.500,175169.500,611934.400,569353.600,154795.000,149301.000,136759.100,145004.500,-0.118,0.928,-0.341,-3.693,0.702,0.336,73.333,218.000,1.000,0.011,0.000
188508.600,175163.600,611827.200,569277.600,154811.500,149304.200,136767.900,145023.400,-0.119,0.928,-0.338,-3.632,0.641,0.214,73.333,219.000,1.000,1.819,0.000
188513.200,175161.300,611728.300,569226.700,154867.200,149331.400,136805.900,145073.400,-0.120,0.927,-0.339,-3.571,0.610,0.153,73.333,220.000,1.000,2.497,0.000
188505.600,175165.100,611610.600,569144.400,154879.600,149337.100,136819.600,145083.800,-0.121,0.929,-0.340,-3.540,0.641,-0.031,73.333,221.000,1.000,8.861,0.000
188486.800,175154.500,611465.400,569003.400,154820.700,149306.100,136780.300,145026.300,-0.120,0.930,-0.338,-3.662,0.549,-0.214,73.333,222.000,1.000,3.021,0.000
188476.700,175136.300,611327.500,568879.600,154766.300,149278.300,136741.800,144981.300,-0.118,0.930,-0.339,-3.632,0.519,-0.397,73.333,223.000,1.000,0.009,0.000
188494.400,175150.700,611233.500,568815.100,154794.100,149297.800,136759.300,145010.000,-0.119,0.930,-0.338,-3.540,0.519,-0.519,73.333,224.000,1.000,1.886,0.000
188505.000,175163.300,611148.100,568768.700,154856.400,149325.800,136798.100,145062.700,-0.120,0.932,-0.339,-3.571,0.336,-0.793,73.333,225.000,1.000,12.543,0.000
188501.600,175170.000,611044.600,568689.300,154874.700,149336.600,136817.600,145075.800,-0.120,0.934,-0.339,-3.754,0.336,-0.946,73.333,226.000,1.000,3.074,0.000
188484.200,175164.500,610915.800,568560.100,154824.500,149314.800,136790.000,145028.600,-0.119,0.935,-0.340,-3.845,0.244,-0.977,73.333,227.000,1.000,0.017,0.000
188464.600,175142.200,610779.700,568432.400,154765.300,149274.700,136744.100,144984.500,-0.120,0.937,-0.338,-3.998,0.092,-1.038,73.333,228.000,1.000,1.904,0.000
188462.600,175129.100,610672.400,568359.600,154777.400,149276.100,136748.300,145002.100,-0.122,0.937,-0.340,-4.028,0.000,-1.068,73.333,229.000,1.000,3.684,0.000
188465.300,175133.100,610580.600,568316.000,154829.500,149295.900,136779.000,145045.900,-0.123,0.937,-0.341,-4.120,0.000,-1.129,73.333,230.000,1.000,9.357,0.000
188452.300,175128.500,610465.400,568223.200,154833.000,149292.600,136781.400,145042.500,-0.124,0.936,-0.342,-4.181,0.031,-1.190,73.333,231.000,1.000,0.012,0.000
188431.300,175116.500,610329.600,568089.100,154779.200,149268.000,136747.500,144993.400,-0.124,0.935,-0.338,-4.242,-0.214,-1.160,73.333,232.000,1.000,5.572,0.000
188433.200,175117.700,610214.400,567987.600,154743.300,149252.100,136724.600,144967.500,-0.124,0.935,-0.340,-4.242,-0.244,-1.221,73.333,233.000,1.000,4.387,0.000
188441.200,175120.200,610119.600,567926.500,154764.000,149263.200,136733.500,144989.600,-0.125,0.937,-0.335,-4.211,-0.397,-1.190,73.333,234.000,1.000,0.005,0.000
188456.300,175129.800,610032.700,567881.700,154821.300,149292.200,136771.800,145040.700,-0.127,0.938,-0.338,-4.303,-0.458,-1.099,73.333,235.000,1.000,5.599,0.000
188456.900,175135.400,609932.100,567806.900,154839.200,149300.600,136789.000,145050.700,-0.128,0.939,-0.339,-4.333,-0.610,-1.129,73.333,236.000,1.000,3.797,0.000
188437.600,175119.000,609802.400,567682.600,154784.900,149269.600,136751.800,144999.700,-0.129,0.942,-0.336,-4.425,-0.671,-1.160,73.333,237.000,1.000,19.880,0.000
188431.900,175108.600,609678.400,567563.200,154733.300,149242.400,136717.800,144960.700,-0.130,0.944,-0.337,-4.486,-0.854,-1.007,73.333,238.000,1.000,0.012,0.000
188456.400,175123.400,609597.800,567513.900,154759.100,149261.900,136738.100,144990.800,-0.132,0.943,-0.337,-4.608,-1.007,-0.977,73.333,239.000,1.000,0.003,0.000
188469.400,175126.900,609520.100,567468.700,154813.600,149286.700,136768.600,145035.400,-0.131,0.943,-0.336,-4.761,-1.099,-0.946,73.333,240.000,1.000,2.611,0.000
188456.000,175113.900,609415.100,567381.900,154819.900,149286.700,136772.300,145037.200,-0.129,0.938,-0.333,-4.822,-1.190,-0.977,73.333,241.000,1.000,7.563,0.000
188439.800,175104.700,609288.600,567257.300,154766.300,149262.000,136740.000,144988.900,-0.128,0.931,-0.332,-4.761,-1.404,-0.793,73.333,242.000,1.000,10.007,0.000
188435.400,175098.600,609171.700,567142.300,154719.800,149242.000,136708.100,144950.300,-0.128,0.925,-0.332,-4.608,-1.495,-0.671,73.333,243.000,1.000,7.463,0.000
188457.700,175108.700,609093.100,567095.400,154749.500,149258.600,136724.400,144979.300,-0.127,0.919,-0.332,-4.486,-1.495,-0.580,73.333,244.000,1.000,8.752,0.000
188469.800,175111.500,609010.300,567059.400,154803.600,149283.800,136760.500,145027.400,-0.125,0.915,-0.333,-4.089,-1.373,-0.458,73.333,245.000,1.000,4.915,0.000
188457.100,175107.100,608899.900,566971.700,154808.900,149287.300,136768.200,145031.800,-0.120,0.915,-0.334,-3.723,-1.373,-0.366,73.333,246.000,1.000,8.771,0.000
188435.600,175094.100,608765.000,566845.200,154750.800,149255.900,136731.700,144980.800,-0.116,0.920,-0.333,-3.326,-1.282,-0.122,73.333,247.000,1.000,2.536,0.000
188427.300,175085.500,608646.400,566730.200,154704.400,149229.500,136696.900,144941.100,-0.113,0.927,-0.334,-2.960,-1.160,0.153,73.333,248.000,1.000,2.426,0.000
188443.700,175095.100,608567.700,566680.300,154733.400,149245.200,136711.300,144968.200,-0.113,0.932,-0.334,-2.716,-0.946,0.397,73.333,249.000,1.000,2.606,0.000
188459.500,175110.400,608502.900,566651.000,154799.100,149281.100,136757.200,145028.400,-0.109,0.929,-0.332,-2.686,-0.702,0.702,73.333,250.000,1.000,2.416,0.000
188453.700,175112.500,608414.700,566582.000,154816.000,149289.300,136772.600,145039.700,-0.110,0.925,-0.334,-2.594,-0.427,0.946,73.333,251.000,1.000,2.514,0.000
188428.900,175095.600,608292.600,566453.900,154754.200,149250.700,136728.000,144979.700,-0.113,0.927,-0.334,-2.472,-0.244,1.007,73.333,252.000,1.000,2.478,0.000
188425.500,175091.100,608183.800,566348.400,154710.100,149224.900,136697.700,144943.700,-0.118,0.931,-0.337,-2.258,-0.031,1.068,73.333,253.000,1.000,2.511,0.000
188446.000,175101.900,608107.900,566306.900,154742.200,149244.900,136714.300,144971.500,-0.122,0.935,-0.336,-2.197,0.122,1.129,73.333,254.000,1.000,2.479,0.000
188459.400,175111.400,608036.900,566275.100,154803.800,149279.300,136753.000,145020.000,-0.124,0.939,-0.328,-2.136,0.244,0.854,73.333,255.000,1.000,4.985,0.000
188451.500,175111.900,607937.300,566200.000,154814.000,149284.800,136760.000,145021.900,-0.127,0.941,-0.333,-2.167,0.214,0.702,73.333,256.000,1.000,27.643,0.000
188435.500,175099.900,607812.700,566084.400,154760.700,149255.400,136726.200,144973.300,-0.130,0.945,-0.332,-2.258,0.153,0.458,73.333,257.000,1.000,3.015,0.000
188432.500,175092.100,607693.900,565976.400,154714.400,149226.400,136690.700,144933.100,-0.129,0.946,-0.335,-2.289,0.000,0.214,73.333,258.000,1.000,0.005,0.000
188447.800,175100.200,607609.900,565932.200,154742.200,149239.800,136705.300,144959.500,-0.127,0.951,-0.332,-2.380,-0.031,-0.031,73.333,259.000,1.000,4.368,0.000
188460.100,175109.700,607538.100,565897.900,154809.400,149277.900,136753.600,145017.600,-0.121,0.954,-0.331,-2.502,-0.031,-0.244,73.333,260.000,1.000,2.532,0.000
188455.700,175119.600,607452.500,565831.600,154832.300,149300.800,136782.900,145040.800,-0.114,0.956,-0.330,-2.625,0.031,-0.366,73.333,261.000,1.000,2.457,0.000
188433.100,175101.300,607333.100,565711.300,154775.200,149266.700,136747.200,144989.200,-0.106,0.954,-0.331,-2.869,0.305,-0.336,73.333,262.000,1.000,2.503,0.000
188426.500,175090.200,607223.800,565602.000,154723.700,149236.500,136709.700,144940.900,-0.105,0.953,-0.331,-3.143,0.610,-0.183,73.333,263.000,1.000,2.490,0.000
188443.500,175095.400,607152.200,565566.100,154753.500,149253.200,136725.400,144967.500,-0.104,0.950,-0.333,-3.326,0.916,-0.061,73.333,264.000,1.000,2.582,0.000
188450.500,175097.400,607081.800,565532.500,154812.700,149276.500,136769.300,145024.900,-0.107,0.947,-0.334,-3.510,1.221,0.092,73.333,265.000,1.000,2.400,0.000
188436.300,175089.600,606984.000,565447.100,154820.500,149276.700,136777.800,145028.700,-0.111,0.945,-0.335,-3.571,1.495,0.000,73.333,266.000,1.000,2.582,0.000
188423.300,175085.100,606872.700,565338.100,154773.100,149250.700,136740.200,144979.700,-0.117,0.944,-0.332,-3.693,1.709,0.000,73.333,267.000,1.000,2.471,0.000
188422.800,175078.900,606764.500,565242.400,154728.600,149226.300,136707.600,144944.500,-0.120,0.942,-0.332,-3.815,1.923,-0.092,73.333,268.000,1.000,2.470,0.000
188440.000,175076.200,606687.100,565198.100,154750.300,149239.500,136720.800,144967.700,-0.118,0.936,-0.326,-3.876,1.984,-0.244,73.333,269.000,1.000,2.519,0.000
188459.700,175093.400,606626.100,565177.400,154811.200,149269.000,136759.200,145019.100,-0.116,0.930,-0.327,-3.937,2.197,-0.275,73.333,270.000,1.000,9.949,0.000
188453.300,175099.400,606537.800,565103.200,154826.200,149279.300,136773.000,145025.200,-0.116,0.928,-0.325,-3.876,2.319,-0.366,73.333,271.000,1.000,3.151,0.000
188438.600,175093.400,606428.300,564994.100,154777.600,149257.000,136744.300,144983.900,-0.117,0.926,-0.323,-3.906,2.441,-0.336,73.333,272.000,1.000,0.007,0.000
188428.300,175079.300,606321.900,564900.600,154728.100,149226.000,136708.500,144943.700,-0.115,0.922,-0.326,-3.845,2.594,-0.336,73.333,273.000,1.000,1.893,0.000
188437.400,175083.600,606248.300,564853.200,154750.200,149236.000,136717.900,144963.600,-0.116,0.920,-0.328,-3.601,2.716,-0.214,73.333,274.000,1.000,4.931,0.000
188457.500,175102.800,606194.900,564835.900,154815.900,149272.500,136761.000,145019.700,-0.115,0.920,-0.327,-3.448,2.686,-0.305,73.333,275.000,1.000,3.134,0.000
188451.600,175102.600,606110.900,564774.100,154833.800,149283.400,136776.900,145031.600,-0.117,0.920,-0.326,-3.113,2.594,-0.275,73.333,276.000,1.000,0.005,0.000
188422.900,175086.900,605987.500,564639.400,154776.300,149250.000,136733.800,144970.200,-0.118,0.922,-0.326,-2.899,2.777,-0.275,73.333,277.000,1.000,1.950,0.000
188417.700,175078.500,605884.600,564552.300,154731.400,149226.500,136704.100,144938.600,-0.119,0.921,-0.327,-2.869,2.930,-0.092,73.333,278.000,1.000,2.470,0.000
188429.800,175080.900,605806.900,564506.800,154751.800,149237.600,136713.600,144960.400,-0.119,0.922,-0.326,-2.747,2.838,-0.031,73.333,279.000,1.000,2.464,0.000
188436.700,175083.800,605734.200,564469.600,154803.000,149267.300,136750.500,145006.600,-0.119,0.920,-0.326,-2.411,2.930,-0.153,73.333,280.000,1.000,3.176,0.000
188434.400,175086.500,605645.900,564410.400,154814.400,149279.100,136764.500,145017.100,-0.122,0.920,-0.328,-2.167,2.930,-0.153,73.333,281.000,1.000,0.008,0.000
188417.000,175074.200,605522.900,564287.300,154754.800,149249.600,136730.900,144971.100,-0.124,0.922,-0.326,-1.923,2.899,-0.122,73.333,282.000,1.000,1.868,0.000
188409.400,175062.000,605411.000,564194.200,154703.600,149218.100,136688.200,144929.300,-0.127,0.923,-0.326,-1.740,2.747,-0.183,73.333,283.000,1.000,2.501,0.000
188421.300,175063.700,605338.400,564152.300,154729.800,149229.500,136699.300,144954.500,-0.128,0.926,-0.325,-1.556,2.655,-0.275,73.333,284.000,1.000,5.593,0.000
188438.600,175079.700,605287.800,564139.000,154796.000,149265.900,136743.900,145012.700,-0.129,0.926,-0.327,-1.495,2.441,-0.305,73.333,285.000,1.000,0.008,0.000
188428.400,175083.500,605206.500,564067.600,154806.700,149270.300,136754.000,145018.700,-0.126,0.929,-0.330,-1.373,2.258,-0.366,73.333,286.000,1.000,8.654,0.000
188407.100,175064.100,605097.600,563956.700,154750.700,149240.700,136720.300,144968.100,-0.125,0.933,-0.329,-1.190,2.136,-0.244,73.333,287.000,1.000,0.013,0.000
188403.100,175061.600,604999.900,563860.600,154708.800,149221.000,136690.400,144930.900,-0.123,0.935,-0.337,-1.068,1.923,-0.397,73.333,288.000,1.000,1.928,0.000
188423.000,175067.500,604933.000,563824.800,154737.700,149240.500,136705.200,144959.700,-0.123,0.936,-0.332,-1.099,1.801,-0.366,73.333,289.000,1.000,12.504,0.000
188433.800,175078.800,604873.000,563804.800,154800.200,149279.800,136748.700,145016.000,-0.121,0.937,-0.333,-1.190,1.678,-0.214,73.333,290.000,1.000,2.490,0.000
188424.500,175079.200,604787.600,563742.100,154811.400,149288.200,136760.200,145020.800,-0.123,0.941,-0.332,-1.251,1.495,-0.122,73.333,291.000,1.000,2.483,0.000
188401.200,175066.100,604672.400,563620.600,154750.800,149253.300,136721.600,144966.400,-0.125,0.942,-0.331,-1.373,1.312,-0.092,73.333,292.000,1.000,2.526,0.000
188399.900,175061.600,604575.900,563534.400,154709.100,149231.700,136692.900,144934.300,-0.124,0.945,-0.334,-1.526,1.251,-0.122,73.333,293.000,1.000,2.498,0.000
188414.700,175067.300,604510.200,563495.400,154735.400,149244.400,136707.800,144960.800,-0.123,0.946,-0.336,-1.556,1.007,-0.153,73.333,294.000,1.000,34.350,0.000
188425.800,175074.900,604450.200,563464.200,154793.100,149271.300,136744.900,145007.400,-0.122,0.947,-0.336,-1.709,0.885,-0.122,73.333,295.000,1.000,0.012,0.000
188418.900,175074.800,604366.500,563401.800,154803.300,149273.500,136749.900,145009.500,-0.122,0.946,-0.340,-1.862,0.854,-0.092,73.333,296.000,1.000,1.888,0.000
188408.200,175072.000,604265.900,563298.300,154756.400,149254.300,136718.200,144960.700,-0.122,0.948,-0.336,-2.075,0.671,-0.061,73.333,297.000,1.000,2.427,0.000
188406.000,175069.200,604170.600,563205.700,154715.400,149231.500,136691.200,144928.300,-0.120,0.947,-0.336,-2.136,0.610,-0.061,73.333,298.000,1.000,2.579,0.000
188426.900,175080.900,604112.300,563179.100,154746.700,149248.000,136711.500,144964.300,-0.120,0.944,-0.338,-2.380,0.458,-0.092,73.333,299.000,1.000,2.489,0.000
188441.800,175087.800,604058.900,563157.900,154804.300,149279.800,136749.800,145016.100,-0.116,0.943,-0.342,-2.289,0.458,-0.183,73.333,300.000,1.000,2.544,0.000
188434.500,175086.900,603981.600,563093.100,154816.100,149294.500,136768.500,145023.800,-0.115,0.943,-0.346,-2.502,0.519,-0.122,73.333,301.000,1.000,2.374,0.000
188419.700,175079.500,603879.600,562994.900,154765.300,149269.300,136732.200,144972.400,-0.115,0.943,-0.341,-2.686,0.458,-0.183,73.333,302.000,1.000,2.585,0.000
188412.300,175064.200,603778.100,562900.400,154713.600,149231.900,136686.600,144925.500,-0.118,0.939,-0.340,-2.869,0.458,-0.305,73.333,303.000,1.000,2.438,0.000
188420.800,175066.800,603710.600,562851.400,154736.500,149243.300,136696.600,144951.400,-0.116,0.937,-0.338,-2.808,0.366,-0.366,73.333,304.000,1.000,2.576,0.000
188433.100,175076.700,603659.800,562842.100,154798.300,149274.200,136737.700,145010.000,-0.113,0.931,-0.338,-2.747,0.397,-0.427,73.333,305.000,1.000,2.393,0.000
188424.200,175074.800,603581.400,562777.900,154804.600,149275.800,136747.200,145013.000,-0.112,0.927,-0.340,-2.655,0.519,-0.458,73.333,306.000,1.000,2.624,0.000
188409.200,175062.000,603476.300,562666.100,154749.400,149245.200,136712.600,144964.100,-0.110,0.923,-0.340,-2.502,0.641,-0.702,73.333,307.000,1.000,3.071,0.000
188429.100,175074.800,603402.800,562600.900,154724.400,149241.400,136701.200,144951.800,-0.109,0.925,-0.338,-2.289,0.824,-0.732,73.333,308.000,1.000,0.012,0.000
188444.300,175076.800,603343.400,562575.900,154754.500,149255.600,136721.100,144987.800,-0.111,0.924,-0.336,-2.136,0.946,-0.916,73.333,309.000,1.000,1.883,0.000
188436.700,175067.600,603274.400,562545.300,154799.600,149268.200,136742.900,145023.100,-0.111,0.925,-0.332,-1.984,1.068,-1.068,73.333,310.000,1.000,3.044,0.000
188427.300,175073.500,603198.100,562464.100,154806.600,149272.600,136752.900,145022.900,-0.114,0.928,-0.334,-1.923,1.221,-1.282,73.333,311.000,1.000,0.009,0.000
188408.900,175057.200,603098.600,562368.700,154755.300,149245.600,136720.400,144978.400,-0.117,0.931,-0.332,-1.831,1.343,-1.434,73.333,312.000,1.000,8.161,0.000
188401.300,175041.300,603003.900,562281.500,154708.300,149215.600,136685.600,144944.900,-0.120,0.935,-0.337,-1.740,1.373,-1.617,73.333,313.000,1.000,4.349,0.000
188410.400,175040.200,602934.500,562227.600,154725.600,149222.800,136691.500,144962.800,-0.119,0.938,-0.335,-1.678,1.251,-1.709,73.333,314.000,1.000,0.008,0.000
188432.100,175060.900,602892.800,562227.300,154796.400,149270.000,136743.800,145025.600,-0.118,0.941,-0.332,-1.587,1.251,-1.678,73.333,315.000,1.000,3.686,0.000
188430.400,175065.400,602822.400,562173.600,154813.100,149279.900,136755.900,145033.700,-0.118,0.943,-0.331,-1.587,1.312,-1.709,73.333,316.000,1.000,0.006,0.000
188409.100,175047.600,602715.600,562061.600,154754.600,149240.900,136713.000,144975.100,-0.119,0.942,-0.333,-1.617,1.251,-1.678,73.333,317.000,1.000,15.010,0.000
188411.300,175048.300,602628.600,561981.800,154714.800,149221.300,136685.000,144942.100,-0.120,0.941,-0.334,-1.556,1.312,-1.556,73.333,318.000,1.000,0.016,0.000
188439.700,175071.200,602583.700,561960.600,154754.900,149248.200,136715.400,144981.600,-0.122,0.939,-0.334,-1.648,1.221,-1.495,73.333,319.000,1.000,2.580,0.000
188450.600,175083.800,602536.300,561946.800,154818.000,149285.000,136761.900,145033.800,-0.123,0.941,-0.335,-1.587,1.282,-1.404,73.333,320.000,1.000,0.005,0.000
188430.400,175076.800,602449.100,561871.800,154817.000,149279.000,136760.500,145024.700,-0.123,0.943,-0.332,-1.770,1.190,-1.190,73.333,321.000,1.000,10.590,0.000
188402.800,175059.300,602338.100,561760.900,154752.000,149239.800,136714.100,144961.300,-0.124,0.943,-0.333,-1.801,1.129,-0.977,73.333,322.000,1.000,9.909,0.000
188408.000,175050.200,602249.800,561682.900,154711.800,149220.000,136687.700,144927.900,-0.125,0.943,-0.335,-2.014,1.160,-0.916,73.333,323.000,1.000,0.011,0.000
188430.000,175062.100,602196.600,561658.900,154745.400,149246.100,136715.400,144964.500,-0.124,0.941,-0.334,-2.106,1.251,-0.824,73.333,324.000,1.000,0.003,0.000
188440.900,175072.100,602146.300,561646.200,154802.200,149270.600,136745.900,145013.100,-0.126,0.937,-0.335,-2.167,1.129,-0.610,73.333,325.000,1.000,3.191,0.000
188421.600,175065.900,602060.600,561566.500,154802.600,149270.700,136748.700,145006.500,-0.127,0.934,-0.336,-2.106,1.251,-0.458,73.333,326.000,1.000,0.010,0.000
188400.100,175042.700,601959.400,561459.400,154746.100,149239.800,136705.800,144952.000,-0.125,0.933,-0.338,-2.075,1.129,-0.458,73.333,327.000,1.000,4.282,0.000
188392.500,175032.200,601870.800,561378.100,154699.500,149207.700,136667.300,144918.000,-0.124,0.932,-0.336,-2.167,1.038,-0.244,73.333,328.000,1.000,8.844,0.000
188424.900,175057.300,601832.400,561369.800,154746.200,149240.200,136700.200,144967.300,-0.124,0.931,-0.340,-2.014,1.099,-0.336,73.333,329.000,1.000,5.578,0.000
188425.000,175056.300,601773.800,561338.300,154796.600,149260.600,136728.000,145007.700,-0.121,0.931,-0.338,-1.953,0.916,-0.214,73.333,330.000,1.000,0.009,0.000
188419.700,175054.800,601704.000,561286.200,154808.300,149268.700,136740.500,145011.000,-0.122,0.929,-0.340,-1.984,0.977,-0.092,73.333,331.000,1.000,1.899,0.000
188414.500,175050.100,601617.400,561202.800,154765.200,149249.900,136723.900,144980.200,-0.122,0.930,-0.339,-1.953,1.007,-0.153,73.333,332.000,1.000,26.215,0.000
188420.000,175052.700,601534.100,561123.700,154729.600,149234.800,136704.000,144957.300,-0.121,0.929,-0.343,-1.770,1.038,-0.122,73.333,333.000,1.000,3.635,0.000
188417.300,175041.100,601453.600,561071.400,154731.000,149224.700,136687.900,144953.100,-0.118,0.927,-0.338,-1.617,1.038,-0.153,73.333,334.000,1.000,0.006,0.000
188435.000,175060.500,601409.900,561071.600,154798.700,149262.200,136737.300,145015.800,-0.118,0.927,-0.342,-1.587,1.099,-0.305,73.333,335.000,1.000,0.007,0.000
188403.900,175035.900,601312.000,560986.400,154786.900,149247.300,136730.500,144997.200,-0.118,0.927,-0.340,-1.404,1.221,-0.366,73.333,336.000,1.000,2.578,0.000
188381.500,175027.900,601212.100,560886.900,154727.700,149213.800,136689.300,144939.100,-0.117,0.929,-0.337,-1.312,1.251,-0.336,73.333,337.000,1.000,2.560,0.000
188382.300,175032.900,601136.300,560804.100,154691.300,149195.600,136665.200,144910.000,-0.118,0.929,-0.339,-1.312,1.312,-0.488,73.333,338.000,1.000,9.278,0.000
188403.800,175036.400,601094.100,560777.900,154723.400,149221.900,136687.700,144940.300,-0.118,0.933,-0.339,-1.312,1.404,-0.549,73.333,339.000,1.000,0.007,0.000
188420.500,175051.100,601057.300,560766.600,154784.000,149255.400,136727.200,144992.900,-0.117,0.934,-0.338,-1.251,1.587,-0.580,73.333,340.000,1.000,1.958,0.000
188420.000,175058.600,600995.600,560717.600,154799.000,149268.200,136742.100,145003.700,-0.117,0.934,-0.340,-1.190,1.587,-0.519,73.333,341.000,1.000,2.494,0.000
188403.700,175041.300,600903.300,560622.400,154746.500,149239.200,136711.200,144959.100,-0.117,0.935,-0.344,-1.068,1.740,-0.641,73.333,342.000,1.000,5.525,0.000
188385.500,175027.000,600804.000,560522.300,154691.100,149203.400,136668.900,144911.300,-0.117,0.936,-0.341,-1.038,1.709,-0.824,73.333,343.000,1.000,0.008,0.000
188410.000,175044.900,600758.800,560507.300,154725.900,149224.100,136694.200,144949.400,-0.119,0.938,-0.340,-1.068,1.770,-0.946,73.333,344.000,1.000,4.468,0.000
188431.400,175065.000,600723.600,560507.100,154796.200,149266.700,136745.000,145012.400,-0.119,0.936,-0.341,-1.038,1.770,-1.007,73.333,345.000,1.000,4.990,0.000
188400.600,175039.500,600631.400,560434.200,154785.600,149252.200,136736.200,144998.000,-0.120,0.936,-0.341,-1.190,1.801,-1.129,73.333,346.000,1.000,2.595,0.000
188382.000,175036.100,600536.800,560335.300,154733.100,149225.100,136706.900,144952.700,-0.121,0.938,-0.340,-1.160,1.862,-1.282,73.333,347.000,1.000,2.419,0.000
188376.600,175029.700,600450.300,560248.600,154690.300,149203.100,136677.200,144920.700,-0.122,0.937,-0.340,-1.251,1.740,-1.343,73.333,348.000,1.000,2.510,0.000
188401.900,175034.300,600406.800,560239.200,154728.800,149225.600,136703.900,144959.700,-0.123,0.936,-0.340,-1.343,1.709,-1.404,73.333,349.000,1.000,11.798,0.000
188410.500,175038.500,600356.500,560216.800,154778.600,149247.400,136733.900,144999.900,-0.126,0.939,-0.340,-1.404,1.648,-1.465,73.333,350.000,1.000,0.014,0.000
188418.800,175044.200,600298.900,560176.300,154795.800,149261.000,136753.700,145014.800,-0.125,0.941,-0.341,-1.526,1.526,-1.526,73.333,351.000,1.000,1.934,0.000
188436.000,175072.000,600236.800,560120.400,154772.400,149260.100,136746.100,144995.000,-0.127,0.941,-0.341,-1.648,1.434,-1.526,73.333,352.000,1.000,7.504,0.000
188402.200,175035.100,600123.700,559995.400,154702.200,149213.000,136687.300,144930.800,-0.128,0.943,-0.340,-1.831,1.343,-1.587,73.333,353.000,1.000,8.792,0.000
188397.900,175019.700,600053.700,559944.200,154711.800,149210.200,136684.000,144940.300,-0.130,0.942,-0.342,-1.892,1.221,-1.617,73.333,354.000,1.000,2.522,0.000
188431.700,175053.600,600032.600,559959.100,154792.300,149260.000,136741.000,145009.700,-0.131,0.943,-0.346,-2.014,1.038,-1.678,73.333,355.000,1.000,2.361,0.000
188415.500,175043.000,599957.800,559896.200,154793.300,149255.900,136744.500,145009.700,-0.132,0.941,-0.343,-2.197,0.763,-1.648,73.333,356.000,1.000,2.556,0.000
188392.300,175019.300,599863.900,559801.800,154737.000,149225.300,136710.200,144960.300,-0.134,0.941,-0.342,-2.319,0.488,-1.678,73.333,357.000,1.000,2.512,0.000
188385.300,175011.800,599779.900,559716.900,154690.100,149201.300,136674.000,144919.700,-0.134,0.940,-0.343,-2.380,0.336,-1.709,73.333,358.000,1.000,4.388,0.000
188396.000,175015.200,599726.100,559687.900,154718.600,149217.200,136689.100,144949.800,-0.133,0.939,-0.342,-2.502,0.153,-1.556,73.333,359.000,1.000,0.005,0.000
188409.700,175032.600,599688.500,559683.500,154785.700,149254.800,136733.900,145008.300,-0.132,0.939,-0.341,-2.594,-0.031,-1.587,73.333,360.000,1.000,3.024,0.000
188403.600,175025.800,599625.300,559640.900,154796.400,149262.100,136745.400,145012.700,-0.131,0.938,-0.340,-2.838,-0.244,-1.526,73.333,361.000,1.000,8.754,0.000
188407.400,175044.800,599558.700,559559.300,154767.200,149258.200,136735.600,144984.600,-0.129,0.935,-0.343,-3.021,-0.336,-1.526,73.333,362.000,1.000,3.140,0.000
188404.500,175043.400,599481.900,559485.600,154726.900,149237.300,136702.200,144948.000,-0.131,0.936,-0.340,-3.052,-0.610,-1.404,73.333,363.000,1.000,0.011,0.000
188400.700,175034.400,599414.600,559442.900,154736.500,149234.400,136697.700,144958.600,-0.130,0.935,-0.338,-3.143,-0.702,-1.343,73.333,364.000,1.000,4.364,0.000
188406.300,175036.900,599369.300,559430.100,154791.500,149261.300,136734.000,145009.200,-0.131,0.931,-0.343,-3.265,-0.854,-1.221,73.333,365.000,1.000,5.042,0.000
188394.000,175031.800,599302.100,559376.800,154795.400,149257.000,136736.000,145006.500,-0.131,0.929,-0.344,-3.265,-1.007,-1.068,73.333,366.000,1.000,2.540,0.000
188369.400,175016.100,599209.600,559277.400,154736.500,149223.900,136694.200,144950.100,-0.131,0.928,-0.342,-3.387,-1.190,-0.977,73.333,367.000,1.000,11.161,0.000
188364.400,175003.300,599129.700,559203.500,154691.600,149198.300,136661.000,144913.300,-0.131,0.928,-0.340,-3.357,-1.251,-0.946,73.333,368.000,1.000,3.111,0.000
188379.500,175007.200,599082.700,559184.300,154718.300,149208.300,136674.800,144940.700,-0.128,0.927,-0.342,-3.265,-1.495,-0.885,73.333,369.000,1.000,0.009,0.000
188398.900,175025.400,599051.800,559178.400,154779.800,149235.400,136714.000,144993.800,-0.128,0.928,-0.341,-3.265,-1.465,-0.885,73.333,370.000,1.000,1.966,0.000
188396.400,175028.700,598996.500,559132.300,154796.300,149247.300,136734.200,145007.800,-0.124,0.927,-0.340,-3.296,-1.495,-0.885,73.333,371.000,1.000,4.955,0.000
188370.800,175004.300,598900.400,559030.600,154736.600,149213.500,136693.600,144953.000,-0.123,0.927,-0.337,-3.448,-1.404,-0.824,73.333,372.000,1.000,2.425,0.000
188365.600,174996.800,598821.900,558952.500,154692.500,149187.700,136661.500,144917.300,-0.122,0.928,-0.340,-3.235,-1.404,-0.702,73.333,373.000,1.000,6.321,0.000
188387.300,175009.100,598782.200,558936.500,154727.400,149209.700,136683.800,144952.500,-0.120,0.927,-0.338,-3.204,-1.221,-0.732,73.333,374.000,1.000,3.151,0.000
188399.200,175021.700,598747.800,558930.700,154790.700,149242.100,136723.700,145005.100,-0.120,0.929,-0.335,-3.296,-1.190,-0.702,73.333,375.000,1.000,0.007,0.000
188386.400,175016.800,598678.800,558871.900,154792.500,149236.200,136728.000,145001.600,-0.120,0.932,-0.337,-3.357,-1.129,-0.671,73.333,376.000,1.000,8.086,0.000
188371.800,175006.300,598587.000,558772.600,154733.600,149205.900,136688.900,144945.300,-0.119,0.935,-0.336,-3.540,-1.038,-0.671,73.333,377.000,1.000,2.496,0.000
188375.700,175006.900,598513.600,558697.600,154692.200,149186.500,136655.000,144908.500,-0.120,0.936,-0.334,-3.632,-1.007,-0.732,73.333,378.000,1.000,6.300,0.000
188397.300,175019.400,598475.100,558692.100,154728.400,149210.400,136678.700,144946.500,-0.118,0.933,-0.335,-3.662,-0.763,-0.671,73.333,379.000,1.000,3.115,0.000
188408.800,175034.100,598437.300,558684.400,154788.400,149246.300,136722.500,144998.000,-0.115,0.930,-0.335,-3.571,-0.610,-0.549,73.333,380.000,1.000,0.005,0.000
188410.100,175042.400,598379.800,558638.900,154803.100,149256.300,136734.900,145002.400,-0.115,0.932,-0.333,-3.418,-0.397,-0.519,73.333,381.000,1.000,13.116,0.000
188389.700,175024.400,598288.400,558531.500,154745.400,149227.600,136699.200,144950.400,-0.115,0.931,-0.337,-3.448,-0.244,-0.397,73.333,382.000,1.000,2.381,0.000
188378.200,175012.300,598203.800,558448.200,154695.900,149202.500,136664.200,144912.800,-0.116,0.934,-0.331,-3.326,0.000,-0.366,73.333,383.000,1.000,2.565,0.000
188396.500,175018.700,598164.200,558435.200,154727.800,149222.600,136685.000,144945.600,-0.121,0.933,-0.335,-3.204,0.214,-0.366,73.333,384.000,1.000,2.455,0.000
188408.000,175025.000,598129.300,558433.900,154788.000,149249.700,136727.000,144998.800,-0.124,0.934,-0.332,-3.082,0.397,-0.488,73.333,385.000,1.000,6.314,0.000
188396.000,175026.100,598064.300,558372.300,154789.800,149249.300,136732.600,144997.700,-0.123,0.931,-0.336,-3.113,0.641,-0.519,73.333,386.000,1.000,9.970,0.000
188381.700,175014.500,597981.600,558283.800,154738.300,149222.800,136700.700,144951.200,-0.120,0.930,-0.333,-2.960,0.824,-0.519,73.333,387.000,1.000,2.544,0.000
188384.400,175018.500,597913.400,558217.100,154703.800,149203.500,136675.500,144922.100,-0.118,0.924,-0.333,-2.777,0.977,-0.610,73.333,388.000,1.000,2.480,0.000
188396.300,175020.600,597866.100,558196.900,154733.200,149218.300,136694.000,144954.000,-0.118,0.924,-0.331,-2.563,1.068,-0.580,73.333,389.000,1.000,2.470,0.000
188413.500,175038.100,597835.800,558199.800,154797.800,149254.000,136738.000,145011.700,-0.115,0.925,-0.339,-2.411,1.404,-0.549,73.333,390.000,1.000,2.534,0.000
188401.600,175034.400,597770.800,558141.500,154804.000,149256.500,136740.600,145009.100,-0.114,0.931,-0.338,-2.045,1.678,-0.427,73.333,391.000,1.000,2.519,0.000
188380.500,175020.200,597679.900,558044.900,154743.000,149225.300,136703.400,144954.500,-0.110,0.932,-0.338,-1.984,1.923,-0.336,73.333,392.000,1.000,2.514,0.000
188375.400,175007.400,597599.100,557971.400,154697.900,149198.400,136671.700,144918.300,-0.109,0.938,-0.339,-1.892,2.319,-0.153,73.333,393.000,1.000,10.493,0.000
188392.000,175027.700,597556.700,557954.900,154729.800,149217.900,136691.000,144951.000,-0.111,0.933,-0.341,-1.770,2.502,-0.092,73.333,394.000,1.000,0.012,0.000
188408.600,175031.000,597523.800,557954.100,154793.300,149253.300,136735.600,145007.400,-0.111,0.933,-0.337,-1.678,2.808,0.153,73.333,395.000,1.000,1.985,0.000
188401.700,175031.000,597463.100,557903.700,154801.200,149254.600,136745.400,145009.700,-0.115,0.933,-0.333,-1.587,3.204,0.061,73.333,396.000,1.000,8.001,0.000
188379.600,175016.600,597373.400,557797.100,154741.100,149217.200,136707.400,144954.500,-0.112,0.930,-0.336,-1.587,3.510,0.214,73.333,397.000,1.000,0.008,0.000
188380.000,175011.500,597303.800,557733.400,154704.300,149193.700,136679.900,144922.900,-0.111,0.929,-0.334,-1.343,3.662,0.183,73.333,398.000,1.000,1.973,0.000
188398.500,175024.500,597260.400,557713.300,154737.000,149211.100,136697.700,144953.600,-0.115,0.930,-0.330,-1.404,3.906,0.153,73.333,399.000,1.000,3.746,0.000
188413.400,175029.800,597222.800,557712.300,154794.600,149242.300,136740.800,145009.900,-0.122,0.935,-0.331,-1.495,4.059,0.244,73.333,400.000,1.000,9.315,0.000
188399.500,175023.300,597150.300,557653.200,154797.400,149246.700,136748.100,145010.800,-0.131,0.941,-0.333,-1.709,4.150,0.122,73.333,401.000,1.000,0.010,0.000
188385.300,175017.600,597063.700,557563.100,154747.000,149225.300,136717.800,144963.900,-0.135,0.945,-0.334,-1.831,4.059,-0.031,73.333,402.000,1.000,1.910,0.000
188385.300,175017.900,596991.700,557497.300,154711.900,149209.400,136693.300,144938.600,-0.135,0.951,-0.335,-1.892,3.906,-0.305,73.333,403.000,1.000,6.207,0.000
188400.900,175016.300,596951.400,557483.800,154745.800,149227.600,136714.400,144976.100,-0.135,0.952,-0.336,-2.136,3.784,-0.519,73.333,404.000,1.000,9.448,0.000
188414.200,175029.300,596918.900,557476.100,154803.100,149259.200,136751.000,145022.400,-0.129,0.957,-0.330,-2.441,3.418,-0.580,73.333,405.000,1.000,0.006,0.000
188409.800,175034.300,596864.100,557433.400,154813.800,149267.300,136763.500,145023.300,-0.123,0.958,-0.331,-2.869,3.479,-0.702,73.333,406.000,1.000,1.826,0.000
188386.800,175023.900,596776.300,557334.300,154757.000,149235.900,136725.300,144963.400,-0.119,0.957,-0.334,-3.296,3.479,-0.641,73.333,407.000,1.000,2.469,0.000
188378.500,175010.400,596701.400,557258.300,154713.800,149211.000,136693.300,144927.500,-0.117,0.955,-0.332,-3.601,3.479,-0.458,73.333,408.000,1.000,3.791,0.000
188396.000,175020.300,596664.000,557241.400,154746.500,149230.400,136713.900,144961.700,-0.120,0.954,-0.335,-3.876,3.510,-0.214,73.333,409.000,1.000,8.770,0.000
188411.800,175037.800,596635.500,557237.400,154811.400,149268.900,136760.900,145016.300,-0.121,0.951,-0.333,-4.303,3.510,-0.214,73.333,410.000,1.000,19.828,0.000
188401.200,175038.200,596576.500,557189.300,154816.000,149270.900,136767.600,145015.400,-0.122,0.949,-0.335,-4.578,3.479,-0.214,73.333,411.000,1.000,0.017,0.000
188385.800,175027.700,596493.800,557104.300,154756.900,149238.500,136721.400,144955.000,-0.124,0.947,-0.334,-4.852,3.479,-0.183,73.333,412.000,1.000,0.004,0.000
188380.900,175009.300,596416.100,557029.800,154709.600,149206.500,136686.600,144920.000,-0.126,0.944,-0.332,-4.913,3.357,-0.366,73.333,413.000,1.000,5.639,0.000
188396.900,175018.500,596372.000,557011.100,154736.500,149221.400,136703.400,144949.400,-0.126,0.939,-0.333,-5.188,3.082,-0.458,73.333,414.000,1.000,0.009,0.000
188409.000,175028.300,596335.600,557007.900,154793.100,149248.800,136739.100,144995.200,-0.127,0.935,-0.336,-5.402,3.052,-0.488,73.333,415.000,1.000,5.018,0.000
188396.000,175024.800,596270.400,556951.900,154794.200,149245.800,136740.000,144990.800,-0.127,0.932,-0.334,-5.310,2.869,-0.610,73.333,416.000,1.000,0.009,0.000
188375.700,175012.600,596184.200,556862.100,154738.700,149215.900,136703.800,144940.500,-0.127,0.928,-0.334,-5.249,2.747,-0.824,73.333,417.000,1.000,1.913,0.000
188370.000,175009.300,596107.600,556790.600,154693.800,149189.000,136672.700,144906.900,-0.125,0.927,-0.334,-5.157,2.686,-0.885,73.333,418.000,1.000,2.530,0.000
188384.800,175012.100,596065.000,556772.900,154721.800,149205.000,136688.300,144937.000,-0.125,0.926,-0.330,-5.096,2.563,-0.977,73.333,419.000,1.000,10.026,0.000
188405.500,175022.700,596040.600,556779.400,154786.400,149240.900,136731.300,144993.800,-0.123,0.924,-0.330,-5.005,2.411,-1.007,73.333,420.000,1.000,2.385,0.000
188407.100,175033.900,595994.400,556745.800,154800.700,149252.100,136743.300,145002.400,-0.123,0.922,-0.336,-4.913,2.258,-1.038,73.333,421.000,1.000,3.139,0.000
188398.400,175033.200,595921.300,556663.900,154752.800,149234.200,136714.100,144956.600,-0.125,0.923,-0.334,-4.791,2.014,-0.916,73.333,422.000,1.000,0.009,0.000
188399.100,175023.500,595854.000,556594.700,154713.800,149214.500,136687.700,144926.600,-0.125,0.922,-0.336,-4.578,1.801,-0.885,73.333,423.000,1.000,2.549,0.000
188420.300,175034.100,595818.500,556584.800,154745.900,149231.800,136706.800,144958.800,-0.125,0.920,-0.338,-4.303,1.709,-0.916,73.333,424.000,1.000,0.007,0.000
188413.900,175027.000,595771.500,556563.200,154795.500,149257.500,136742.600,145003.900,-0.124,0.923,-0.335,-3.967,1.648,-0.854,73.333,425.000,1.000,15.677,0.000
188397.200,175019.600,595705.900,556506.300,154796.000,149256.300,136746.200,144996.300,-0.124,0.923,-0.335,-3.754,1.587,-0.763,73.333,426.000,1.000,6.797,0.000
188378.800,175012.000,595622.400,556422.400,154743.900,149230.500,136715.200,144949.500,-0.124,0.923,-0.334,-3.540,1.495,-0.793,73.333,427.000,1.000,0.011,0.000
188371.000,175005.900,595549.300,556352.900,154701.600,149211.400,136685.800,144918.500,-0.125,0.923,-0.332,-3.326,1.373,-0.885,73.333,428.000,1.000,4.995,0.000
188384.100,175017.300,595509.900,556339.100,154734.900,149231.300,136705.200,144951.300,-0.125,0.926,-0.333,-3.174,1.190,-0.885,73.333,429.000,1.000,0.006,0.000
188395.600,175028.600,595479.000,556335.700,154797.500,149263.300,136747.100,145002.100,-0.127,0.925,-0.334,-2.991,1.007,-0.732,73.333,430.000,1.000,4.311,0.000
188383.800,175022.500,595415.300,556283.800,154798.600,149260.000,136748.400,145000.400,-0.128,0.926,-0.336,-2.930,1.007,-0.793,73.333,431.000,1.000,3.191,0.000
188370.900,175019.800,595333.000,556196.000,154741.900,149230.800,136710.300,144949.800,-0.124,0.926,-0.335,-3.021,0.885,-0.763,73.333,432.000,1.000,0.009,0.000
188370.000,174998.500,595263.300,556129.400,154701.400,149208.000,136678.300,144917.800,-0.124,0.931,-0.334,-2.869,0.641,-0.793,73.333,433.000,1.000,1.848,0.000
188389.100,175016.200,595229.800,556114.900,154737.900,149233.800,136700.300,144951.500,-0.122,0.931,-0.333,-2.838,0.671,-0.702,73.333,434.000,1.000,13.777,0.000
188402.900,175039.400,595205.900,556116.300,154804.400,149274.200,136745.100,145008.200,-0.126,0.934,-0.332,-2.808,0.610,-0.549,73.333,435.000,1.000,9.957,0.000
188389.500,175033.300,595145.600,556070.500,154804.900,149266.700,136745.800,145004.900,-0.124,0.931,-0.337,-2.777,0.549,-0.519,73.333,436.000,1.000,0.011,0.000
188369.300,175018.700,595063.600,555969.800,154751.800,149241.400,136716.100,144955.500,-0.126,0.934,-0.339,-2.533,0.488,-0.488,73.333,437.000,1.000,0.003,0.000
188380.300,175031.900,595012.300,555924.400,154730.100,149235.500,136699.800,144940.300,-0.124,0.935,-0.339,-2.625,0.397,-0.519,73.333,438.000,1.000,3.139,0.000
188388.200,175044.700,594966.800,555907.500,154754.300,149248.100,136706.000,144963.100,-0.125,0.938,-0.338,-2.747,0.305,-0.519,73.333,439.000,1.000,0.080,0.000
188381.200,175021.400,594915.300,555890.400,154795.000,149257.100,136726.900,144997.500,-0.125,0.940,-0.335,-2.899,0.122,-0.488,73.333,440.000,1.000,1.760,0.000
188387.600,175032.900,594870.100,555864.900,154811.900,149269.700,136749.100,145011.400,-0.124,0.941,-0.335,-2.991,0.031,-0.610,73.333,441.000,1.000,2.463,0.000
188359.900,175009.600,594775.600,555757.300,154742.400,149225.000,136696.700,144943.100,-0.126,0.943,-0.334,-3.052,0.031,-0.641,73.333,442.000,1.000,8.753,0.000
188360.000,175007.800,594707.200,555690.300,154700.100,149205.100,136669.300,144907.900,-0.127,0.943,-0.339,-3.174,-0.092,-0.793,73.333,443.000,1.000,4.343,0.000
188380.400,175008.000,594673.600,555672.400,154735.000,149227.200,136694.200,144945.200,-0.129,0.943,-0.341,-3.296,-0.122,-0.763,73.333,444.000,1.000,0.007,0.000
188397.000,175024.600,594648.100,555679.300,154798.000,149259.900,136740.600,145007.200,-0.129,0.943,-0.339,-3.296,-0.244,-0.793,73.333,445.000,1.000,1.862,0.000
188392.800,175032.900,594597.400,555638.400,154808.000,149269.300,136753.500,145015.100,-0.126,0.942,-0.339,-3.448,-0.275,-1.038,73.333,446.000,1.000,13.751,0.000
188363.500,175013.500,594507.400,555533.900,154742.100,149229.600,136702.100,144949.400,-0.125,0.940,-0.338,-3.540,-0.336,-0.946,73.333,447.000,1.000,2.476,0.000
188354.000,174995.600,594434.600,555473.100,154700.300,149205.800,136666.000,144913.800,-0.123,0.936,-0.340,-3.510,-0.366,-1.038,73.333,448.000,1.000,2.589,0.000
188375.100,175012.100,594403.100,555463.300,154740.500,149228.800,136691.600,144951.300,-0.122,0.936,-0.339,-3.540,-0.366,-1.007,73.333,449.000,1.000,4.921,0.000
188388.600,175024.700,594375.200,555465.800,154803.100,149260.400,136735.100,145003.500,-0.122,0.937,-0.337,-3.418,-0.366,-0.854,73.333,450.000,1.000,2.598,0.000
188374.600,175016.000,594312.200,555407.000,154799.200,149255.000,136731.800,144997.700,-0.121,0.937,-0.334,-3.418,-0.366,-0.671,73.333,451.000,1.000,4.263,0.000
188376.300,175026.100,594250.300,555339.100,154758.500,149237.600,136711.000,144967.100,-0.122,0.938,-0.340,-3.357,-0.275,-0.610,73.333,452.000,1.000,0.008,0.000
188372.300,175008.000,594181.800,555270.100,154716.600,149211.600,136677.600,144934.300,-0.120,0.936,-0.339,-3.235,-0.061,-0.519,73.333,453.000,1.000,13.135,0.000
188376.100,175002.500,594136.600,555245.600,154733.400,149216.600,136677.300,144947.600,-0.119,0.934,-0.338,-3.235,0.031,-0.458,73.333,454.000,1.000,3.238,0.000
188392.500,175019.900,594116.400,555251.400,154795.000,149252.100,136719.600,145005.900,-0.118,0.934,-0.336,-3.082,0.214,-0.488,73.333,455.000,1.000,0.005,0.000
188383.500,175018.500,594063.600,555202.900,154800.600,149251.300,136732.700,145007.800,-0.120,0.935,-0.337,-2.869,0.366,-0.458,73.333,456.000,1.000,30.606,0.000
188362.200,175005.500,593984.600,555113.400,154744.500,149222.300,136701.500,144958.000,-0.122,0.934,-0.339,-2.655,0.549,-0.458,73.333,457.000,1.000,2.499,0.000
188356.700,175007.600,593917.900,555051.300,154703.900,149203.400,136673.200,144927.500,-0.125,0.936,-0.338,-2.533,0.763,-0.519,73.333,458.000,1.000,7.417,0.000
188373.700,175009.200,593883.600,555043.900,154737.500,149220.100,136688.600,144955.500,-0.127,0.935,-0.335,-2.289,0.793,-0.580,73.333,459.000,1.000,5.045,0.000
188386.700,175024.300,593858.900,555042.400,154799.500,149254.300,136729.800,145005.700,-0.125,0.938,-0.333,-2.258,0.885,-0.702,73.333,460.000,1.000,2.477,0.000
188378.600,175029.200,593807.300,554997.800,154806.000,149266.100,136741.700,145007.500,-0.124,0.935,-0.332,-2.136,0.854,-0.793,73.333,461.000,1.000,2.502,0.000
188359.800,175018.700,593728.500,554908.000,154752.000,149243.600,136710.700,144960.300,-0.123,0.934,-0.333,-2.014,0.916,-0.885,73.333,462.000,1.000,2.540,0.000
188360.700,175020.600,593666.000,554842.900,154713.100,149225.900,136679.300,144924.500,-0.120,0.935,-0.331,-1.923,1.099,-0.916,73.333,463.000,1.000,2.398,0.000
188387.300,175028.400,593642.600,554845.300,154750.200,149248.300,136701.800,144959.400,-0.119,0.934,-0.333,-1.892,1.251,-0.885,73.333,464.000,1.000,2.540,0.000
188405.300,175047.800,593624.000,554864.600,154809.400,149277.100,136743.000,145014.800,-0.118,0.930,-0.334,-1.953,1.251,-0.916,73.333,465.000,1.000,2.497,0.000
188382.500,175020.800,593555.400,554789.600,154797.400,149263.100,136738.200,145002.300,-0.119,0.931,-0.333,-1.709,1.404,-0.854,73.333,466.000,1.000,2.527,0.000
188365.900,175005.800,593476.300,554706.100,154739.700,149228.700,136699.800,144947.800,-0.119,0.931,-0.333,-1.648,1.556,-0.854,73.333,467.000,1.000,8.700,0.000
188360.900,174997.900,593407.300,554634.700,154694.900,149202.500,136664.200,144912.100,-0.120,0.931,-0.333,-1.526,1.648,-0.916,73.333,468.000,1.000,2.459,0.000
188378.500,175004.300,593377.900,554633.400,154726.300,149217.900,136687.100,144949.000,-0.120,0.932,-0.333,-1.465,1.892,-0.885,73.333,469.000,1.000,5.039,0.000
188390.300,175018.100,593354.300,554635.400,154788.000,149250.300,136733.900,145006.600,-0.123,0.930,-0.330,-1.373,1.801,-0.916,73.333,470.000,1.000,2.535,0.000
188379.000,175019.000,593302.100,554592.100,154799.200,149254.300,136744.600,145009.100,-0.125,0.934,-0.331,-1.404,1.892,-0.977,73.333,471.000,1.000,2.426,0.000
188366.900,175015.200,593235.400,554517.100,154753.000,149230.300,136716.600,144964.200,-0.124,0.934,-0.333,-1.312,1.862,-1.007,73.333,472.000,1.000,3.136,0.000
188361.600,175006.800,593170.400,554448.900,154711.700,149203.800,136685.200,144934.300,-0.127,0.935,-0.329,-1.129,1.831,-0.977,73.333,473.000,1.000,0.008,0.000
188372.400,175014.600,593138.500,554438.800,154739.500,149217.100,136701.500,144963.600,-0.126,0.935,-0.335,-1.343,1.862,-1.068,73.333,474.000,1.000,7.601,0.000
188381.800,175018.300,593112.600,554440.500,154798.100,149248.700,136744.000,145013.000,-0.129,0.938,-0.330,-1.404,1.770,-1.099,73.333,475.000,1.000,0.009,0.000
188380.000,175015.200,593063.000,554398.900,154801.600,149250.400,136749.600,145009.200,-0.129,0.937,-0.327,-1.526,1.831,-1.068,73.333,476.000,1.000,4.290,0.000
188365.200,175008.200,592986.100,554309.900,154743.200,149223.000,136713.800,144953.000,-0.132,0.938,-0.330,-1.587,1.709,-1.038,73.333,477.000,1.000,5.663,0.000
188369.500,175002.800,592924.800,554251.100,154706.200,149209.300,136688.000,144925.000,-0.131,0.937,-0.335,-1.862,1.648,-1.160,73.333,478.000,1.000,0.007,0.000
188395.200,175022.100,592899.100,554250.000,154744.100,149229.500,136706.600,144959.700,-0.131,0.938,-0.335,-1.923,1.526,-1.068,73.333,479.000,1.000,1.842,0.000
188414.000,175032.300,592879.700,554264.800,154808.900,149259.800,136750.600,145013.400,-0.128,0.938,-0.335,-2.075,1.312,-1.129,73.333,480.000,1.000,2.471,0.000
188417.400,175047.100,592841.700,554237.600,154826.300,149271.000,136765.900,145020.700,-0.132,0.936,-0.335,-2.045,1.160,-1.038,73.333,481.000,1.000,2.534,0.000
188377.000,175017.700,592749.300,554122.400,154759.400,149233.100,136721.400,144958.500,-0.132,0.936,-0.336,-2.350,1.129,-1.068,73.333,482.000,1.000,2.421,0.000
188369.100,175007.400,592681.900,554055.900,154715.000,149213.900,136693.600,144925.800,-0.134,0.936,-0.336,-2.197,0.916,-0.977,73.333,483.000,1.000,3.118,0.000
188380.300,175020.100,592649.600,554044.700,154746.900,149233.100,136715.200,144959.300,-0.133,0.933,-0.340,-2.472,0.854,-1.068,73.333,484.000,1.000,0.004,0.000
188411.200,175053.800,592644.600,554068.800,154826.200,149281.200,136771.300,145027.000,-0.131,0.934,-0.338,-2.289,0.702,-1.038,73.333,485.000,1.000,1.929,0.000
188402.700,175046.500,592592.900,554025.300,154833.200,149287.800,136781.200,145026.800,-0.132,0.934,-0.339,-2.350,0.549,-0.916,73.333,486.000,1.000,4.325,0.000
188368.400,175018.400,592497.900,553920.000,154760.900,149248.400,136729.000,144957.400,-0.130,0.933,-0.338,-2.502,0.427,-0.946,73.333,487.000,1.000,0.014,0.000
188433.600,175081.000,592502.300,553930.200,154791.100,149292.800,136766.300,144995.400,-0.130,0.931,-0.336,-2.533,0.305,-0.824,73.333,488.000,1.000,8.228,0.000
188458.000,175096.200,592476.400,553925.500,154832.000,149318.900,136793.400,145035.900,-0.127,0.930,-0.340,-2.716,0.244,-0.793,73.333,489.000,1.000,14.342,0.000
188430.000,175072.600,592409.600,553878.400,154849.100,149303.300,136792.100,145045.200,-0.128,0.933,-0.340,-2.808,0.275,-0.702,73.333,490.000,1.000,0.015,0.000
188475.700,175120.200,592409.300,553892.500,154903.700,149355.100,136844.500,145090.200,-0.126,0.935,-0.336,-2.747,0.305,-0.732,73.333,491.000,1.000,3.035,0.000
188427.700,175067.000,592302.300,553782.200,154815.100,149290.600,136772.900,145005.900,-0.124,0.935,-0.339,-2.899,0.214,-0.702,73.333,492.000,1.000,0.008,0.000
188375.500,175011.000,592194.100,553674.800,154730.300,149224.300,136703.200,144936.500,-0.123,0.935,-0.338,-3.021,0.244,-0.641,73.333,493.000,1.000,0.003,0.000
188405.700,175036.200,592182.100,553682.400,154779.500,149256.100,136737.400,144985.100,-0.123,0.936,-0.339,-3.082,0.244,-0.580,73.333,494.000,1.000,3.809,0.000
188398.100,175029.200,592145.700,553669.200,154825.300,149276.800,136765.000,145021.300,-0.125,0.934,-0.338,-3.174,0.336,-0.610,73.333,495.000,1.000,16.526,0.000
188380.300,175027.000,592090.400,553617.000,154824.000,149273.500,136768.500,145013.000,-0.125,0.936,-0.336,-3.387,0.275,-0.488,73.333,496.000,1.000,23.447,0.000
188417.700,175068.400,592074.600,553594.600,154827.200,149298.500,136787.300,145025.500,-0.126,0.936,-0.339,-3.540,0.336,-0.427,73.333,497.000,1.000,0.010,0.000
188391.800,175035.100,591988.500,553505.800,154763.800,149257.000,136736.300,144968.000,-0.126,0.938,-0.338,-3.784,0.366,-0.305,73.333,498.000,1.000,0.003,0.000
188396.400,175034.200,591949.300,553488.600,154788.700,149260.500,136747.500,144992.700,-0.126,0.938,-0.337,-3.693,0.549,-0.336,73.333,499.000,1.000,3.139,0.000
188380.800,175018.500,591901.300,553464.800,154822.600,149273.200,136766.800,145019.600,-0.127,0.939,-0.339,-3.845,0.519,-0.397,73.333,500.000,1.000,0.009,0.000
188384.300,175032.300,591865.800,553433.700,154837.200,149292.500,136785.000,145029.500,-0.128,0.941,-0.338,-3.967,0.641,-0.336,73.333,501.000,1.000,2.444,0.000
188340.800,174997.300,591768.600,553328.400,154751.200,149234.400,136715.100,144949.800,-0.127,0.941,-0.336,-4.028,0.671,-0.397,73.333,502.000,1.000,0.008,0.000
188353.500,175009.800,591726.600,553283.700,154724.500,149222.500,136692.500,144930.500,-0.124,0.942,-0.339,-4.089,0.671,-0.305,73.333,503.000,1.000,1.886,0.000
188394.800,175040.300,591728.900,553304.400,154783.200,149269.100,136733.900,144984.300,-0.125,0.942,-0.333,-4.333,0.702,-0.275,73.333,504.000,1.000,2.469,0.000
188385.400,175023.400,591690.600,553290.900,154822.000,149280.600,136756.700,145017.100,-0.125,0.942,-0.336,-4.456,0.793,-0.214,73.333,505.000,1.000,2.521,0.000
188367.900,175020.100,591639.800,553242.200,154816.900,149273.500,136750.000,145010.000,-0.124,0.940,-0.337,-4.547,0.885,-0.214,73.333,506.000,1.000,2.553,0.000
188379.300,175038.500,591598.300,553181.800,154789.200,149278.900,136739.800,144980.000,-0.124,0.939,-0.333,-4.608,0.977,-0.214,73.333,507.000,1.000,2.455,0.000
188372.500,175027.100,591537.000,553126.900,154747.700,149258.900,136708.500,144947.400,-0.124,0.937,-0.333,-4.608,1.038,-0.122,73.333,508.000,1.000,2.511,0.000
188384.000,175026.600,591507.000,553110.300,154774.600,149272.500,136725.500,144978.400,-0.122,0.933,-0.333,-4.608,1.129,-0.122,73.333,509.000,1.000,5.565,0.000
188401.000,175044.700,591494.300,553115.600,154835.900,149301.800,136764.200,145031.900,-0.123,0.930,-0.329,-4.486,1.251,-0.122,73.333,510.000,1.000,0.015,0.000
188381.000,175032.900,591436.800,553058.900,154826.200,149289.700,136759.700,145017.600,-0.122,0.926,-0.331,-4.425,1.343,-0.092,73.333,511.000,1.000,1.908,0.000
188387.000,175046.100,591387.900,552992.200,154784.900,149279.700,136737.300,144980.000,-0.123,0.925,-0.328,-4.303,1.556,-0.183,73.333,512.000,1.000,3.742,0.000
188372.700,175021.000,591320.600,552920.100,154731.100,149245.100,136699.600,144937.000,-0.124,0.923,-0.326,-4.211,1.648,-0.214,73.333,513.000,1.000,14.313,0.000
188388.200,175028.500,591293.800,552919.000,154760.200,149264.400,136714.800,144964.800,-0.121,0.924,-0.329,-4.181,1.770,-0.214,73.333,514.000,1.000,0.010,0.000
188400.000,175032.700,591274.700,552924.900,154817.400,149293.800,136756.000,145020.600,-0.122,0.925,-0.326,-3.998,1.831,-0.092,73.333,515.000,1.000,8.808,0.000
188390.700,175027.800,591225.900,552889.600,154816.100,149291.700,136759.900,145016.200,-0.121,0.926,-0.327,-3.998,2.045,-0.244,73.333,516.000,1.000,0.012,0.000
188357.100,174998.300,591139.200,552789.100,154736.200,149242.800,136705.400,144942.000,-0.122,0.926,-0.324,-3.876,2.167,-0.244,73.333,517.000,1.000,1.953,0.000
188359.400,174994.600,591085.900,552736.600,154697.300,149221.800,136680.300,144916.400,-0.120,0.926,-0.327,-3.876,2.228,-0.366,73.333,518.000,1.000,7.421,0.000
188388.700,175011.800,591069.800,552744.400,154743.400,149253.300,136712.000,144961.300,-0.122,0.928,-0.329,-3.632,2.533,-0.214,73.333,519.000,1.000,4.943,0.000
188403.600,175030.100,591055.200,552759.200,154812.000,149294.000,136760.200,145027.500,-0.122,0.928,-0.327,-3.632,2.594,-0.214,73.333,520.000,1.000,5.029,0.000
188377.100,175014.400,590993.500,552710.800,154806.500,149284.500,136754.300,145022.200,-0.125,0.933,-0.323,-3.387,2.777,-0.305,73.333,521.000,1.000,10.012,0.000
188362.300,175009.200,590925.500,552636.600,154758.500,149261.200,136725.800,144973.800,-0.123,0.936,-0.328,-3.418,2.777,-0.427,73.333,522.000,1.000,5.040,0.000
188369.200,175016.800,590875.900,552584.300,154730.000,149249.500,136703.600,144949.400,-0.123,0.939,-0.322,-3.540,2.960,-0.458,73.333,523.000,1.000,4.945,0.000
188366.000,175007.100,590832.200,552548.500,154748.000,149254.800,136710.900,144968.900,-0.124,0.940,-0.319,-3.540,2.899,-0.519,73.333,524.000,1.000,5.003,0.000
188388.600,175034.800,590824.900,552569.100,154818.100,149295.700,136761.800,145025.800,-0.120,0.943,-0.322,-3.693,3.021,-0.580,73.333,525.000,1.000,2.478,0.000
188370.600,175012.800,590766.600,552518.400,154808.600,149281.600,136757.300,145012.200,-0.126,0.939,-0.324,-3.601,3.052,-0.610,73.333,526.000,1.000,4.991,0.000
188346.500,174997.000,590688.600,552427.900,154742.100,149238.000,136707.800,144949.400,-0.127,0.941,-0.327,-3.815,3.082,-0.671,73.333,527.000,1.000,2.583,0.000
188346.600,174992.500,590633.600,552372.900,154704.100,149215.700,136678.100,144915.000,-0.131,0.941,-0.322,-3.662,2.960,-0.610,73.333,528.000,1.000,2.453,0.000
188357.300,174995.000,590604.400,552369.900,154729.600,149225.300,136689.700,144941.900,-0.128,0.938,-0.328,-3.967,2.777,-0.793,73.333,529.000,1.000,4.940,0.000
188367.900,175002.700,590578.600,552364.600,154780.900,149250.100,136722.100,144985.500,-0.130,0.940,-0.324,-3.845,2.655,-0.641,73.333,530.000,1.000,2.580,0.000
188356.500,174989.400,590528.900,552324.500,154779.200,149248.900,136727.400,144984.700,-0.132,0.935,-0.327,-3.998,2.502,-0.702,73.333,531.000,1.000,7.491,0.000
188341.000,174980.300,590459.400,552243.600,154721.800,149218.100,136691.900,144929.300,-0.130,0.939,-0.327,-4.059,2.472,-0.580,73.333,532.000,1.000,8.094,0.000
188345.300,174978.500,590407.300,552192.200,154687.900,149203.500,136674.000,144904.900,-0.135,0.938,-0.327,-3.876,2.228,-0.519,73.333,533.000,1.000,0.006,0.000
188366.800,174989.000,590383.600,552193.700,154724.800,149228.100,136707.800,144951.400,-0.133,0.940,-0.330,-4.059,2.075,-0.580,73.333,534.000,1.000,1.834,0.000
188383.300,175007.800,590367.200,552205.600,154788.200,149260.300,136742.700,144999.800,-0.139,0.941,-0.328,-3.815,1.862,-0.458,73.333,535.000,1.000,2.560,0.000
188349.800,174986.400,590299.700,552139.400,154771.400,149243.600,136724.600,144974.700,-0.133,0.937,-0.330,-3.998,1.526,-0.458,73.333,536.000,1.000,3.145,0.000
188340.400,174989.900,590238.900,552064.300,154725.100,149221.700,136700.400,144933.100,-0.138,0.939,-0.326,-3.937,1.465,-0.336,73.333,537.000,1.000,0.011,0.000
188338.200,174977.700,590183.800,552009.100,154694.700,149206.000,136683.100,144912.900,-0.135,0.931,-0.325,-3.845,1.007,-0.519,73.333,538.000,1.000,1.835,0.000
188366.500,175002.500,590167.900,552016.500,154742.100,149235.500,136713.600,144958.800,-0.133,0.929,-0.332,-3.815,0.854,-0.275,73.333,539.000,1.000,2.426,0.000
188383.200,175018.700,590152.300,552027.100,154809.200,149275.200,136760.900,145017.600,-0.134,0.927,-0.331,-3.571,0.641,-0.214,73.333,540.000,1.000,7.565,0.000
188348.600,174983.700,590079.900,551965.300,154786.500,149253.700,136743.200,144994.300,-0.126,0.928,-0.335,-3.479,0.580,-0.183,73.333,541.000,1.000,2.459,0.000
188327.600,174972.100,590003.600,551875.900,154722.600,149218.800,136700.900,144933.500,-0.129,0.931,-0.336,-2.960,0.488,0.000,73.333,542.000,1.000,2.528,0.000
188320.300,174960.800,589940.700,551807.400,154677.300,149194.400,136667.400,144897.800,-0.119,0.933,-0.336,-2.991,0.488,-0.031,73.333,543.000,1.000,2.473,0.000
188344.800,174977.700,589922.800,551816.300,154719.900,149216.400,136692.000,144941.300,-0.121,0.940,-0.335,-2.747,0.610,0.214,73.333,544.000,1.000,3.145,0.000
188361.800,174992.900,589908.000,551820.600,154783.900,149245.600,136732.700,144990.700,-0.122,0.939,-0.334,-2.625,0.488,0.153,73.333,545.000,1.000,0.007,0.000
188358.800,174992.800,589865.500,551784.400,154787.700,149247.900,136736.700,144989.800,-0.117,0.941,-0.338,-2.563,0.580,0.031,73.333,546.000,1.000,8.058,0.000
188343.700,174980.500,589800.900,551707.600,154732.500,149219.700,136701.800,144944.600,-0.119,0.939,-0.334,-2.319,0.671,0.061,73.333,547.000,1.000,3.121,0.000
188349.100,174987.600,589754.300,551654.900,154701.600,149210.200,136683.300,144922.500,-0.110,0.938,-0.334,-2.472,0.793,-0.244,73.333,548.000,1.000,0.007,0.000
188362.500,174994.600,589726.300,551651.300,154733.400,149227.000,136695.600,144948.900,-0.113,0.942,-0.331,-2.228,1.007,-0.275,73.333,549.000,1.000,4.431,0.000
188370.800,175000.700,589708.600,551660.400,154789.500,149247.900,136731.200,144997.700,-0.113,0.940,-0.333,-2.350,1.160,-0.641,73.333,550.000,1.000,6.255,0.000
188360.800,175006.200,589661.500,551617.600,154793.800,149249.900,136739.600,144996.100,-0.117,0.947,-0.332,-2.289,1.373,-0.702,73.333,551.000,1.000,6.279,0.000
188339.000,174991.100,589588.600,551535.700,154740.200,149226.700,136706.800,144947.200,-0.125,0.944,-0.334,-2.319,1.343,-1.007,73.333,552.000,1.000,2.464,0.000
188343.300,174988.700,589539.000,551496.300,154711.500,149215.800,136687.400,144927.300,-0.122,0.943,-0.335,-2.411,1.495,-1.404,73.333,553.000,1.000,2.501,0.000
188360.000,174999.300,589512.400,551474.400,154744.000,149232.300,136706.600,144959.800,-0.126,0.944,-0.334,-2.258,1.404,-1.770,73.333,554.000,1.000,2.437,0.000
188369.200,175004.700,589494.000,551485.900,154799.600,149258.300,136742.300,145008.500,-0.121,0.943,-0.336,-2.319,1.343,-2.228,73.333,555.000,1.000,8.812,0.000
188361.800,175000.900,589450.500,551448.300,154800.000,149249.700,136741.300,145004.100,-0.122,0.943,-0.330,-2.197,1.343,-2.380,73.333,556.000,1.000,3.088,0.000
188344.100,174988.200,589380.900,551359.800,154742.600,149222.900,136705.700,144949.400,-0.113,0.939,-0.330,-2.319,1.495,-2.716,73.333,557.000,1.000,0.008,0.000
188345.700,174981.700,589323.700,551305.000,154706.400,149207.600,136682.400,144918.500,-0.112,0.941,-0.328,-2.258,1.770,-2.655,73.333,558.000,1.000,1.848,0.000
188371.200,175000.700,589312.800,551328.000,154755.600,149235.300,136716.400,144966.000,-0.110,0.938,-0.332,-2.319,2.014,-2.716,73.333,559.000,1.000,21.315,0.000
188393.600,175022.600,589309.100,551347.400,154829.900,149281.700,136772.500,145031.400,-0.110,0.939,-0.333,-2.411,2.411,-2.747,73.333,560.000,1.000,3.000,0.000
188382.600,175023.200,589264.300,551309.800,154834.000,149286.100,136778.200,145027.800,-0.117,0.940,-0.336,-2.441,2.411,-2.441,73.333,561.000,1.000,0.013,0.000
188367.300,175018.000,589199.900,551228.800,154781.200,149260.600,136743.400,144978.000,-0.118,0.940,-0.336,-2.533,2.563,-2.472,73.333,562.000,1.000,4.423,0.000
188352.800,174998.100,589130.400,551160.300,154727.600,149221.700,136697.600,144927.700,-0.123,0.941,-0.329,-2.441,2.533,-2.319,73.333,563.000,1.000,4.990,0.000
188369.000,175011.000,589107.100,551162.800,154759.700,149236.400,136716.800,144961.300,-0.124,0.937,-0.331,-2.686,2.594,-2.380,73.333,564.000,1.000,7.567,0.000
188399.400,175034.500,589106.000,551191.900,154834.700,149284.800,136773.200,145030.900,-0.131,0.938,-0.330,-2.594,2.594,-2.197,73.333,565.000,1.000,5.017,0.000
188382.600,175022.000,589051.900,551144.500,154828.700,149273.400,136772.100,145015.700,-0.129,0.933,-0.329,-2.625,2.563,-2.258,73.333,566.000,1.000,2.450,0.000
188351.500,175000.000,588966.900,551053.400,154761.600,149229.600,136724.100,144956.100,-0.134,0.934,-0.329,-2.655,2.502,-2.045,73.333,567.000,1.000,2.482,0.000
188350.000,174991.400,588907.300,550991.400,154719.100,149207.500,136691.700,144923.900,-0.135,0.933,-0.329,-2.838,2.350,-1.984,73.333,568.000,1.000,2.531,0.000
188389.900,175017.100,588906.300,551012.800,154771.200,149241.400,136728.800,144978.200,-0.134,0.935,-0.327,-2.899,2.197,-1.831,73.333,569.000,1.000,2.527,0.000
188428.400,175056.700,588917.100,551053.800,154854.600,149294.200,136790.100,145050.900,-0.139,0.934,-0.324,-2.899,1.862,-1.740,73.333,570.000,1.000,2.406,0.000
188386.100,175030.700,588839.400,550975.900,154821.500,149263.900,136760.900,145012.100,-0.135,0.933,-0.323,-3.326,1.862,-1.587,73.333,571.000,1.000,2.569,0.000
188359.600,175001.500,588759.600,550885.400,154754.000,149214.500,136715.300,144950.200,-0.138,0.931,-0.325,-3.143,1.740,-1.495,73.333,572.000,1.000,2.509,0.000
188378.300,175017.600,588726.300,550851.600,154740.800,149220.300,136712.500,144942.600,-0.135,0.931,-0.328,-3.418,1.556,-1.495,73.333,573.000,1.000,3.047,0.000
188399.600,175027.800,588705.800,550860.100,154777.900,149244.000,136738.500,144981.800,-0.139,0.933,-0.324,-3.448,1.312,-1.282,73.333,574.000,1.000,0.015,0.000
188392.800,175030.800,588671.900,550844.100,154821.200,149260.300,136763.800,145019.400,-0.138,0.933,-0.326,-3.723,1.099,-1.190,73.333,575.000,1.000,12.033,0.000
188372.700,175009.600,588613.800,550789.400,154811.900,149254.600,136754.100,145000.500,-0.137,0.937,-0.325,-3.723,0.977,-0.946,73.333,576.000,1.000,3.147,0.000
188355.600,174996.300,588544.200,550715.600,154751.300,149223.200,136717.500,144949.500,-0.136,0.934,-0.325,-3.998,0.671,-0.793,73.333,577.000,1.000,0.054,0.000
188358.200,174995.800,588490.900,550655.400,154713.400,149205.600,136689.300,144919.600,-0.134,0.935,-0.326,-4.120,0.580,-0.702,73.333,578.000,1.000,1.670,0.000
188378.100,175010.700,588472.600,550664.200,154752.100,149227.500,136716.300,144965.400,-0.133,0.930,-0.327,-4.150,0.366,-0.641,73.333,579.000,1.000,5.044,0.000
188392.800,175022.800,588460.100,550683.600,154816.100,149267.500,136758.700,145020.500,-0.129,0.932,-0.330,-4.303,0.397,-0.488,73.333,580.000,1.000,13.722,0.000
188369.200,175009.200,588403.400,550630.100,154805.800,149264.700,136755.800,145004.800,-0.132,0.931,-0.324,-4.120,0.397,-0.458,73.333,581.000,1.000,2.502,0.000
188355.000,175001.800,588338.700,550549.100,154747.000,149232.400,136716.800,144953.000,-0.128,0.931,-0.327,-4.333,0.275,-0.458,73.333,582.000,1.000,7.461,0.000
188353.500,174995.600,588284.900,550494.300,154711.000,149215.600,136690.800,144926.800,-0.128,0.931,-0.328,-4.120,0.397,-0.336,73.333,583.000,1.000,2.570,0.000
188378.300,175017.900,588273.600,550505.900,154757.500,149246.700,136718.100,144968.600,-0.123,0.928,-0.333,-4.181,0.458,-0.366,73.333,584.000,1.000,2.425,0.000
188385.100,175020.700,588256.800,550518.900,154814.800,149269.700,136756.300,145020.200,-0.122,0.927,-0.329,-4.120,0.702,-0.153,73.333,585.000,1.000,2.586,0.000
188361.300,175007.400,588200.400,550461.600,154803.200,149264.200,136750.600,145005.000,-0.120,0.925,-0.327,-3.998,0.671,-0.122,73.333,586.000,1.000,3.094,0.000
188339.200,174993.300,588127.900,550371.400,154742.800,149230.100,136714.100,144953.100,-0.121,0.929,-0.326,-3.815,1.068,-0.031,73.333,587.000,1.000,0.005,0.000
188348.600,174997.500,588084.500,550330.000,154713.200,149213.800,136691.900,144933.800,-0.118,0.928,-0.325,-3.693,1.099,-0.092,73.333,588.000,1.000,1.850,0.000
188374.700,175019.600,588074.300,550346.900,154760.500,149240.700,136723.000,144981.500,-0.116,0.930,-0.326,-3.723,1.434,0.061,73.333,589.000,1.000,2.460,0.000
188373.800,175009.900,588046.100,550346.100,154809.100,149265.900,136760.600,145025.000,-0.120,0.932,-0.323,-3.510,1.587,0.092,73.333,590.000,1.000,4.370,0.000
188362.300,175001.900,588000.300,550309.200,154805.500,149261.800,136757.300,145016.600,-0.117,0.932,-0.325,-3.571,1.892,-0.031,73.333,591.000,1.000,0.008,0.000
188348.200,175000.700,587932.600,550220.600,154749.400,149234.600,136719.600,144963.400,-0.121,0.932,-0.326,-3.387,2.045,0.092,73.333,592.000,1.000,8.194,0.000
188346.200,174991.500,587881.400,550173.600,154714.000,149212.500,136695.100,144939.500,-0.120,0.931,-0.326,-3.387,2.197,-0.122,73.333,593.000,1.000,18.666,0.000
188361.800,175014.200,587863.300,550173.400,154755.400,149237.300,136717.600,144977.800,-0.125,0.934,-0.326,-3.174,2.472,-0.214,73.333,594.000,1.000,0.012,0.000
188375.400,175026.500,587855.800,550193.700,154825.000,149281.600,136770.200,145039.300,-0.127,0.934,-0.328,-2.960,2.441,-0.427,73.333,595.000,1.000,0.003,0.000
188354.800,175015.200,587798.500,550135.300,154813.100,149272.600,136764.000,145021.900,-0.131,0.938,-0.329,-2.838,2.563,-0.519,73.333,596.000,1.000,3.719,0.000
188336.900,175000.200,587730.900,550056.000,154754.900,149241.200,136726.300,144968.800,-0.132,0.938,-0.328,-2.716,2.441,-0.702,73.333,597.000,1.000,0.005,0.000
188338.800,175001.800,587684.300,550007.700,154727.700,149228.600,136703.500,144944.600,-0.132,0.940,-0.329,-2.655,2.563,-0.885,73.333,598.000,1.000,0.004,0.000
188371.100,175028.900,587681.600,550026.100,154781.600,149262.500,136740.400,144995.700,-0.134,0.941,-0.325,-2.533,2.380,-0.977,73.333,599.000,1.000,6.322,0.000
188408.000,175062.800,587688.400,550053.800,154858.200,149315.200,136797.600,145058.800,-0.130,0.940,-0.326,-2.655,2.441,-1.190,73.333,600.000,1.000,2.441,0.000
188367.500,175026.200,587609.300,549973.300,154821.300,149279.100,136764.500,145018.500,-0.133,0.938,-0.321,-2.350,2.411,-1.221,73.333,601.000,1.000,7.509,0.000
188342.200,175000.200,587538.300,549887.000,154758.500,149238.900,136723.500,144964.400,-0.129,0.938,-0.326,-2.319,2.411,-1.312,73.333,602.000,1.000,2.479,0.000
188358.700,175017.500,587504.100,549850.400,154737.600,149231.800,136709.200,144947.800,-0.131,0.943,-0.324,-2.075,2.380,-1.251,73.333,603.000,1.000,15.642,0.000
188382.800,175039.700,587488.400,549858.600,154779.800,149259.200,136737.300,144991.100,-0.129,0.940,-0.326,-2.167,2.228,-1.282,73.333,604.000,1.000,0.009,0.000
188390.500,175041.500,587465.600,549864.100,154837.100,149294.700,136777.100,145043.400,-0.131,0.942,-0.328,-2.045,2.258,-1.221,73.333,605.000,1.000,1.807,0.000
188374.100,175032.800,587414.500,549813.700,154829.200,149287.000,136773.900,145031.900,-0.132,0.940,-0.330,-2.045,2.075,-1.251,73.333,606.000,1.000,2.579,0.000
188358.000,175021.400,587346.300,549738.800,154770.000,149253.800,136734.400,144977.400,-0.132,0.940,-0.330,-2.045,2.014,-1.190,73.333,607.000,1.000,3.113,0.000
188365.700,175022.800,587301.900,549693.500,154740.800,149240.900,136714.300,144957.800,-0.134,0.937,-0.323,-1.984,1.770,-1.129,73.333,608.000,1.000,0.006,0.000
188394.500,175038.200,587293.800,549711.600,154786.100,149266.400,136738.700,144995.400,-0.136,0.936,-0.324,-2.014,1.862,-0.977,73.333,609.000,1.000,4.309,0.000
188398.000,175044.000,587273.600,549718.400,154838.900,149291.700,136773.500,145043.300,-0.139,0.937,-0.322,-1.831,1.740,-0.824,73.333,610.000,1.000,2.593,0.000
188389.100,175033.000,587232.100,549674.700,154833.600,149284.000,136775.300,145037.700,-0.140,0.934,-0.327,-1.923,1.587,-0.916,73.333,611.000,1.000,8.731,0.000
188390.100,175040.500,587187.900,549603.700,154788.000,149270.100,136754.300,144994.400,-0.145,0.935,-0.324,-1.678,1.251,-0.824,73.333,612.000,1.000,4.348,0.000
188398.400,175039.400,587148.300,549552.100,154762.400,149260.000,136741.300,144982.700,-0.143,0.933,-0.327,-1.740,0.824,-0.977,73.333,613.000,1.000,0.018,0.000
188400.900,175032.900,587114.600,549544.100,154783.800,149259.400,136745.600,145006.100,-0.144,0.937,-0.325,-1.587,0.671,-0.916,73.333,614.000,1.000,6.157,0.000
188401.400,175032.600,587090.800,549546.400,154833.800,149282.800,136777.800,145049.200,-0.139,0.937,-0.327,-1.587,0.305,-0.946,73.333,615.000,1.000,0.009,0.000
188397.000,175049.200,587051.000,549511.900,154838.000,149290.500,136782.400,145043.200,-0.138,0.940,-0.326,-1.678,0.122,-0.885,73.333,616.000,1.000,34.534,0.000
188393.000,175043.500,586997.800,549450.100,154794.700,149278.000,136759.300,145003.600,-0.139,0.940,-0.326,-1.740,-0.122,-0.793,73.333,617.000,1.000,7.315,0.000
188389.200,175038.800,586944.900,549400.200,154755.200,149258.500,136731.500,144975.800,-0.137,0.939,-0.325,-1.862,-0.305,-0.671,73.333,618.000,1.000,0.011,0.000
188409.700,175055.000,586924.900,549393.100,154786.800,149272.600,136747.800,145001.800,-0.138,0.938,-0.325,-1.862,-0.519,-0.519,73.333,619.000,1.000,0.003,0.000
188420.700,175065.000,586912.900,549406.300,154850.800,149308.400,136794.400,145054.900,-0.134,0.937,-0.328,-2.045,-0.671,-0.488,73.333,620.000,1.000,2.609,0.000
188408.600,175064.400,586876.000,549367.300,154857.100,149316.400,136809.300,145054.900,-0.133,0.934,-0.329,-2.014,-0.732,-0.305,73.333,621.000,1.000,6.293,0.000
188410.700,175074.600,586838.600,549321.100,154823.500,149309.600,136798.100,145028.900,-0.128,0.936,-0.333,-2.319,-0.854,-0.366,73.333,622.000,1.000,2.467,0.000
188405.100,175065.400,586788.100,549267.400,154783.100,149282.800,136763.700,144996.300,-0.128,0.938,-0.324,-2.136,-0.702,-0.122,73.333,623.000,1.000,2.404,0.000
188392.900,175045.800,586746.200,549238.200,154790.900,149274.900,136762.500,145010.200,-0.126,0.936,-0.325,-2.350,-0.793,-0.183,73.333,624.000,1.000,2.541,0.000
188398.100,175042.900,586727.600,549247.800,154845.700,149299.600,136794.400,145052.900,-0.126,0.936,-0.329,-2.380,-0.732,-0.122,73.333,625.000,1.000,2.500,0.000
188387.100,175043.000,586684.500,549207.700,154845.700,149299.800,136799.400,145054.800,-0.124,0.930,-0.329,-2.563,-0.732,-0.153,73.333,626.000,1.000,2.516,0.000
188363.800,175033.000,586612.400,549123.900,154783.300,149272.900,136760.800,144993.800,-0.121,0.927,-0.333,-2.411,-0.641,-0.275,73.333,627.000,1.000,2.439,0.000
188384.500,175046.000,586581.700,549094.600,154767.200,149272.900,136754.200,144985.300,-0.121,0.925,-0.332,-2.350,-0.549,-0.458,73.333,628.000,1.000,7.609,0.000
188409.500,175060.800,586575.900,549112.100,154817.000,149301.700,136793.000,145040.100,-0.118,0.924,-0.332,-2.289,-0.397,-0.702,73.333,629.000,1.000,2.408,0.000
188398.000,175044.800,586539.600,549101.100,154851.400,149306.400,136804.800,145066.400,-0.119,0.921,-0.334,-2.045,-0.275,-0.732,73.333,630.000,1.000,2.581,0.000
188371.500,175027.400,586480.100,549037.600,154829.000,149288.200,136773.100,145029.100,-0.114,0.915,-0.339,-1.892,-0.153,-0.916,73.333,631.000,1.000,4.963,0.000
188347.400,175011.600,586409.100,548947.300,154759.100,149245.200,136723.100,144965.500,-0.115,0.913,-0.333,-1.587,0.031,-0.946,73.333,632.000,1.000,3.096,0.000
188366.400,175023.500,586383.600,548915.300,154739.400,149232.700,136711.300,144951.900,-0.115,0.907,-0.336,-1.434,0.275,-1.221,73.333,633.000,1.000,0.006,0.000
188406.500,175053.200,586394.000,548941.900,154796.800,149269.500,136754.100,145009.200,-0.118,0.904,-0.333,-1.160,0.580,-1.434,73.333,634.000,1.000,1.911,0.000
188414.400,175057.400,586382.200,548952.900,154849.400,149298.100,136790.800,145056.000,-0.120,0.900,-0.333,-0.885,0.763,-1.678,73.333,635.000,1.000,2.423,0.000
188397.300,175040.600,586337.300,548912.400,154838.400,149288.500,136787.200,145043.400,-0.121,0.899,-0.332,-0.366,1.099,-2.197,73.333,636.000,1.000,5.617,0.000
188371.400,175027.800,586271.400,548829.100,154772.700,149249.300,136747.900,144985.200,-0.117,0.902,-0.331,0.397,1.312,-2.747,73.333,637.000,1.000,0.006,0.000
188358.300,175011.200,586211.800,548766.800,154728.900,149224.500,136715.000,144950.400,-0.110,0.909,-0.331,0.793,1.678,-3.204,73.333,638.000,1.000,1.923,0.000
188375.300,175024.300,586193.100,548773.700,154764.900,149246.900,136736.500,144987.600,-0.109,0.919,-0.331,1.434,2.014,-3.510,73.333,639.000,1.000,2.496,0.000
188388.400,175029.500,586184.000,548792.400,154828.900,149289.300,136785.200,145046.600,-0.107,0.932,-0.333,1.556,2.472,-3.906,73.333,640.000,1.000,2.530,0.000
188373.200,175030.300,586138.300,548728.600,154821.300,149281.300,136781.400,145031.800,-0.112,0.941,-0.330,1.709,2.899,-3.967,73.333,641.000,1.000,2.425,0.000
188357.000,175022.700,586076.300,548654.300,154762.500,149250.600,136741.500,144976.200,-0.116,0.945,-0.334,1.556,3.174,-4.120,73.333,642.000,1.000,9.399,0.000
188376.500,175037.800,586046.500,548630.400,154747.200,149249.600,136733.600,144971.100,-0.118,0.951,-0.333,1.343,3.479,-3.998,73.333,643.000,1.000,0.011,0.000
188407.700,175062.700,586045.100,548656.300,154801.800,149286.300,136767.400,145024.700,-0.117,0.953,-0.339,0.977,3.693,-3.937,73.333,644.000,1.000,1.939,0.000
188406.900,175067.000,586016.800,548648.100,154847.200,149304.400,136790.900,145058.800,-0.122,0.956,-0.338,0.854,3.998,-3.815,73.333,645.000,1.000,2.534,0.000
188394.000,175061.000,585973.600,548606.900,154842.800,149299.900,136788.200,145045.600,-0.121,0.958,-0.336,0.458,4.242,-3.662,73.333,646.000,1.000,8.721,0.000
188367.500,175033.300,585900.100,548521.100,154777.700,149265.400,136743.500,144984.800,-0.126,0.960,-0.339,0.183,4.456,-3.448,73.333,647.000,1.000,3.042,0.000
188376.100,175043.800,585861.400,548479.800,154751.300,149251.200,136723.000,144964.500,-0.125,0.958,-0.340,-0.244,4.578,-3.174,73.333,648.000,1.000,0.011,0.000
188390.800,175043.100,585846.800,548487.100,154791.600,149277.600,136750.000,145005.900,-0.132,0.959,-0.339,-0.549,4.639,-2.869,73.333,649.000,1.000,21.869,0.000
188444.300,175094.000,585880.800,548544.400,154895.600,149352.000,136835.200,145101.600,-0.138,0.956,-0.335,-0.854,4.608,-2.441,73.333,650.000,1.000,3.678,0.000
188412.100,175075.800,585817.400,548479.100,154866.200,149324.800,136809.900,145064.300,-0.145,0.955,-0.333,-1.343,4.608,-2.167,73.333,651.000,1.000,0.008,0.000
188364.300,175032.400,585724.800,548370.100,154775.900,149260.800,136738.500,144978.300,-0.148,0.953,-0.337,-1.678,4.395,-1.984,73.333,652.000,1.000,0.003,0.000
188357.500,175016.100,585669.900,548319.400,154733.400,149229.600,136703.500,144947.400,-0.150,0.954,-0.341,-2.197,4.272,-1.740,73.333,653.000,1.000,2.588,0.000
188373.500,175018.700,585653.600,548325.900,154771.000,149253.200,136733.600,144993.600,-0.152,0.953,-0.338,-2.502,3.906,-1.373,73.333,654.000,1.000,2.526,0.000
188400.800,175047.200,585654.300,548352.800,154841.100,149297.000,136787.000,145058.100,-0.148,0.954,-0.339,-2.960,3.906,-1.282,73.333,655.000,1.000,2.477,0.000
188393.600,175047.300,585616.200,548321.500,154838.000,149298.300,136789.900,145054.400,-0.154,0.954,-0.335,-3.082,3.479,-1.068,73.333,656.000,1.000,2.502,0.000
188379.400,175040.800,585556.800,548242.900,154774.600,149265.000,136747.900,144996.500,-0.150,0.955,-0.335,-3.632,3.113,-0.977,73.333,657.000,1.000,2.443,0.000
188366.800,175019.800,585497.600,548175.900,154727.900,149233.600,136712.300,144960.700,-0.151,0.960,-0.332,-3.967,2.960,-0.580,73.333,658.000,1.000,6.887,0.000
188410.300,175053.000,585511.200,548213.800,154794.700,149277.400,136763.600,145027.200,-0.150,0.962,-0.333,-4.578,2.686,-0.366,73.333,659.000,1.000,0.009,0.000
188416.900,175051.200,585494.600,548225.900,154845.700,149301.900,136785.300,145059.300,-0.154,0.963,-0.332,-5.066,2.411,0.000,73.333,660.000,1.000,1.902,0.000
188390.800,175035.300,585436.200,548164.300,154824.500,149281.600,136769.300,145036.100,-0.157,0.962,-0.336,-5.615,2.014,0.397,73.333,661.000,1.000,8.775,0.000
188374.100,175028.000,585374.300,548084.600,154766.400,149248.900,136732.400,144989.900,-0.156,0.960,-0.336,-6.226,1.709,0.671,73.333,662.000,1.000,4.256,0.000
188394.600,175048.200,585347.600,548059.500,154756.700,149253.100,136727.100,144985.300,-0.157,0.953,-0.331,-6.561,1.221,0.946,73.333,663.000,1.000,0.008,0.000
188415.300,175057.400,585339.300,548079.600,154804.300,149285.400,136761.200,145028.900,-0.152,0.947,-0.333,-6.958,0.946,1.099,73.333,664.000,1.000,1.907,0.000
188397.400,175046.300,585305.300,548068.000,154841.500,149300.300,136785.200,145059.200,-0.149,0.940,-0.332,-7.050,0.671,1.312,73.333,665.000,1.000,16.306,0.000
188391.600,175054.100,585271.300,548024.900,154844.800,149304.700,136790.500,145054.500,-0.140,0.934,-0.331,-7.294,0.427,1.190,73.333,666.000,1.000,3.123,0.000
188373.600,175034.500,585206.900,547956.400,154779.000,149261.700,136731.700,144987.600,-0.138,0.928,-0.330,-7.080,0.427,1.312,73.333,667.000,1.000,0.010,0.000
188359.600,175017.400,585151.400,547897.600,154733.400,149234.500,136695.200,144950.900,-0.135,0.922,-0.328,-7.111,0.275,1.221,73.333,668.000,1.000,1.853,0.000
188377.300,175025.300,585138.800,547895.900,154770.300,149257.200,136719.600,144986.200,-0.132,0.918,-0.327,-6.866,0.366,1.282,73.333,669.000,1.000,2.569,0.000
188409.500,175051.500,585148.900,547932.600,154845.500,149301.500,136774.300,145054.700,-0.126,0.910,-0.329,-6.592,0.336,1.099,73.333,670.000,1.000,6.133,0.000
188389.700,175039.600,585099.500,547874.200,154832.700,149290.800,136765.200,145036.300,-0.121,0.908,-0.328,-6.226,0.641,0.793,73.333,671.000,1.000,5.617,0.000
188375.100,175040.500,585044.000,547800.500,154780.900,149271.600,136737.000,144988.300,-0.119,0.905,-0.328,-5.585,0.763,0.610,73.333,672.000,1.000,0.010,0.000
188403.000,175055.600,585027.100,547781.600,154770.500,149272.500,136730.900,144978.400,-0.113,0.907,-0.328,-5.219,1.099,0.397,73.333,673.000,1.000,1.943,0.000
188398.500,175052.700,584993.800,547772.100,154785.700,149266.500,136729.100,144992.800,-0.116,0.907,-0.321,-4.639,1.495,0.214,73.333,674.000,1.000,8.775,0.000
188389.500,175040.700,584966.900,547768.800,154826.800,149281.400,136754.300,145034.700,-0.114,0.909,-0.326,-4.272,1.770,-0.183,73.333,675.000,1.000,3.080,0.000
188401.900,175053.000,584950.600,547762.800,154845.700,149305.100,136780.100,145045.300,-0.115,0.914,-0.324,-3.601,2.136,-0.244,73.333,676.000,1.000,0.008,0.000
188392.700,175041.100,584894.900,547691.200,154790.800,149282.200,136747.900,145001.700,-0.114,0.915,-0.323,-3.174,2.350,-0.610,73.333,677.000,1.000,1.879,0.000
188378.000,175025.200,584834.400,547621.000,154743.800,149245.800,136711.100,144969.200,-0.118,0.922,-0.320,-2.716,2.655,-0.824,73.333,678.000,1.000,12.474,0.000
188401.800,175042.500,584825.800,547637.100,154790.700,149276.500,136741.800,145020.600,-0.121,0.928,-0.322,-2.380,2.869,-1.038,73.333,679.000,1.000,3.054,0.000
188390.600,175026.200,584788.200,547621.200,154823.000,149279.500,136757.000,145043.600,-0.124,0.933,-0.317,-2.136,3.052,-1.282,73.333,680.000,1.000,0.004,0.000
188384.400,175027.000,584748.100,547586.100,154820.500,149275.800,136758.500,145032.200,-0.127,0.935,-0.318,-1.801,2.991,-1.434,73.333,681.000,1.000,1.927,0.000
188387.500,175034.200,584705.700,547531.400,154777.800,149263.700,136743.300,144997.900,-0.130,0.939,-0.318,-1.801,3.113,-1.678,73.333,682.000,1.000,3.706,0.000
188389.000,175030.100,584658.600,547483.100,154738.400,149239.800,136714.300,144967.800,-0.133,0.939,-0.315,-1.556,3.082,-1.862,73.333,683.000,1.000,11.314,0.000
188383.900,175025.600,584622.600,547467.600,154750.100,149236.900,136711.600,144979.700,-0.134,0.943,-0.319,-1.587,3.143,-2.014,73.333,684.000,1.000,8.035,0.000
188399.600,175034.500,584619.600,547489.400,154817.700,149275.600,136759.200,145039.900,-0.139,0.943,-0.321,-1.434,2.991,-2.045,73.333,685.000,1.000,0.044,0.000
188402.000,175041.500,584592.800,547461.100,154830.100,149286.300,136774.100,145042.500,-0.137,0.946,-0.322,-1.587,2.899,-2.167,73.333,686.000,1.000,1.916,0.000
188359.500,175008.200,584507.800,547363.300,154747.600,149226.600,136706.700,144960.100,-0.139,0.949,-0.322,-1.617,2.838,-2.075,73.333,687.000,1.000,2.470,0.000
188352.700,174996.700,584457.400,547317.400,154708.900,149202.500,136677.300,144930.900,-0.135,0.947,-0.324,-1.709,2.533,-2.075,73.333,688.000,1.000,2.506,0.000
188388.500,175024.400,584464.100,547347.100,154768.400,149246.500,136721.900,144990.700,-0.137,0.945,-0.323,-1.678,2.380,-1.862,73.333,689.000,1.000,2.446,0.000
188399.000,175039.000,584454.900,547353.700,154830.000,149278.700,136762.200,145042.100,-0.139,0.943,-0.323,-1.648,2.350,-1.801,73.333,690.000,1.000,11.321,0.000
188379.700,175029.100,584408.800,547308.800,154827.000,149273.500,136759.400,145031.800,-0.143,0.945,-0.320,-1.678,2.167,-1.648,73.333,691.000,1.000,3.078,0.000
188369.200,175027.500,584359.600,547242.200,154781.100,149256.500,136732.100,144990.900,-0.143,0.943,-0.325,-1.862,1.892,-1.648,73.333,692.000,1.000,0.005,0.000
188370.000,175018.000,584314.300,547199.600,154745.000,149232.000,136701.500,144961.800,-0.142,0.942,-0.321,-1.831,1.740,-1.343,73.333,693.000,1.000,1.880,0.000
188418.800,175057.400,584330.100,547228.900,154809.600,149274.300,136749.600,145026.100,-0.143,0.941,-0.322,-1.770,1.495,-1.038,73.333,694.000,1.000,8.784,0.000
188435.300,175079.700,584332.800,547248.400,154873.900,149319.000,136794.700,145076.400,-0.141,0.941,-0.323,-1.892,1.404,-0.824,73.333,695.000,1.000,3.128,0.000
188395.300,175044.500,584269.700,547189.800,154841.200,149291.800,136770.200,145038.000,-0.141,0.939,-0.322,-1.892,1.129,-0.580,73.333,696.000,1.000,0.010,0.000
188387.000,175042.100,584216.700,547108.700,154791.500,149270.400,136742.400,144996.100,-0.136,0.935,-0.323,-1.984,1.160,-0.458,73.333,697.000,1.000,1.803,0.000
188367.000,175019.200,584154.300,547046.800,154743.200,149239.300,136702.500,144956.800,-0.135,0.935,-0.326,-1.923,1.068,0.031,73.333,698.000,1.000,18.835,0.000
188372.400,175018.000,584131.600,547048.300,154772.000,149252.900,136721.100,144988.400,-0.129,0.935,-0.327,-2.045,0.946,0.092,73.333,699.000,1.000,3.047,0.000
188389.500,175030.700,584122.800,547060.400,154827.700,149285.300,136760.200,145035.900,-0.131,0.938,-0.329,-1.923,0.854,0.397,73.333,700.000,1.000,0.009,0.000
188388.900,175030.000,584093.500,547033.300,154828.600,149288.600,136764.800,145033.700,-0.127,0.939,-0.333,-2.014,0.793,0.610,73.333,701.000,1.000,1.847,0.000
188378.500,175026.500,584038.300,546956.000,154769.600,149259.300,136724.200,144978.300,-0.130,0.941,-0.334,-2.045,0.732,0.702,73.333,702.000,1.000,2.557,0.000
188419.800,175060.600,584035.600,546954.400,154773.800,149277.300,136733.100,144991.400,-0.128,0.936,-0.334,-2.075,0.763,0.763,73.333,703.000,1.000,11.214,0.000
188410.400,175036.800,583998.400,546938.100,154789.500,149276.100,136743.000,145007.400,-0.124,0.932,-0.332,-2.136,0.824,0.763,73.333,704.000,1.000,2.580,0.000
188380.300,175010.000,583950.000,546913.300,154808.500,149270.900,136749.000,145023.100,-0.121,0.928,-0.330,-2.136,0.916,0.763,73.333,705.000,1.000,2.448,0.000
188366.800,175015.600,583909.600,546872.900,154802.900,149265.000,136744.700,145016.800,-0.119,0.926,-0.330,-2.075,0.916,0.763,73.333,706.000,1.000,2.551,0.000
188354.000,175018.300,583853.500,546804.100,154747.900,149239.600,136710.400,144964.100,-0.122,0.923,-0.329,-1.892,1.160,0.671,73.333,707.000,1.000,2.409,0.000
188343.500,174990.500,583798.600,546754.400,154701.700,149208.900,136676.700,144929.500,-0.125,0.930,-0.331,-1.862,1.312,0.488,73.333,708.000,1.000,2.486,0.000
188354.000,174996.000,583778.100,546750.900,154733.900,149221.100,136692.200,144958.800,-0.132,0.933,-0.333,-1.801,1.221,0.153,73.333,709.000,1.000,2.567,0.000
188369.400,175014.700,583772.900,546760.900,154797.600,149262.600,136740.100,145013.600,-0.133,0.937,-0.334,-1.831,1.160,-0.183,73.333,710.000,1.000,9.344,0.000
188386.700,175032.000,583760.700,546755.400,154816.300,149276.800,136761.900,145027.800,-0.134,0.937,-0.334,-1.709,1.129,-0.641,73.333,711.000,1.000,0.011,0.000
188363.300,175013.700,583694.000,546673.200,154748.800,149230.400,136708.000,144958.400,-0.128,0.938,-0.337,-1.984,1.099,-1.068,73.333,712.000,1.000,1.828,0.000
188359.800,175006.200,583646.200,546619.000,154709.900,149196.800,136674.700,144925.300,-0.124,0.937,-0.333,-1.953,1.129,-1.343,73.333,713.000,1.000,8.817,0.000
188382.700,175018.500,583644.100,546635.200,154758.000,149225.300,136706.300,144969.300,-0.117,0.937,-0.335,-2.014,1.282,-1.526,73.333,714.000,1.000,6.893,0.000
188406.800,175044.000,583651.400,546662.900,154832.700,149271.800,136759.200,145030.700,-0.116,0.939,-0.333,-1.953,1.526,-1.617,73.333,715.000,1.000,0.016,0.000
188401.300,175042.600,583616.500,546632.100,154836.800,149274.900,136769.100,145032.300,-0.113,0.939,-0.332,-2.228,1.770,-1.617,73.333,716.000,1.000,19.263,0.000
188370.000,175018.800,583544.500,546549.400,154769.400,149231.800,136723.500,144968.400,-0.116,0.940,-0.332,-2.258,2.106,-1.495,73.333,717.000,1.000,0.015,0.000
188362.500,175003.600,583497.500,546498.700,154736.200,149213.100,136699.500,144941.800,-0.118,0.941,-0.333,-2.502,2.350,-1.404,73.333,718.000,1.000,0.004,0.000
188370.000,175009.300,583480.300,546505.200,154770.900,149228.800,136717.700,144977.200,-0.123,0.942,-0.328,-2.625,2.686,-1.343,73.333,719.000,1.000,2.514,0.000
188390.000,175030.600,583480.900,546528.000,154838.000,149267.900,136762.900,145031.400,-0.125,0.942,-0.333,-2.869,2.838,-1.282,73.333,720.000,1.000,3.748,0.000
188365.400,175018.500,583432.300,546473.100,154829.300,149262.600,136768.500,145024.000,-0.129,0.940,-0.331,-2.899,2.930,-1.129,73.333,721.000,1.000,0.011,0.000
188354.000,175013.100,583377.300,546401.800,154771.000,149231.700,136726.300,144969.500,-0.132,0.938,-0.330,-2.991,2.960,-1.068,73.333,722.000,1.000,0.007,0.000
188396.900,175051.000,583374.100,546396.000,154774.000,149257.200,136735.500,144977.500,-0.134,0.936,-0.329,-3.052,2.991,-1.007,73.333,723.000,1.000,2.468,0.000
188368.100,175013.000,583311.900,546358.800,154765.100,149227.500,136706.100,144969.300,-0.136,0.934,-0.326,-3.052,2.930,-0.824,73.333,724.000,1.000,2.549,0.000
188384.300,175028.400,583306.600,546385.100,154822.100,149256.900,136743.700,145020.000,-0.136,0.932,-0.331,-3.204,2.777,-0.885,73.333,725.000,1.000,13.724,0.000
188363.800,175008.300,583253.400,546326.800,154802.300,149244.700,136734.000,145000.500,-0.138,0.929,-0.329,-2.991,2.716,-0.824,73.333,726.000,1.000,6.868,0.000
188347.500,174991.600,583190.400,546251.600,154738.400,149210.100,136693.800,144945.100,-0.138,0.928,-0.331,-3.021,2.625,-0.824,73.333,727.000,1.000,0.012,0.000
188353.700,174993.500,583153.000,546215.600,154709.900,149191.000,136672.300,144921.300,-0.140,0.927,-0.325,-2.899,2.625,-0.610,73.333,728.000,1.000,2.485,0.000
188380.100,175013.100,583156.100,546237.800,154760.700,149224.400,136708.000,144970.100,-0.139,0.927,-0.328,-2.991,2.441,-0.519,73.333,729.000,1.000,0.004,0.000
188386.900,175021.400,583144.600,546252.400,154815.900,149253.900,136744.300,145013.100,-0.141,0.930,-0.327,-2.686,2.289,-0.366,73.333,730.000,1.000,1.650,0.000
188371.700,175017.200,583096.100,546196.000,154805.600,149241.800,136742.500,144996.100,-0.139,0.930,-0.327,-2.838,2.197,-0.214,73.333,731.000,1.000,12.714,0.000
188369.300,175022.800,583051.000,546135.100,154764.000,149225.300,136721.500,144955.600,-0.140,0.930,-0.324,-2.625,2.136,-0.122,73.333,732.000,1.000,4.903,0.000
188367.600,175013.200,583007.400,546096.300,154736.800,149209.800,136698.500,144934.300,-0.138,0.931,-0.326,-2.655,1.862,0.000,73.333,733.000,1.000,0.008,0.000
188367.400,175003.300,582975.100,546084.300,154757.500,149211.800,136702.400,144952.000,-0.139,0.935,-0.323,-2.563,1.892,0.214,73.333,734.000,1.000,0.007,0.000
188375.500,175015.900,582961.600,546091.400,154810.500,149240.500,136737.400,144997.100,-0.136,0.937,-0.323,-2.594,1.770,0.305,73.333,735.000,1.000,4.381,0.000
188368.000,175015.400,582926.000,546059.900,154810.700,149243.900,136744.400,144991.600,-0.136,0.939,-0.324,-2.686,1.709,0.488,73.333,736.000,1.000,0.009,0.000
188359.600,175006.200,582876.200,545996.800,154762.200,149226.200,136718.800,144949.700,-0.135,0.937,-0.326,-2.747,1.648,0.610,73.333,737.000,1.000,5.687,0.000
188352.000,174992.700,582827.500,545950.100,154723.300,149203.000,136683.800,144919.300,-0.132,0.938,-0.329,-2.777,1.648,0.671,73.333,738.000,1.000,8.785,0.000
188357.800,174996.100,582803.800,545944.100,154751.800,149209.300,136693.800,144943.700,-0.133,0.937,-0.327,-2.686,1.526,0.793,73.333,739.000,1.000,9.340,0.000
188392.000,175032.600,582817.600,545976.900,154830.600,149265.300,136750.500,145007.100,-0.127,0.938,-0.328,-2.747,1.556,0.916,73.333,740.000,1.000,0.015,0.000
188391.200,175035.500,582791.600,545950.600,154839.300,149272.600,136762.000,145011.500,-0.125,0.936,-0.327,-2.747,1.526,0.946,73.333,741.000,1.000,2.485,0.000
188364.200,175019.800,582723.300,545863.900,154771.200,149231.700,136711.200,144945.500,-0.122,0.934,-0.330,-2.808,1.526,0.885,73.333,742.000,1.000,0.011,0.000
188362.900,175020.800,582679.900,545823.000,154741.300,149215.700,136687.500,144926.800,-0.125,0.931,-0.328,-2.777,1.556,1.068,73.333,743.000,1.000,3.042,0.000
188414.700,175059.700,582704.300,545866.100,154818.100,149275.200,136749.300,145000.100,-0.122,0.931,-0.328,-2.747,1.587,0.946,73.333,744.000,1.000,14.483,0.000
188396.000,175034.900,582667.000,545857.600,154845.700,149276.900,136759.300,145019.100,-0.125,0.931,-0.329,-2.502,1.678,0.854,73.333,745.000,1.000,0.016,0.000
