EEG 1, EEG 2, EEG 3, EEG 4, EEG 5, EEG 6, EEG 7, EEG 8, TRIG
65004.340,65004.340,65004.340,65004.340,65004.340,65004.340,65004.340,65004.340,0.000
256133.600,256133.600,233118.200,256133.600,232956.500,245141.900,256133.600,256133.600,0.000
478678.600,488262.500,386098.400,474752.800,340040.300,417111.800,488262.500,482217.400,0.000
628668.400,668836.700,449090.400,615668.300,248835.500,474288.000,668836.700,639131.300,0.000
701951.400,783576.600,452083.200,690753.400,12644.790,458037.100,783576.600,719601.300,0.000
707911.100,814292.800,425207.000,723377.500,-287793.300,420736.800,825724.900,744840.500,0.000
673823.100,752202.600,416637.400,719630.700,-544280.300,394898.200,804636.900,734728.500,0.000
655247.300,665399.000,465240.400,708017.300,-541161.000,417817.700,761561.300,716282.700,0.000
680055.100,642350.200,567419.900,722602.400,-195545.600,508994.600,741316.600,722643.100,0.000
730861.400,678373.100,684483.000,757399.800,273902.600,638442.400,750834.600,753972.900,0.000
767668.100,720368.000,759707.800,774478.000,638509.400,732825.400,761001.600,773161.300,0.000
764051.900,741070.400,769637.700,755756.600,827296.100,755934.100,749565.100,757238.100,0.000
737353.800,742120.400,747913.100,727234.200,857897.900,743890.800,728439.100,723998.100,0.000
715293.000,729145.100,739752.900,723164.300,796589.900,735514.300,714496.600,695103.600,0.000
691073.500,692995.400,752634.800,741864.800,710823.000,718585.800,694078.300,661067.100,0.000
638457.600,627605.700,752126.600,746136.800,633403.200,660495.400,641682.500,597467.400,0.000
547989.100,539922.300,706228.700,705692.600,553683.100,559771.500,553050.000,499133.000,0.000
441823.600,445475.500,627195.000,632405.800,455091.200,451728.800,451664.000,394134.500,0.000
356772.000,363597.900,549448.000,558862.100,355831.700,373307.400,369182.100,319197.500,0.000
307614.800,305105.900,484629.600,495469.300,291319.400,327849.100,316697.900,280896.000,0.000
277236.400,266203.200,422649.100,431818.000,268851.500,291875.700,280581.900,254559.800,0.000
244395.700,236844.600,361446.900,367607.800,259476.800,250968.700,245770.200,220182.200,0.000
209993.500,212391.600,315961.700,320318.300,235713.900,215759.200,214082.500,185558.200,0.000
190543.800,195960.500,298171.600,302671.000,203826.000,202284.300,197162.000,170169.300,0.000
191912.300,190435.500,299472.700,304553.800,189458.500,207424.900,197124.800,175766.100,0.000
199156.300,191032.300,298936.200,303506.900,199039.100,211374.100,201017.300,182786.100,0.000
194776.200,188862.400,286336.100,289657.700,210345.200,201629.600,195720.200,175086.800,0.000
179269.800,180528.900,270162.700,272948.200,202219.500,185746.500,182483.100,158311.200,0.000
167217.500,170797.200,262396.000,265772.800,180792.000,177969.300,172442.900,148950.700,0.000
166714.300,165452.200,262306.800,266270.000,168429.700,180095.300,171000.100,151691.100,0.000
170222.100,164146.200,259541.500,263047.800,173436.000,181305.900,172038.000,155300.400,0.000
166535.400,161843.700,249087.800,251534.600,181302.400,173930.900,167533.100,149378.900,0.000
155472.800,155750.100,236883.400,238874.100,175998.000,162569.500,157954.800,137420.000,0.000
146381.500,148422.900,230481.800,232919.400,160476.500,156264.400,150303.800,130204.700,0.000
144979.400,143885.000,229304.800,232179.000,150499.000,156559.800,148364.500,131113.100,0.000
146922.500,142546.700,226924.200,229434.900,153111.600,157051.800,148645.900,133218.000,0.000
144880.400,141226.700,220164.000,221877.800,158978.600,152708.100,145945.800,129692.000,0.000
137926.300,137426.100,212211.500,213607.800,156267.500,145530.400,139872.000,122090.600,0.000
131355.900,132131.700,207199.100,208946.200,145650.500,140550.800,134271.500,116720.100,0.000
129124.700,128125.900,204990.800,207053.600,137610.900,139268.100,131812.700,116050.400,0.000
129523.800,126495.600,202526.500,204306.100,138091.000,138885.500,131206.500,116687.400,0.000
128420.500,125617.300,198247.700,199448.800,141954.400,136579.500,129597.200,114748.400,0.000
124446.400,123359.900,193304.200,194293.600,140959.600,132450.300,126035.500,110368.900,0.000
119773.100,119553.300,189212.000,190457.700,134137.900,128444.600,121947.200,106377.400,0.000
116895.300,115950.200,186132.100,187581.800,127703.900,125933.500,119061.900,104461.000,0.000
116030.000,114043.100,183508.700,184735.900,126498.700,124788.000,117692.100,103873.800,0.000
115502.800,113381.600,180994.200,181816.000,128601.600,123884.200,116778.500,103006.900,0.000
113709.800,112205.000,178249.400,178934.900,128733.800,121988.300,115036.200,101001.600,0.000
110511.600,109536.500,174865.500,175719.600,124828.600,118771.700,112114.100,98093.700,0.000
107234.400,106304.700,171188.100,172152.000,119768.000,115428.400,108980.300,95317.550,0.000
105427.800,104203.200,168443.100,169235.100,117355.500,113701.700,107046.700,93814.940,0.000
105231.900,103629.900,167155.700,167681.400,118022.300,113724.800,106569.800,93657.640,0.000
104967.600,103179.800,165963.400,166409.600,118847.000,113398.500,106100.100,93338.960,0.000
102883.900,101362.600,163128.000,163670.200,117107.500,110816.100,104059.900,91265.600,0.000
99413.120,98478.000,159101.500,159680.000,113196.600,106979.400,100829.600,87955.480,0.000
96952.900,96267.700,156291.800,156741.700,109982.000,104849.000,98514.080,85810.520,0.000
96912.390,95704.090,155813.200,156107.900,109519.500,105435.800,98282.320,86082.200,0.000
97658.790,95711.610,155666.600,155926.100,110706.700,106153.300,98654.560,86898.620,0.000
96405.900,94522.020,153273.600,153573.000,110514.800,104087.600,97277.810,85467.990,0.000
92927.250,91973.240,149128.100,149408.900,107564.600,100042.400,94091.020,81907.530,0.000
90081.730,89745.050,146335.300,146521.500,103905.700,97674.690,91569.450,79369.840,0.000
90096.300,89162.740,146367.800,146480.300,102621.000,98566.300,91463.640,79872.380,0.000
91459.570,89438.880,146886.700,146991.700,103942.700,99927.090,92351.770,81389.910,0.000
90806.790,88703.200,144857.600,144955.300,104791.500,98287.840,91461.140,80436.590,0.000
87461.150,86479.970,140776.400,140812.800,102624.100,94267.890,88425.460,76841.850,0.000
84450.550,84314.430,138072.900,138040.000,98803.880,91812.570,85845.760,74117.550,0.000
84455.830,83705.600,138394.100,138348.000,96965.500,92819.880,85786.790,74713.130,0.000
86134.310,84110.980,139289.200,139256.400,98268.390,94511.770,86947.020,76606.700,0.000
85892.630,83687.520,137560.500,137489.400,99763.610,93211.790,86403.770,76007.370,0.000
82766.250,81760.710,133670.700,133513.000,98218.770,89369.050,83587.530,72542.040,0.000
79741.160,79700.910,131097.100,130892.300,94438.910,86925.310,81049.620,69785.230,0.000
79685.110,79056.620,131532.500,131357.000,92256.570,87910.950,80973.550,70367.120,0.000
81453.850,79490.600,132585.100,132435.400,93427.980,89707.990,82217.490,72384.090,0.000
81486.340,79278.730,131112.400,130902.800,95260.230,88687.630,81912.480,72035.230,0.000
78661.940,77639.940,127523.700,127212.000,94209.410,85149.520,79374.070,68820.980,0.000
75768.360,75740.570,125136.600,124793.700,90635.600,82815.060,76974.390,66163.470,0.000
75645.610,75075.550,125582.400,125295.200,88297.620,83697.320,76859.460,66677.020,0.000
77349.020,75469.280,126637.100,126381.500,89277.400,85432.340,78060.350,68641.630,0.000
77530.780,75374.910,125364.100,125035.100,91209.170,84618.230,77897.520,68450.220,0.000
75022.450,73982.410,122116.100,121677.600,90521.380,81436.310,75643.650,65540.690,0.000
72329.670,72258.600,119929.600,119469.500,87243.750,79261.790,73425.470,63050.540,0.000
72130.650,71585.570,120313.500,119922.100,84887.140,79992.750,73255.260,63453.900,0.000
73676.400,71911.270,121281.900,120923.500,85656.050,81569.730,74339.480,65257.370,0.000
73940.290,71889.140,120189.800,119752.600,87537.550,80924.470,74269.150,65175.000,0.000
71770.660,70723.000,117320.200,116775.400,87122.670,78136.540,72316.840,62620.130,0.000
69337.000,69185.370,115348.000,114792.400,84202.760,76157.880,70319.790,60360.420,0.000
69062.660,68508.100,115620.000,115141.000,81926.780,76710.550,70090.840,60640.190,0.000
70378.750,68731.310,116424.900,115979.300,82469.670,78059.910,71002.710,62205.020,0.000
70649.630,68724.250,115466.000,114941.300,84178.460,77533.790,70965.010,62171.700,0.000
68801.360,67747.520,112966.900,112338.900,83944.380,75138.770,69293.220,59970.860,0.000
66652.840,66396.230,111208.700,110573.700,81400.800,73374.770,67526.430,57964.410,0.000
66318.190,65727.980,111351.200,110790.100,79272.360,73747.320,67240.090,58116.830,0.000
67385.480,65846.390,111967.900,111435.700,79602.280,74843.840,67959.710,59411.090,0.000
67632.700,65834.190,111127.600,110519.400,81082.700,74414.930,67932.380,59400.560,0.000
66090.440,65025.730,108993.100,108291.400,80974.180,72408.550,66532.510,57551.780,0.000
64230.110,63855.530,107443.600,106740.100,78810.730,70867.660,65000.950,55811.700,0.000
63841.120,63205.200,107450.000,106816.400,76874.880,71068.590,64664.930,55846.560,0.000
64648.000,63218.300,107863.100,107254.300,77009.700,71902.100,65183.630,56860.180,0.000
64837.000,63175.020,107109.400,106429.400,78219.500,71533.850,65133.530,56839.960,0.000
63565.680,62500.510,105304.000,104539.500,78175.020,69875.800,63967.890,55309.010,0.000
61985.730,61496.900,103948.300,103183.700,76369.790,68545.590,62656.790,53823.910,0.000
61560.330,60873.430,103827.700,103126.800,74653.160,68592.780,62283.300,53753.430,0.000
62120.540,60791.730,104045.900,103367.400,74627.700,69179.430,62617.300,54498.390,0.000
62234.980,60708.620,103362.700,102622.700,75567.940,68855.360,62538.240,54456.180,0.000
61196.020,60143.060,101852.200,101040.400,75552.590,67507.770,61579.680,53211.930,0.000
59872.390,59288.360,100672.000,99861.300,74071.310,66371.020,60470.470,51965.610,0.000
59425.360,58697.780,100438.800,99681.550,72573.630,66283.340,60067.670,51807.460,0.000
59771.110,58538.450,100482.400,99740.550,72411.960,66642.490,60232.360,52308.980,0.000
59816.390,58415.350,99857.590,99059.690,73088.880,66343.210,60114.840,52237.100,0.000
58979.090,57934.290,98602.140,97741.730,73069.860,65261.800,59329.020,51239.810,0.000
57882.320,57203.110,97572.060,96712.130,71869.510,64299.840,58396.500,50203.840,0.000
57414.840,56638.030,97234.520,96418.580,70579.840,64100.660,57970.310,49967.450,0.000
57560.590,56403.880,97115.340,96311.350,70307.130,64258.440,57984.120,50247.500,0.000
57529.930,56238.310,96532.850,95682.250,70745.230,63973.410,57827.470,50140.920,0.000
56864.040,55832.650,95500.310,94598.200,70713.550,63122.950,57192.450,49359.870,0.000
55974.920,55221.480,94610.520,93707.410,69763.180,62321.520,56422.190,48518.180,0.000
55506.050,54694.670,94194.980,93324.540,68672.410,62037.160,55986.880,48227.300,0.000
55486.700,54404.120,93940.940,93077.020,68316.610,62024.070,55874.240,48319.930,0.000
55380.340,54192.910,93386.410,92484.130,68540.380,61739.250,55674.590,48172.300,0.000
54841.070,53830.800,92528.310,91586.240,68475.850,61067.660,55152.810,47559.520,0.000
54118.230,53307.270,91750.130,90808.590,67728.530,60394.690,54513.630,46877.970,0.000
53653.930,52814.050,91274.080,90357.990,66817.100,60045.350,54077.140,46550.810,0.000
53506.330,52485.230,90914.770,90001.980,66405.250,59897.830,53867.160,46497.800,0.000
53341.360,52243.000,90385.760,89440.530,66449.050,59613.920,53633.070,46319.650,0.000
52907.360,51920.970,89670.880,88692.370,66346.030,59088.660,53202.220,45844.660,0.000
52324.580,51474.940,88985.950,88005.610,65762.090,58527.320,52671.750,45295.360,0.000
51870.980,51016.300,88465.690,87502.560,65007.420,58135.950,52239.810,44941.670,0.000
51623.170,50659.040,88024.700,87062.410,64562.050,57883.770,51954.380,44770.040,0.000
51408.380,50386.600,87515.630,86528.880,64462.270,57595.140,51690.480,44561.980,0.000
51054.030,50087.770,86913.050,85902.530,64321.470,57178.770,51327.930,44192.530,0.000
50581.080,49697.370,86301.420,85289.690,63862.720,56703.130,50882.320,43748.110,0.000
50138.680,49267.390,85748.030,84746.930,63235.420,56283.130,50457.590,43377.270,0.000
49814.680,48893.650,85243.960,84240.270,62768.000,55954.580,50116.760,43114.460,0.000
49557.390,48600.360,84746.340,83722.000,62550.230,55662.450,49827.890,42877.450,0.000
49260.200,48319.790,84226.840,83182.950,62369.590,55330.050,49515.520,42583.200,0.000
48876.520,47976.490,83676.630,82629.370,62007.430,54926.070,49138.890,42222.230,0.000
48453.260,47573.720,83108.100,82065.810,61488.900,54490.220,48726.340,41846.520,0.000
48077.360,47187.670,82563.230,81517.170,61016.070,54102.780,48347.030,41520.380,0.000
47788.020,46875.930,82077.920,81016.880,60714.500,53802.680,48040.100,41266.020,0.000
47531.110,46607.100,81622.810,80548.200,60503.290,53528.420,47765.030,41032.470,0.000
47211.690,46299.150,81119.550,80041.070,60211.050,53176.100,47439.300,40737.110,0.000
46803.460,45921.020,80541.980,79463.230,59775.190,52731.690,47037.430,40361.890,0.000
46390.880,45531.960,79968.270,78883.110,59301.150,52305.440,46631.930,39991.330,0.000
46074.020,45206.630,79487.220,78390.020,58932.380,51997.260,46308.540,39717.920,0.000
45838.990,44939.760,79071.350,77964.590,58686.310,51758.460,46053.130,39517.110,0.000
45565.330,44652.830,78601.270,77491.170,58438.420,51443.890,45762.090,39265.090,0.000
45178.060,44295.670,78026.400,76914.610,58069.480,51003.850,45375.410,38897.960,0.000
44754.070,43913.730,77445.110,76328.020,57610.130,50561.920,44962.770,38508.140,0.000
44427.770,43588.630,76976.280,75851.120,57205.850,50254.410,44635.390,38229.790,0.000
44210.910,43330.590,76591.840,75459.780,56938.630,50042.610,44396.040,38054.880,0.000
43970.510,43065.400,76148.600,75011.200,56721.880,49759.260,44131.160,37834.980,0.000
43600.630,42729.040,75580.560,74436.420,56402.020,49330.800,43758.440,37475.570,0.000
43167.770,42351.320,74993.650,73840.860,55954.290,48880.450,43340.010,37069.380,0.000
42827.610,42017.520,74525.340,73365.110,55521.740,48565.830,43003.650,36778.060,0.000
42614.720,41754.540,74154.410,72989.370,55232.880,48362.980,42769.660,36611.320,0.000
42393.690,41496.400,73728.430,72558.400,55032.280,48095.730,42521.420,36410.840,0.000
42042.190,41174.870,73174.230,71996.480,54750.540,47677.070,42164.220,36065.810,0.000
41616.980,40810.530,72598.690,71412.220,54326.060,47229.030,41753.890,35664.210,0.000
41276.250,40482.780,72140.510,70947.610,53886.960,46914.400,41419.210,35372.500,0.000
41065.300,40223.060,71779.760,70582.660,53582.920,46715.910,41187.560,35209.300,0.000
40855.480,39973.490,71366.110,70163.670,53385.590,46462.550,40949.230,35020.370,0.000
40518.100,39663.930,70824.230,69614.030,53124.270,46062.020,40606.390,34688.710,0.000
40098.540,39305.300,70255.200,69038.410,52714.610,45623.810,40205.460,34293.730,0.000
39752.360,38973.510,69795.850,68576.740,52272.400,45306.800,39871.560,34000.740,0.000
39532.900,38706.850,69432.390,68212.110,51957.500,45102.580,39637.520,33834.750,0.000
39323.820,38458.250,69025.200,67799.190,51760.600,44852.930,39403.490,33650.910,0.000
39001.680,38162.290,68502.660,67266.100,51518.240,44469.120,39075.580,33334.870,0.000
38600.890,37821.600,67954.420,66708.410,51132.690,44047.230,38690.450,32955.010,0.000
38262.430,37500.370,67504.520,66254.450,50701.510,43732.090,38361.700,32665.040,0.000
38041.430,37236.630,67142.840,65891.230,50382.870,43522.410,38125.380,32494.740,0.000
37835.160,36991.330,66742.730,65486.540,50181.210,43277.520,37893.500,32313.670,0.000
37526.330,36702.740,66235.700,64971.820,49944.950,42910.680,37576.230,32011.880,0.000
37140.860,36369.500,65701.010,64431.360,49573.750,42502.730,37202.300,31645.940,0.000
36806.710,36049.480,65252.080,63980.860,49150.500,42185.540,36874.700,31355.630,0.000
36578.530,35781.070,64883.320,63610.570,48824.450,41963.330,36629.770,31173.050,0.000
36369.070,35534.760,64484.800,63205.620,48610.650,41715.180,36393.380,30985.540,0.000
36072.700,35256.340,63995.100,62706.040,48376.560,41364.580,36086.720,30694.800,0.000
35706.870,34939.930,63480.830,62184.750,48025.680,40979.130,35732.020,30348.460,0.000
35380.520,34631.230,63038.660,61741.270,47622.870,40670.440,35415.810,30067.150,0.000
35142.400,34362.320,62663.220,61365.710,47298.910,40442.080,35168.710,29878.040,0.000
34922.300,34112.260,62263.410,60961.010,47075.490,40193.380,34929.980,29686.180,0.000
34633.650,33839.550,61791.050,60479.230,46843.380,39859.490,34634.490,29409.470,0.000
34289.190,33537.800,61301.380,59981.250,46513.530,39493.450,34298.450,29085.850,0.000
33976.680,33241.330,60871.590,59547.730,46132.930,39187.760,33991.930,28814.180,0.000
33735.850,32975.510,60494.860,59169.270,45812.570,38947.870,33740.940,28617.870,0.000
33508.800,32723.610,60094.980,58765.390,45576.340,38691.960,33496.330,28418.830,0.000
33224.200,32452.250,59633.090,58297.080,45335.950,38367.330,33205.210,28148.580,0.000
32891.630,32155.530,59155.400,57814.080,45014.350,38016.690,32880.330,27837.440,0.000
32582.960,31861.160,58725.640,57381.740,44647.110,37713.900,32578.230,27567.300,0.000
32336.010,31594.700,58342.800,56995.960,44330.790,37466.990,32323.910,27362.500,0.000
32108.200,31346.750,57948.460,56594.580,44091.820,37213.490,32081.030,27162.930,0.000
31837.320,31086.640,57506.640,56142.480,43855.050,36906.710,31802.960,26908.290,0.000
31524.880,30804.140,57049.050,55675.840,43549.760,36575.040,31494.250,26616.850,0.000
31228.100,30520.130,56626.710,55248.090,43200.880,36277.200,31199.420,26353.320,0.000
30979.430,30256.080,56241.150,54858.410,42888.210,36022.960,30941.040,26139.260,0.000
30746.630,30005.950,55847.420,54458.950,42638.060,35765.260,30692.920,25929.770,0.000
30481.480,29747.070,55417.980,54023.230,42394.440,35467.540,30419.640,25680.120,0.000
30183.440,29470.880,54976.290,53577.910,42099.150,35150.360,30123.600,25404.300,0.000
29894.180,29191.440,54559.600,53160.430,41766.500,34856.900,29836.920,25149.580,0.000
29640.270,28926.070,54169.860,52769.200,41458.540,34594.220,29576.750,24932.410,0.000
29401.760,28674.330,53776.220,52370.520,41200.920,34330.550,29325.990,24721.110,0.000
29142.430,28420.020,53358.020,51945.250,40952.970,34041.250,29059.020,24480.850,0.000
28857.930,28153.060,52929.860,51511.590,40666.580,33737.880,28774.320,24218.100,0.000
28578.080,27882.270,52518.960,51097.700,40349.540,33450.610,28494.240,23968.120,0.000
28324.210,27621.350,52128.190,50704.320,40049.300,33187.930,28233.980,23746.620,0.000
28082.740,27370.520,51735.470,50307.580,39787.490,32927.320,27982.880,23532.330,0.000
27827.140,27118.450,51326.020,49893.290,39535.480,32648.360,27721.910,23299.500,0.000
27553.160,26858.130,50910.070,49473.350,39256.620,32357.980,27448.500,23050.710,0.000
27280.760,26594.820,50505.570,49065.910,38953.110,32076.330,27176.400,22808.000,0.000
27026.060,26338.440,50115.020,48671.500,38658.980,31810.710,26916.610,22582.240,0.000
26782.770,26091.470,49726.280,48276.210,38394.290,31550.230,26664.910,22362.480,0.000
26533.230,25846.120,49329.860,47871.940,38141.230,31281.030,26408.830,22133.280,0.000
26271.150,25593.790,48928.980,47464.800,37870.440,31002.090,26143.460,21894.300,0.000
26007.300,25335.120,48532.600,47064.680,37579.170,30724.590,25876.440,21658.430,0.000
25753.640,25077.960,48143.360,46672.650,37291.180,30456.920,25616.930,21433.730,0.000
25508.990,24827.360,47756.050,46281.610,37023.590,30194.300,25364.310,21214.390,0.000
25263.730,24581.360,47366.290,45887.130,36767.800,29927.760,25111.850,20990.900,0.000
25012.720,24335.100,46975.610,45492.040,36504.480,29656.640,24856.320,20762.500,0.000
24758.680,24085.700,46586.920,45099.910,36227.080,29384.780,24598.890,20534.830,0.000
24507.170,23835.680,46201.200,44710.630,35947.560,29116.030,24342.940,20311.760,0.000
24260.440,23589.550,45817.720,44322.400,35679.320,28851.940,24090.700,20091.820,0.000
24015.540,23347.140,45435.070,43934.250,35420.170,28589.320,23840.040,19870.080,0.000
23768.820,23104.510,45052.380,43546.500,35157.780,28325.410,23587.900,19644.260,0.000
23518.850,22858.040,44668.320,43158.320,34884.990,28058.970,23332.950,19415.840,0.000
23268.200,22609.360,44283.570,42769.540,34608.000,27792.330,23077.710,19188.800,0.000
23021.570,22364.070,43901.590,42382.430,34338.350,27530.540,22826.680,18967.080,0.000
22779.210,22123.710,43523.080,41997.970,34077.800,27272.910,22579.510,18749.530,0.000
22537.470,21885.160,43145.400,41614.970,33818.530,27014.760,22332.600,18532.100,0.000
22293.840,21645.450,42766.750,41232.330,33554.290,26754.640,22084.640,18313.260,0.000
22048.500,21403.750,42387.450,40850.230,33285.990,26494.730,21836.660,18094.200,0.000
21803.430,21161.040,42009.330,40470.270,33019.130,26237.710,21590.300,17877.230,0.000
21560.220,20918.790,41633.590,40093.380,32757.740,25982.970,21346.110,17663.150,0.000
21317.770,20677.730,41259.140,39717.630,32500.480,25726.940,21102.590,17449.150,0.000
21073.770,20437.950,40884.380,39340.790,32242.920,25468.180,20857.940,17232.210,0.000
20828.390,20199.440,40510.150,38963.690,31982.540,25209.340,20612.420,17013.500,0.000
20586.470,19964.060,40140.360,38590.440,31722.570,24956.460,20369.730,16798.530,0.000
20351.880,19733.370,39776.710,38222.830,31468.070,24711.870,20132.470,16590.100,0.000
20121.170,19504.950,39414.720,37856.580,31218.130,24468.820,19897.100,16383.580,0.000
19888.700,19275.700,39050.220,37488.110,30967.460,24220.610,19659.620,16174.090,0.000
19651.300,19042.900,38682.480,37117.120,30710.550,23967.340,19418.870,15960.630,0.000
19410.990,18806.120,38314.230,36746.000,30447.740,23713.570,19176.540,15746.780,0.000
19174.700,18570.190,37950.530,36379.560,30188.240,23464.420,18937.740,15538.790,0.000
18943.210,18337.750,37590.210,36016.470,29937.150,23218.260,18702.990,15334.900,0.000
18710.650,18106.520,37228.130,35651.180,29689.030,22969.030,18467.030,15127.250,0.000
18476.200,17876.170,36866.050,35285.380,29438.020,22717.300,18228.860,14915.650,0.000
18245.760,17649.150,36510.300,34925.910,29185.490,22469.890,17993.170,14707.150,0.000
18022.750,17426.040,36161.630,34574.010,28936.880,22229.040,17762.470,14504.790,0.000
17802.780,17204.120,35813.300,34222.890,28693.890,21989.780,17533.680,14303.530,0.000
17577.960,16979.430,35458.510,33865.540,28450.830,21746.260,17301.760,14096.730,0.000
17345.520,16750.070,35097.750,33502.380,28200.530,21497.940,17065.510,13884.180,0.000
17110.590,16518.450,34737.840,33139.890,27943.890,21251.080,16829.440,13672.770,0.000
16879.440,16288.870,34383.240,32781.960,27689.360,21010.870,16597.830,13468.490,0.000
16652.840,16063.680,34031.890,32426.480,27443.230,20774.430,16370.260,13270.130,0.000
16427.160,15842.160,33680.180,32070.060,27202.800,20535.840,16143.330,13071.910,0.000
16199.560,15621.640,33328.100,31713.040,26960.000,20294.210,15914.410,12870.770,0.000
15972.420,15401.130,32979.620,31360.390,26712.750,20054.360,15685.630,12670.290,0.000
15750.570,15182.900,32637.700,31015.850,26468.300,19820.770,15461.780,12475.440,0.000
15533.030,14967.270,32298.650,30675.130,26231.860,19590.690,15242.340,12284.040,0.000
15313.560,14750.990,31956.260,30330.990,25998.920,19357.530,15021.810,12089.240,0.000
15089.700,14532.190,31610.460,29983.060,25761.770,19120.200,14797.200,11888.920,0.000
14867.140,14313.970,31267.970,29638.070,25520.580,18884.480,14572.150,11689.350,0.000
14651.080,14099.500,30932.200,29299.090,25281.940,18654.440,14351.130,11495.710,0.000
14437.810,13886.600,30597.440,28960.390,25048.100,18425.630,14132.020,11304.000,0.000
14221.350,13672.250,30258.520,28616.950,24815.180,18192.460,13910.660,11108.390,0.000
14000.840,13456.270,29917.250,28271.030,24578.080,17956.180,13686.850,10909.030,0.000
13780.590,13240.600,29578.730,27928.470,24336.940,17723.240,13464.380,10711.590,0.000
13565.310,13027.390,29245.410,27592.190,24097.880,17496.610,13246.710,10520.850,0.000
13354.260,12816.420,28914.390,27258.750,23865.050,17271.980,13032.540,10334.400,0.000
13142.430,12605.720,28581.640,26923.080,23635.520,17044.390,12817.680,10145.750,0.000
12927.220,12393.600,28246.890,26585.030,23403.090,16813.210,12599.790,9952.609,0.000
12712.410,12181.270,27914.000,26249.280,23166.790,16582.580,12381.100,9759.229,0.000
12503.830,11972.390,27586.630,25919.300,22932.620,16357.060,12165.890,9570.633,0.000
12300.260,11766.790,27262.210,25592.120,22704.110,16135.320,11953.880,9385.225,0.000
12093.860,11559.410,26934.210,25261.460,22476.410,15911.000,11739.610,9196.278,0.000
11881.360,11348.080,26601.700,24926.710,22244.130,15681.990,11521.210,9002.363,0.000
11668.360,11136.830,26270.940,24593.880,22009.700,15454.570,11304.140,8810.104,0.000
11460.820,10929.830,25946.390,24267.080,21779.260,15233.480,11093.170,8624.712,0.000
11256.880,10725.940,25624.950,23943.030,21553.850,15014.880,10885.660,8442.810,0.000
11051.360,10522.350,25302.290,23617.310,21329.830,14793.680,10676.770,8258.619,0.000
10842.760,10317.830,24978.330,23290.030,21103.370,14568.730,10464.920,8071.269,0.000
10632.740,10111.710,24654.560,22963.010,20872.700,14341.390,10250.870,7882.832,0.000
10424.720,9905.767,24332.840,22638.130,20641.520,14116.470,10037.890,7696.146,0.000
10221.010,9703.093,24014.300,22316.560,20415.650,13897.610,9829.104,7513.188,0.000
10019.730,9503.655,23697.510,21997.250,20195.420,13682.410,9623.606,7332.923,0.000
9818.081,9305.496,23381.350,21679.330,19976.480,13468.070,9419.233,7153.692,0.000
9615.795,9107.562,23066.690,21363.540,19756.090,13255.490,9215.837,6975.579,0.000
9413.656,8909.461,22753.780,21049.730,19535.210,13044.350,9013.444,6798.572,0.000
9211.613,8710.839,22441.070,20736.140,19315.630,12831.060,8810.690,6621.664,0.000
9008.900,8511.285,22126.960,20420.970,19096.660,12613.680,8606.382,6443.491,0.000
8806.509,8311.946,21812.710,20105.160,18876.930,12395.400,8401.920,6264.169,0.000
8605.774,8113.889,21500.370,19790.530,18656.030,12179.690,8198.727,6084.581,0.000
8405.662,7915.871,21189.200,19476.230,18433.970,11965.310,7995.389,5904.160,0.000
8205.419,7717.585,20878.160,19161.280,18212.590,11750.330,7791.190,5722.891,0.000
8005.449,7520.277,20567.510,18846.630,17993.770,11535.710,7587.569,5542.090,0.000
7806.755,7324.894,20258.530,18534.380,17777.330,11323.650,7386.293,5363.152,0.000
7610.160,7131.426,19952.300,18225.650,17562.120,11115.110,7188.102,5186.888,0.000
7414.789,6938.765,19647.730,17918.970,17346.870,10908.480,6991.617,5012.915,0.000
7219.771,6746.374,19343.570,17612.670,17131.560,10701.400,6794.825,4839.937,0.000
7026.251,6555.419,19040.970,17307.330,16918.000,10494.330,6598.001,4667.445,0.000
6836.139,6367.260,18741.970,17004.910,16707.380,10289.000,6402.857,4496.674,0.000
6649.114,6180.966,18446.020,16705.440,16498.150,10084.420,6209.173,4328.231,0.000
6461.622,5993.268,18149.300,16405.470,16287.430,9878.701,6014.997,4159.984,0.000
6271.291,5802.955,17849.820,16102.960,16075.230,9672.813,5819.951,3990.118,0.000
6079.341,5612.058,17549.420,15799.960,15863.990,9467.389,5624.768,3819.068,0.000
5887.369,5422.224,17250.090,15498.640,15654.400,9261.475,5429.620,3647.629,0.000
5696.076,5233.939,16952.550,15199.500,15445.650,9056.228,5235.390,3476.897,0.000
5506.478,5047.789,16657.340,14902.630,15237.820,8853.533,5043.666,3308.388,0.000
5319.708,4864.310,16364.890,14607.910,15031.730,8653.713,4855.006,3142.649,0.000
5135.002,4682.296,16074.190,14313.800,14826.690,8455.410,4667.594,2977.815,0.000
4950.407,4499.629,15783.590,14019.020,14621.060,8256.587,4479.131,2811.629,0.000
4765.694,4316.124,15493.280,13724.800,14415.050,8057.189,4289.966,2644.732,0.000
4581.342,4132.298,15203.600,13432.330,14209.270,7857.938,4101.111,2478.287,0.000
4396.826,3947.620,14913.700,13140.830,14003.120,7657.923,3911.751,2311.518,0.000
4212.352,3762.677,14623.820,12849.910,13797.040,7457.410,3721.874,2144.361,0.000
4028.406,3578.821,14334.950,12559.720,13591.900,7257.875,3532.580,1977.395,0.000
3843.860,3395.810,14046.540,12269.450,13387.150,7059.269,3343.947,1810.045,0.000
3659.022,3214.300,13759.090,11979.900,13183.720,6862.888,3157.265,1643.740,0.000
3476.352,3036.156,13474.690,11693.490,12983.780,6670.529,2974.392,1481.379,0.000
3295.453,2859.871,13192.340,11409.340,12786.020,6479.749,2793.429,1321.867,0.000
3114.486,2682.809,12909.800,11125.080,12587.690,6287.698,2611.703,1162.415,0.000
2933.943,2505.081,12627.510,10840.930,12388.590,6094.417,2429.132,1002.642,0.000
2753.621,2326.515,12345.450,10557.160,12188.590,5900.096,2245.561,842.312,0.000
2572.863,2146.966,12063.130,10273.730,11987.710,5705.959,2061.730,681.798,0.000
2393.184,1968.546,11782.200,9992.198,11787.900,5514.788,1880.434,523.386,0.000
2215.248,1792.373,11503.310,9712.931,11590.130,5326.545,1702.015,367.483,0.000
2037.638,1617.534,11225.170,9434.098,11393.350,5138.584,1524.112,211.666,0.000
1859.860,1443.626,10947.530,9154.842,11197.130,4950.006,1345.747,54.383,0.000
1682.571,1270.444,10671.020,8875.759,11001.740,4761.057,1167.052,-103.842,0.000
1506.029,1097.266,10395.710,8597.427,10807.190,4571.492,988.034,-261.848,0.000
1330.181,923.924,10121.400,8320.202,10613.790,4381.924,809.456,-418.537,0.000
1156.071,751.814,9848.957,8045.306,10422.680,4194.362,633.128,-572.449,0.000
984.812,582.296,9579.436,7773.770,10234.120,4009.928,459.806,-723.462,0.000
814.779,413.852,9311.160,7503.651,10045.530,3827.046,287.287,-874.477,0.000
643.958,244.472,9041.834,7232.378,9854.382,3643.840,113.401,-1027.877,0.000
472.230,74.241,8771.126,6959.389,9661.027,3460.285,-61.617,-1183.190,0.000
299.885,-96.470,8499.515,6685.221,9466.854,3276.500,-236.905,-1338.963,0.000
127.873,-267.286,8228.461,6411.758,9273.204,3092.103,-411.675,-1493.723,0.000
-41.796,-436.588,7960.580,6141.872,9082.121,2908.605,-584.301,-1645.727,0.000
-208.017,-602.883,7697.279,5877.063,8895.254,2728.163,-753.368,-1793.973,0.000
-372.944,-767.319,7436.301,5615.263,8711.022,2549.759,-920.450,-1940.106,0.000
-540.133,-932.368,7173.862,5352.481,8526.006,2370.397,-1088.972,-2087.193,0.000
-710.036,-1098.302,6909.273,5087.206,8339.193,2189.109,-1260.033,-2236.302,0.000
-880.287,-1263.502,6644.603,4821.072,8152.047,2007.994,-1431.546,-2386.050,0.000
-1048.810,-1426.757,6381.515,4556.243,7966.289,1829.943,-1600.691,-2534.536,0.000
-1214.390,-1587.803,6120.771,4294.033,7782.902,1655.820,-1766.594,-2680.764,0.000
-1376.780,-1747.262,5862.737,4034.770,7601.607,1483.535,-1930.709,-2824.901,0.000
-1537.898,-1907.151,5606.231,3776.946,7420.354,1309.681,-2095.580,-2968.697,0.000
-1699.081,-2068.253,5350.282,3519.244,7238.008,1133.831,-2261.884,-3113.499,0.000
-1858.536,-2227.830,5096.646,3263.425,7057.089,959.730,-2426.449,-3257.329,0.000
-2017.241,-2385.923,4844.577,3009.217,6878.029,787.315,-2588.857,-3400.014,0.000
-2179.585,-2546.438,4589.944,2752.729,6697.320,612.085,-2753.068,-3545.043,0.000
-2346.080,-2709.771,4332.216,2493.414,6514.232,433.951,-2919.612,-3692.711,0.000
-2512.655,-2872.285,4075.055,2235.197,6331.929,257.272,-3084.917,-3839.073,0.000
-2676.407,-3031.639,3821.005,1980.620,6152.866,84.986,-3246.633,-3981.453,0.000
-2838.335,-3189.175,3569.222,1728.064,5976.092,-84.226,-3406.089,-4121.538,0.000
-2999.422,-3346.299,3318.572,1475.809,5799.657,-252.908,-3565.255,-4261.950,0.000
-3159.410,-3503.049,3068.655,1224.008,5622.445,-422.225,-3725.008,-4403.650,0.000
-3318.541,-3659.685,2819.193,973.168,5444.383,-592.405,-3885.521,-4546.045,0.000
-3476.648,-3815.814,2570.876,723.779,5266.729,-762.656,-4045.856,-4687.427,0.000
-3633.096,-3970.309,2324.479,475.889,5090.472,-932.137,-4205.478,-4827.201,0.000
-3787.799,-4122.571,2079.872,229.092,4915.993,-1099.810,-4363.997,-4965.994,0.000
-3941.535,-4273.023,1836.290,-17.273,4743.209,-1264.520,-4520.719,-5104.327,0.000
-4095.184,-4422.912,1592.768,-263.941,4570.870,-1427.301,-4676.449,-5242.699,0.000
-4248.532,-4573.276,1349.031,-510.650,4398.024,-1590.219,-4832.139,-5380.975,0.000
-4401.073,-4724.225,1105.785,-756.161,4225.091,-1753.884,-4987.448,-5518.433,0.000
-4553.016,-4875.230,863.828,-999.574,4052.920,-1918.262,-5141.977,-5654.651,0.000
-4704.629,-5025.570,623.601,-1240.611,3882.316,-2082.970,-5295.348,-5789.104,0.000
-4855.823,-5174.807,385.082,-1479.506,3713.268,-2247.134,-5447.552,-5921.737,0.000
-5006.181,-5322.410,148.192,-1716.712,3545.328,-2409.163,-5598.567,-6053.136,0.000
-5155.863,-5468.184,-87.504,-1953.165,3378.434,-2567.697,-5748.070,-6183.744,0.000
-5304.982,-5612.574,-322.614,-2189.552,3212.692,-2723.750,-5896.385,-6313.706,0.000
-5452.902,-5756.276,-557.198,-2425.692,3047.473,-2879.812,-6044.621,-6443.622,0.000
-5599.742,-5900.408,-791.389,-2661.579,2881.295,-3038.198,-6194.282,-6574.644,0.000
-5746.637,-6046.177,-1025.791,-2897.690,2713.285,-3200.400,-6346.342,-6707.443,0.000
-5894.257,-6193.630,-1260.566,-3134.199,2544.092,-3365.007,-6499.789,-6841.938,0.000
-6041.120,-6340.315,-1493.973,-3369.380,2376.255,-3527.993,-6651.724,-6976.211,0.000
-6185.590,-6484.003,-1724.285,-3601.333,2211.651,-3687.633,-6800.513,-7107.614,0.000
-6328.441,-6625.379,-1952.150,-3830.418,2049.349,-3845.635,-6947.132,-7235.643,0.000
-6471.371,-6766.049,-2179.290,-4058.360,1887.250,-4003.854,-7093.445,-7361.934,0.000
-6614.392,-6906.201,-2406.131,-4286.002,1724.511,-4161.971,-7239.985,-7487.814,0.000
-6756.129,-7045.006,-2631.701,-4512.499,1562.205,-4318.006,-7385.653,-7613.355,0.000
-6896.485,-7182.753,-2855.855,-4737.682,1401.046,-4471.530,-7530.286,-7739.412,0.000
-7037.247,-7321.315,-3080.172,-4963.268,1240.010,-4624.495,-7675.488,-7868.039,0.000
-7179.314,-7461.649,-3305.601,-5190.449,1078.288,-4778.246,-7822.132,-8000.081,0.000
-7320.745,-7602.161,-3530.364,-5417.664,917.276,-4931.830,-7968.654,-8133.399,0.000
-7459.385,-7740.888,-3752.440,-5642.445,758.986,-5083.364,-8112.707,-8264.550,0.000
-7596.135,-7877.955,-3972.678,-5864.907,603.005,-5232.098,-8253.780,-8392.061,0.000
-7733.458,-8014.401,-4192.940,-6086.674,447.715,-5378.751,-8392.644,-8515.859,0.000
-7872.880,-8150.884,-4414.079,-6308.628,292.143,-5525.285,-8530.511,-8636.254,0.000
-8014.759,-8287.877,-4636.331,-6530.947,135.649,-5673.207,-8668.719,-8754.559,0.000
-8157.731,-8424.951,-4858.673,-6752.604,-21.060,-5821.912,-8806.956,-8871.444,0.000
-8299.842,-8561.839,-5079.812,-6972.642,-177.132,-5971.505,-8944.879,-8987.543,0.000
-8440.247,-8698.765,-5299.272,-7190.989,-332.517,-6122.558,-9082.921,-9103.923,0.000
-8578.750,-8835.146,-5516.829,-7407.598,-486.794,-6274.054,-9220.672,-9220.738,0.000
-8715.583,-8970.705,-5732.976,-7623.064,-640.236,-6425.253,-9358.062,-9338.452,0.000
-8850.958,-9105.554,-5948.217,-7838.038,-793.580,-6575.688,-9495.438,-9457.441,0.000
-8984.404,-9238.891,-6161.886,-8052.021,-946.445,-6724.265,-9632.283,-9576.966,0.000
-9116.310,-9370.488,-6373.968,-8265.015,-1098.759,-6870.811,-9768.639,-9697.060,0.000
-9248.350,-9501.568,-6585.994,-8478.314,-1251.629,-7016.053,-9905.396,-9818.540,0.000
-9380.771,-9632.527,-6798.450,-8692.127,-1405.263,-7160.125,-10042.440,-9940.767,0.000
-9513.064,-9763.182,-7010.853,-8906.193,-1559.212,-7303.348,-10179.330,-10062.850,0.000
-9645.716,-9894.023,-7223.249,-9121.025,-1713.492,-7446.156,-10316.070,-10185.210,0.000
-9778.096,-10024.490,-7434.777,-9335.599,-1867.093,-7587.950,-10452.050,-10307.640,0.000
-9909.413,-10153.770,-7644.728,-9548.550,-2019.030,-7728.696,-10587.030,-10429.360,0.000
-10040.770,-10282.620,-7854.187,-9760.296,-2169.975,-7869.130,-10721.800,-10550.240,0.000
-10172.260,-10411.020,-8063.327,-9970.562,-2319.928,-8008.322,-10855.720,-10669.140,0.000
-10302.770,-10538.200,-8271.279,-10178.570,-2468.292,-8145.296,-10987.490,-10784.710,0.000
-10432.610,-10664.840,-8478.453,-10385.110,-2615.701,-8281.195,-11117.340,-10897.130,0.000
-10562.570,-10791.990,-8685.494,-10591.130,-2762.803,-8417.503,-11246.120,-11006.990,0.000
-10692.680,-10920.140,-8892.126,-10796.700,-2909.528,-8555.119,-11374.680,-11114.880,0.000
-10823.180,-11049.270,-9098.396,-11002.080,-3056.008,-8694.046,-11503.390,-11222.060,0.000
-10955.060,-11179.390,-9305.403,-11208.330,-3203.030,-8833.745,-11632.290,-11330.220,0.000
-11087.890,-11309.910,-9512.989,-11415.380,-3350.636,-8973.928,-11761.200,-11440.130,0.000
-11218.800,-11438.710,-9718.581,-11620.790,-3497.205,-9113.379,-11889.030,-11551.060,0.000
-11346.460,-11564.940,-9921.000,-11823.370,-3642.126,-9251.185,-12015.920,-11663.100,0.000
-11471.970,-11689.700,-10121.360,-12024.130,-3786.316,-9388.301,-12143.160,-11776.800,0.000
-11595.530,-11812.990,-10319.740,-12223.160,-3929.631,-9526.037,-12270.590,-11890.530,0.000
-11717.650,-11934.660,-10516.300,-12420.790,-4071.708,-9664.407,-12397.560,-12003.170,0.000
-11840.020,-12055.680,-10712.610,-12618.460,-4212.950,-9801.960,-12523.790,-12115.350,0.000
-11962.890,-12176.220,-10908.980,-12816.090,-4353.015,-9937.256,-12648.600,-12226.630,0.000
-12085.300,-12295.420,-11104.270,-13012.320,-4491.285,-10069.600,-12771.450,-12336.100,0.000
-12207.400,-12413.590,-11298.370,-13207.060,-4628.578,-10199.590,-12893.080,-12444.620,0.000
-12329.440,-12531.770,-11491.910,-13401.060,-4766.085,-10328.660,-13014.800,-12553.060,0.000
-12450.670,-12650.460,-11684.990,-13594.460,-4904.237,-10458.580,-13137.620,-12661.110,0.000
-12570.460,-12769.910,-11877.490,-13787.080,-5043.164,-10590.840,-13261.920,-12768.750,0.000
-12688.330,-12889.180,-12068.680,-13978.480,-5182.067,-10723.560,-13386.200,-12875.680,0.000
-12804.140,-13006.670,-12257.780,-14168.280,-5319.491,-10853.550,-13508.390,-12981.150,0.000
-12918.910,-13122.230,-12445.200,-14356.890,-5455.016,-10980.310,-13627.900,-13084.840,0.000
-13034.260,-13236.810,-12632.040,-14545.240,-5589.510,-11104.920,-13745.150,-13186.990,0.000
-13151.390,-13351.310,-12819.130,-14733.880,-5723.766,-11228.750,-13861.110,-13287.990,0.000
-13271.050,-13466.920,-13007.360,-14923.240,-5858.356,-11353.870,-13977.650,-13388.570,0.000
-13393.470,-13584.990,-13197.780,-15114.170,-5994.354,-11482.010,-14096.550,-13490.350,0.000
-13516.790,-13704.480,-13389.210,-15305.740,-6131.264,-11611.750,-14216.950,-13593.800,0.000
-13637.680,-13822.200,-13578.410,-15495.110,-6266.758,-11740.570,-14336.320,-13696.790,0.000
-13755.550,-13937.550,-13764.630,-15681.560,-6400.647,-11868.970,-14454.300,-13798.130,0.000
-13872.010,-14052.010,-13949.520,-15866.490,-6534.238,-11997.090,-14571.370,-13898.570,0.000
-13987.630,-14166.050,-14133.820,-16050.630,-6667.637,-12123.520,-14687.310,-13998.760,0.000
-14102.480,-14279.800,-14317.730,-16234.330,-6800.521,-12247.830,-14802.440,-14098.730,0.000
-14216.380,-14393.060,-14500.800,-16417.470,-6932.338,-12370.710,-14917.170,-14198.250,0.000
-14329.230,-14505.330,-14682.300,-16599.590,-7062.490,-12493.060,-15031.550,-14297.040,0.000
-14441.380,-14616.330,-14862.220,-16780.460,-7190.979,-12614.480,-15145.150,-14394.740,0.000
-14553.270,-14726.390,-15041.300,-16960.240,-7319.026,-12735.620,-15258.520,-14491.770,0.000
-14664.920,-14836.040,-15220.040,-17139.090,-7447.945,-12857.890,-15372.500,-14589.010,0.000
-14775.540,-14944.880,-15397.910,-17316.490,-7576.967,-12979.570,-15485.840,-14686.140,0.000
-14885.760,-15053.400,-15575.430,-17493.170,-7705.662,-13099.550,-15598.110,-14783.470,0.000
-14997.340,-15162.820,-15754.040,-17670.950,-7834.851,-13219.270,-15710.380,-14882.040,0.000
-15109.540,-15272.290,-15932.920,-17849.310,-7963.596,-13338.600,-15822.100,-14980.280,0.000
-15220.550,-15380.600,-16110.470,-18026.630,-8090.873,-13457.360,-15932.800,-15076.410,0.000
-15330.040,-15487.620,-16286.390,-18202.550,-8217.078,-13575.910,-16042.750,-15171.180,0.000
-15438.040,-15593.460,-16460.770,-18377.150,-8342.559,-13694.160,-16151.660,-15265.730,0.000
-15544.640,-15698.980,-16634.100,-18550.860,-8467.988,-13813.150,-16260.330,-15360.820,0.000
-15650.010,-15804.590,-16806.660,-18723.910,-8593.643,-13933.040,-16369.730,-15456.770,0.000
-15755.150,-15910.290,-16978.790,-18896.540,-8719.112,-14052.630,-16479.680,-15553.100,0.000
-15862.150,-16016.780,-17151.790,-19069.610,-8844.652,-14170.890,-16589.590,-15649.450,0.000
-15971.640,-16124.150,-17326.090,-19243.340,-8970.438,-14286.820,-16698.430,-15745.300,0.000
-16081.700,-16231.090,-17500.140,-19416.270,-9095.558,-14400.660,-16805.560,-15839.610,0.000
-16190.100,-16336.240,-17672.010,-19586.670,-9219.005,-14513.460,-16911.100,-15931.800,0.000
-16296.480,-16439.710,-17841.580,-19754.710,-9341.053,-14625.630,-17015.550,-16022.730,0.000
-16401.600,-16542.570,-18010.020,-19921.920,-9462.947,-14738.260,-17120.060,-16114.210,0.000
-16506.000,-16645.530,-18178.030,-20089.130,-9585.457,-14852.340,-17225.320,-16206.670,0.000
-16610.000,-16748.550,-18345.540,-20256.270,-9708.114,-14966.720,-17330.850,-16299.210,0.000
-16713.790,-16851.380,-18512.410,-20423.260,-9830.201,-15079.860,-17435.840,-16391.500,0.000
-16817.030,-16953.710,-18678.310,-20589.620,-9951.123,-15191.430,-17539.570,-16482.890,0.000
-16919.420,-17055.450,-18843.140,-20754.780,-10070.690,-15302.480,-17641.980,-16572.670,0.000
-17021.200,-17156.920,-19007.590,-20919.090,-10189.630,-15414.210,-17744.130,-16661.690,0.000
-17122.070,-17257.460,-19171.400,-21082.410,-10308.030,-15526.040,-17846.340,-16750.660,0.000
-17221.900,-17356.640,-19333.790,-21244.290,-10425.850,-15637.340,-17948.460,-16839.280,0.000
-17321.200,-17454.770,-19494.820,-21404.910,-10543.480,-15747.910,-18050.400,-16927.260,0.000
-17419.950,-17551.590,-19654.960,-21564.390,-10660.620,-15856.560,-18151.380,-17014.650,0.000
-17518.600,-17647.920,-19815.500,-21723.820,-10778.080,-15964.280,-18252.150,-17102.530,0.000
-17617.250,-17744.860,-19976.820,-21883.830,-10896.730,-16073.780,-18354.190,-17191.410,0.000
-17714.540,-17841.490,-20137.120,-22043.010,-11014.870,-16184.050,-18456.140,-17279.410,0.000
-17811.120,-17937.780,-20296.160,-22201.230,-11131.760,-16293.350,-18557.030,-17366.280,0.000
-17908.950,-18035.110,-20455.470,-22360.180,-11249.030,-16402.380,-18658.190,-17454.370,0.000
-18006.690,-18132.450,-20614.010,-22519.010,-11366.280,-16510.670,-18759.130,-17543.230,0.000
-18101.760,-18227.220,-20769.490,-22675.280,-11481.050,-16616.210,-18857.670,-17630.100,0.000
-18194.840,-18319.430,-20922.420,-22828.910,-11592.960,-16718.710,-18953.480,-17714.710,0.000
-18288.930,-18411.920,-21075.870,-22982.260,-11704.610,-16821.150,-19048.980,-17799.260,0.000
-18385.150,-18506.260,-21231.290,-23136.810,-11817.460,-16925.380,-19145.580,-17884.480,0.000
-18481.630,-18601.160,-21386.970,-23291.550,-11930.020,-17029.420,-19241.840,-17968.750,0.000
-18576.620,-18695.380,-21540.900,-23444.920,-12040.810,-17131.800,-19336.350,-18050.980,0.000
-18670.230,-18788.720,-21692.750,-23596.350,-12149.750,-17232.960,-19429.180,-18131.600,0.000
-18763.260,-18881.400,-21843.350,-23746.330,-12257.770,-17333.950,-19521.410,-18211.470,0.000
-18856.010,-18973.630,-21993.510,-23895.910,-12366.270,-17435.980,-19614.580,-18291.760,0.000
-18948.040,-19065.070,-22143.010,-24045.530,-12475.600,-17538.820,-19708.770,-18373.040,0.000
-19039.080,-19155.160,-22291.430,-24194.680,-12584.850,-17640.980,-19802.630,-18454.650,0.000
-19129.420,-19243.870,-22438.980,-24342.800,-12693.320,-17741.150,-19895.210,-18535.800,0.000
-19219.470,-19331.870,-22586.250,-24489.950,-12801.210,-17839.660,-19986.660,-18616.300,0.000
-19309.190,-19419.740,-22733.520,-24636.490,-12908.540,-17937.670,-20077.360,-18696.160,0.000
-19398.260,-19507.300,-22880.100,-24782.430,-13014.710,-18034.940,-20166.900,-18774.850,0.000
-19487.160,-19594.430,-23025.550,-24927.920,-13119.630,-18130.690,-20255.000,-18852.210,0.000
-19577.020,-19681.720,-23170.790,-25073.750,-13224.130,-18225.620,-20342.220,-18929.070,0.000
-19667.860,-19769.800,-23316.570,-25220.070,-13329.340,-18321.890,-20430.000,-19006.280,0.000
-19757.990,-19857.670,-23461.520,-25365.220,-13434.740,-18419.840,-20518.750,-19083.440,0.000
-19846.490,-19944.110,-23604.360,-25507.950,-13538.910,-18517.450,-20607.320,-19159.910,0.000
-19935.010,-20030.050,-23746.430,-25649.740,-13642.490,-18614.150,-20695.680,-19236.600,0.000
-20024.550,-20116.600,-23889.200,-25792.200,-13746.690,-18710.890,-20784.370,-19314.060,0.000
-20113.670,-20203.150,-24031.860,-25934.470,-13850.810,-18807.540,-20872.800,-19390.660,0.000
-20200.680,-20288.230,-24172.460,-26074.330,-13953.050,-18902.370,-20959.380,-19464.770,0.000
-20285.930,-20371.850,-24310.830,-26211.370,-14053.550,-18995.340,-21044.120,-19537.000,0.000
-20371.630,-20456.260,-24449.540,-26348.220,-14155.070,-19089.460,-21129.720,-19609.980,0.000
-20458.590,-20542.380,-24590.020,-26486.790,-14258.740,-19185.490,-21217.080,-19685.290,0.000
-20545.300,-20628.290,-24730.460,-26626.000,-14362.420,-19279.920,-21303.760,-19761.600,0.000
-20630.640,-20712.450,-24869.310,-26764.060,-14464.240,-19370.780,-21388.200,-19836.920,0.000
-20714.920,-20795.210,-25006.890,-26900.360,-14564.510,-19460.750,-21471.520,-19910.570,0.000
-20799.170,-20877.920,-25144.410,-27036.010,-14664.830,-19553.460,-21555.790,-19983.560,0.000
-20883.460,-20960.680,-25281.920,-27172.070,-14765.790,-19648.640,-21641.290,-20057.010,0.000
-20965.910,-21041.700,-25417.460,-27307.430,-14865.920,-19742.580,-21726.120,-20130.500,0.000
-21046.100,-21120.950,-25550.440,-27441.330,-14964.630,-19833.990,-21809.780,-20203.690,0.000
-21125.860,-21200.260,-25682.450,-27574.690,-15063.060,-19924.610,-21893.440,-20277.050,0.000
-21205.560,-21279.580,-25814.060,-27707.510,-15161.150,-20014.260,-21976.670,-20349.970,0.000
-21284.620,-21358.490,-25945.310,-27839.450,-15258.710,-20102.570,-22058.980,-20421.990,0.000
-21363.380,-21437.910,-26076.830,-27971.240,-15356.970,-20191.620,-22141.420,-20494.020,0.000
-21441.450,-21516.950,-26207.730,-28102.280,-15455.300,-20280.980,-22223.510,-20565.650,0.000
-21518.540,-21594.040,-26336.920,-28231.440,-15551.980,-20367.880,-22303.670,-20635.990,0.000
-21595.780,-21669.800,-26465.300,-28359.310,-15647.340,-20452.300,-22382.410,-20705.830,0.000
-21673.400,-21745.340,-26593.460,-28486.330,-15742.040,-20536.350,-22461.060,-20775.280,0.000
-21751.030,-21821.430,-26721.210,-28612.570,-15836.280,-20621.640,-22540.130,-20843.410,0.000
-21828.610,-21898.240,-26848.650,-28738.430,-15930.290,-20708.080,-22619.220,-20910.410,0.000
-21905.420,-21974.790,-26975.380,-28863.620,-16023.910,-20794.660,-22697.550,-20976.550,0.000
-21980.250,-22049.960,-27100.430,-28987.160,-16116.580,-20880.430,-22774.720,-21041.640,0.000
-22052.500,-22123.200,-27223.110,-29108.460,-16207.550,-20964.180,-22850.360,-21105.600,0.000
-22123.830,-22195.280,-27344.470,-29228.590,-16297.010,-21046.110,-22924.830,-21168.880,0.000
-22196.600,-22267.330,-27466.120,-29349.120,-16385.540,-21127.150,-22998.650,-21232.160,0.000
-22271.300,-22339.920,-27588.760,-29470.660,-16473.720,-21208.130,-23072.130,-21295.980,0.000
-22347.000,-22413.470,-27712.460,-29593.180,-16562.450,-21289.920,-23145.920,-21360.620,0.000
-22421.960,-22486.980,-27835.880,-29715.270,-16651.460,-21371.950,-23219.630,-21425.060,0.000
-22494.900,-22558.970,-27957.500,-29835.430,-16739.980,-21453.320,-23292.700,-21488.000,0.000
-22567.050,-22630.090,-28078.250,-29954.730,-16828.890,-21534.160,-23365.960,-21550.370,0.000
-22640.240,-22702.000,-28199.670,-30075.080,-16919.150,-21615.700,-23440.360,-21613.920,0.000
-22714.260,-22774.960,-28321.450,-30196.380,-17010.130,-21698.910,-23515.470,-21678.670,0.000
-22787.760,-22847.920,-28442.480,-30317.270,-17100.900,-21782.660,-23590.320,-21743.830,0.000
-22860.280,-22920.280,-28562.630,-30437.390,-17191.460,-21865.470,-23664.880,-21809.740,0.000
-22931.900,-22991.700,-28681.890,-30556.640,-17281.560,-21946.730,-23739.020,-21876.040,0.000
-23002.370,-23061.840,-28800.010,-30674.450,-17370.700,-22026.410,-23812.020,-21941.010,0.000
-23072.710,-23131.850,-28918.120,-30791.700,-17459.910,-22105.590,-23884.360,-22004.750,0.000
-23144.360,-23202.670,-29037.260,-30909.530,-17549.840,-22184.740,-23956.620,-22068.250,0.000
-23217.570,-23274.130,-29157.150,-31027.540,-17639.650,-22263.190,-24028.200,-22131.320,0.000
-23291.730,-23345.710,-29277.140,-31144.960,-17728.730,-22340.410,-24098.740,-22193.490,0.000
-23365.500,-23416.560,-29396.250,-31261.320,-17816.680,-22416.410,-24168.500,-22254.620,0.000
-23437.940,-23486.420,-29513.810,-31376.540,-17903.160,-22492.200,-24237.970,-22314.780,0.000
-23508.970,-23555.630,-29629.620,-31490.900,-17988.340,-22569.200,-24307.970,-22374.400,0.000
-23578.130,-23623.740,-29742.870,-31604.170,-18071.960,-22647.530,-24378.340,-22433.830,0.000
-23644.810,-23690.080,-29853.160,-31715.960,-18153.640,-22725.490,-24447.410,-22492.650,0.000
-23709.700,-23755.170,-29961.870,-31826.670,-18234.260,-22801.780,-24514.590,-22550.330,0.000
-23774.070,-23819.910,-30070.560,-31936.460,-18314.850,-22876.720,-24580.820,-22606.970,0.000
-23839.040,-23884.550,-30179.720,-32045.390,-18395.700,-22951.010,-24646.860,-22663.420,0.000
-23904.780,-23948.770,-30289.120,-32153.550,-18476.540,-23024.230,-24712.450,-22720.230,0.000
-23970.210,-24012.380,-30398.390,-32260.700,-18557.070,-23096.250,-24777.360,-22777.040,0.000
-24035.520,-24076.660,-30508.240,-32368.080,-18638.480,-23168.870,-24843.130,-22834.370,0.000
-24101.280,-24142.250,-30618.840,-32476.440,-18721.330,-23242.790,-24910.360,-22892.570,0.000
-24166.310,-24207.160,-30728.410,-32583.890,-18803.500,-23315.060,-24976.320,-22949.630,0.000
-24230.200,-24270.240,-30836.090,-32689.580,-18883.370,-23384.240,-25039.520,-23004.380,0.000
-24293.740,-24332.850,-30942.850,-32794.810,-18962.020,-23453.860,-25102.330,-23058.500,0.000
-24356.770,-24395.960,-31049.230,-32900.250,-19040.860,-23526.140,-25166.710,-23113.490,0.000
-24418.440,-24458.590,-31154.760,-33005.450,-19119.660,-23598.650,-25231.570,-23168.950,0.000
-24478.820,-24519.820,-31259.100,-33109.940,-19197.700,-23669.280,-25295.380,-23223.750,0.000
-24537.920,-24579.300,-31361.730,-33212.540,-19274.040,-23737.570,-25357.000,-23276.160,0.000
-24595.590,-24637.110,-31462.380,-33312.410,-19348.120,-23803.920,-25416.130,-23325.440,0.000
-24653.540,-24694.800,-31562.440,-33411.230,-19421.370,-23870.200,-25474.810,-23373.890,0.000
-24713.700,-24753.630,-31663.160,-33511.090,-19495.430,-23937.180,-25535.050,-23424.170,0.000
-24775.630,-24812.690,-31763.880,-33611.720,-19569.870,-24003.990,-25596.560,-23476.310,0.000
-24838.350,-24870.980,-31864.140,-33712.320,-19643.900,-24070.400,-25658.260,-23529.330,0.000
-24901.230,-24928.540,-31964.300,-33812.640,-19717.790,-24136.590,-25719.580,-23582.560,0.000
-24962.240,-24984.710,-32063.160,-33911.090,-19790.820,-24201.200,-25779.070,-23634.420,0.000
-25019.930,-25038.730,-32159.420,-34006.370,-19861.740,-24263.320,-25835.640,-23683.690,0.000
-25077.190,-25093.600,-32255.810,-34101.420,-19932.980,-24327.000,-25892.350,-23733.020,0.000
-25136.890,-25152.300,-32355.300,-34199.500,-20007.430,-24395.620,-25952.350,-23785.420,0.000
-25197.040,-25212.560,-32456.030,-34299.230,-20083.420,-24465.900,-26013.730,-23839.400,0.000
-25255.190,-25271.120,-32554.990,-34397.780,-20157.980,-24533.680,-26073.380,-23892.060,0.000
-25311.490,-25327.460,-32651.390,-34493.940,-20230.270,-24598.580,-26130.600,-23942.340,0.000
-25367.480,-25382.770,-32746.390,-34588.410,-20301.560,-24662.700,-26186.920,-23991.570,0.000
-25424.320,-25438.600,-32841.770,-34683.000,-20373.980,-24727.950,-26244.180,-24041.960,0.000
-25481.570,-25495.360,-32937.790,-34778.270,-20448.090,-24794.570,-26302.650,-24093.590,0.000
-25537.810,-25551.540,-33032.890,-34872.840,-20522.180,-24860.820,-26360.780,-24144.380,0.000
-25592.650,-25606.140,-33126.290,-34965.720,-20594.850,-24925.220,-26417.530,-24193.320,0.000
-25646.760,-25659.770,-33218.910,-35057.670,-20666.460,-24988.170,-26473.700,-24241.110,0.000
-25700.720,-25713.340,-33311.910,-35149.800,-20737.730,-25050.540,-26530.120,-24288.320,0.000
-25754.870,-25767.040,-33405.200,-35242.210,-20808.580,-25112.710,-26586.610,-24335.120,0.000
-25808.850,-25819.700,-33497.460,-35333.770,-20877.920,-25173.720,-26641.960,-24381.250,0.000
-25861.900,-25870.310,-33587.910,-35423.550,-20945.090,-25232.830,-26695.140,-24426.250,0.000
-25913.240,-25919.530,-33676.850,-35511.540,-21010.630,-25290.970,-26746.500,-24469.970,0.000
-25963.030,-25968.810,-33765.200,-35598.770,-21075.840,-25349.320,-26797.440,-24513.460,0.000
-26012.780,-26019.140,-33853.970,-35686.580,-21142.000,-25408.270,-26849.310,-24558.390,0.000
-26063.970,-26070.860,-33943.680,-35775.350,-21209.660,-25467.650,-26902.440,-24604.990,0.000
-26116.650,-26123.680,-34034.200,-35864.530,-21278.510,-25526.880,-26956.240,-24652.150,0.000
-26169.590,-26176.830,-34124.740,-35952.990,-21347.610,-25585.260,-27009.640,-24698.640,0.000
-26221.790,-26229.590,-34214.360,-36039.850,-21415.950,-25642.600,-27061.770,-24743.800,0.000
-26273.150,-26281.050,-34302.330,-36125.000,-21482.730,-25698.970,-27112.360,-24787.500,0.000
-26323.800,-26330.530,-34388.540,-36208.890,-21547.650,-25754.390,-27161.870,-24830.210,0.000
-26373.630,-26378.440,-34473.570,-36292.190,-21611.420,-25809.520,-27210.930,-24872.520,0.000
-26422.250,-26425.590,-34558.000,-36375.340,-21675.140,-25864.630,-27259.850,-24914.530,0.000
-26469.050,-26471.830,-34641.460,-36457.740,-21738.750,-25919.020,-27308.300,-24955.770,0.000
-26515.230,-26517.660,-34724.450,-36539.750,-21802.410,-25973.070,-27356.680,-24996.820,0.000
-26563.650,-26565.350,-34809.240,-36623.470,-21867.930,-26028.970,-27407.030,-25039.670,0.000
-26614.230,-26615.130,-34896.030,-36708.890,-21935.060,-26086.580,-27458.980,-25084.070,0.000
-26664.680,-26664.910,-34982.810,-36794.180,-22001.540,-26143.460,-27509.840,-25127.760,0.000
-26714.290,-26713.620,-35068.280,-36878.270,-22066.570,-26199.110,-27558.990,-25169.720,0.000
-26763.290,-26760.910,-35151.810,-36960.580,-22130.020,-26253.690,-27606.900,-25210.200,0.000
-26812.300,-26807.280,-35234.020,-37041.400,-22192.010,-26307.410,-27653.910,-25249.930,0.000
-26861.320,-26853.240,-35315.370,-37120.700,-22252.520,-26360.770,-27700.150,-25288.950,0.000
-26909.520,-26898.600,-35395.280,-37198.140,-22311.420,-26413.600,-27745.390,-25326.960,0.000
-26957.010,-26943.920,-35474.300,-37274.930,-22370.030,-26465.230,-27789.990,-25364.720,0.000
-27004.270,-26989.950,-35553.630,-37352.300,-22429.890,-26516.050,-27834.910,-25402.920,0.000
-27051.270,-27036.800,-35633.570,-37430.200,-22491.260,-26568.200,-27881.090,-25441.700,0.000
-27097.810,-27083.850,-35713.330,-37508.070,-22553.040,-26622.070,-27928.340,-25481.150,0.000
-27144.090,-27130.070,-35792.070,-37585.410,-22613.950,-26676.100,-27975.680,-25521.300,0.000
-27190.200,-27174.570,-35869.450,-37661.710,-22673.020,-26728.810,-28022.000,-25561.290,0.000
-27235.150,-27216.660,-35945.070,-37736.130,-22729.500,-26778.900,-28065.880,-25599.340,0.000
-27277.950,-27256.810,-36018.840,-37808.630,-22783.900,-26826.670,-28107.070,-25634.830,0.000
-27319.010,-27296.590,-36091.660,-37880.640,-22838.100,-26873.650,-28147.200,-25669.370,0.000
-27360.020,-27337.540,-36164.960,-37953.790,-22894.000,-26921.490,-28188.500,-25705.480,0.000
-27401.700,-27379.660,-36238.930,-38027.680,-22951.610,-26971.160,-28231.810,-25743.390,0.000
-27443.660,-27422.350,-36313.160,-38101.230,-23009.940,-27022.720,-28276.600,-25781.650,0.000
-27485.430,-27465.400,-36387.820,-38174.450,-23068.490,-27075.150,-28321.700,-25819.610,0.000
-27526.440,-27508.040,-36462.220,-38246.980,-23126.250,-27126.320,-28365.510,-25856.560,0.000
-27566.960,-27549.430,-36535.570,-38318.390,-23182.610,-27175.400,-28407.710,-25892.160,0.000
-27607.220,-27589.120,-36607.650,-38388.510,-23237.480,-27222.230,-28448.370,-25926.530,0.000
-27646.790,-27627.330,-36678.330,-38457.250,-23291.130,-27266.960,-28487.540,-25960.010,0.000
-27685.480,-27665.170,-36747.940,-38525.270,-23344.650,-27311.730,-28526.420,-25993.710,0.000
-27723.550,-27703.110,-36817.020,-38593.330,-23398.460,-27357.780,-28565.640,-26028.110,0.000
-27761.210,-27740.660,-36885.710,-38661.260,-23451.760,-27403.980,-28604.680,-26062.220,0.000
-27798.850,-27777.890,-36954.300,-38728.790,-23504.080,-27449.890,-28643.420,-26095.240,0.000
-27837.320,-27815.770,-37023.490,-38796.250,-23555.950,-27495.790,-28682.340,-26127.640,0.000
-27876.510,-27853.800,-37092.500,-38863.230,-23607.230,-27540.300,-28720.700,-26159.500,0.000
-27915.270,-27890.350,-37159.650,-38928.760,-23657.190,-27582.220,-28757.460,-26189.840,0.000
-27953.270,-27925.520,-37225.040,-38992.960,-23706.420,-27623.110,-28793.170,-26218.480,0.000
-27990.290,-27960.200,-37289.340,-39056.060,-23755.500,-27664.000,-28828.070,-26246.160,0.000
-28026.700,-27995.360,-37353.610,-39118.790,-23804.960,-27705.190,-28862.740,-26274.220,0.000
-28064.270,-28032.360,-37419.660,-39182.840,-23856.080,-27748.090,-28899.290,-26304.500,0.000
-28102.880,-28070.120,-37486.790,-39247.810,-23907.950,-27791.680,-28937.260,-26336.500,0.000
-28141.060,-28106.780,-37553.300,-39312.270,-23959.020,-27834.040,-28974.620,-26368.310,0.000
-28178.250,-28142.690,-37619.280,-39376.210,-24009.690,-27876.050,-29011.610,-26399.650,0.000
-28213.800,-28177.890,-37684.210,-39439.280,-24059.880,-27918.480,-29048.690,-26430.740,0.000
-28248.420,-28212.280,-37747.780,-39501.450,-24109.630,-27960.880,-29085.870,-26462.150,0.000
-28283.770,-28246.400,-37810.730,-39563.520,-24159.490,-28003.050,-29122.980,-26494.050,0.000
-28319.320,-28279.940,-37872.750,-39625.130,-24208.820,-28044.640,-29159.020,-26524.920,0.000
-28354.250,-28312.790,-37933.570,-39685.880,-24257.330,-28085.480,-29193.870,-26554.210,0.000
-28389.350,-28345.780,-37994.310,-39746.530,-24305.800,-28126.080,-29228.270,-26583.100,0.000
-28425.000,-28379.040,-38055.720,-39807.300,-24354.460,-28166.420,-29262.210,-26612.130,0.000
-28459.970,-28411.880,-38117.090,-39867.160,-24402.440,-28205.880,-29295.460,-26640.880,0.000
-28493.140,-28443.820,-38177.480,-39925.340,-24448.910,-28244.550,-29328.270,-26669.150,0.000
-28524.990,-28475.250,-38237.010,-39982.530,-24494.550,-28283.290,-29361.200,-26697.390,0.000
-28556.220,-28506.090,-38295.640,-40039.050,-24539.880,-28321.600,-29393.880,-26724.940,0.000
-28586.290,-28535.580,-38352.720,-40094.230,-24584.100,-28357.750,-29425.010,-26750.580,0.000
-28616.160,-28565.450,-38410.020,-40149.550,-24628.530,-28393.170,-29455.790,-26775.770,0.000
-28647.700,-28598.010,-38469.930,-40206.860,-24675.270,-28430.570,-29488.300,-26802.440,0.000
-28680.900,-28632.570,-38531.660,-40265.380,-24723.660,-28469.900,-29522.090,-26830.290,0.000
-28714.680,-28667.200,-38593.000,-40323.830,-24771.790,-28509.790,-29555.620,-26858.250,0.000
-28747.520,-28700.250,-38652.310,-40381.230,-24818.260,-28548.870,-29587.690,-26885.140,0.000
-28778.960,-28731.560,-38709.540,-40437.310,-24863.080,-28587.080,-29618.340,-26910.990,0.000
-28809.520,-28761.940,-38765.290,-40492.210,-24906.920,-28624.930,-29648.380,-26936.280,0.000
-28839.730,-28791.900,-38820.100,-40546.540,-24950.450,-28662.630,-29678.590,-26961.460,0.000
-28869.930,-28821.440,-38874.680,-40600.890,-24993.950,-28700.080,-29709.080,-26986.950,0.000
-28899.850,-28850.290,-38929.320,-40654.880,-25036.950,-28736.500,-29739.230,-27012.170,0.000
-28928.700,-28878.220,-38983.530,-40707.640,-25078.870,-28771.080,-29768.530,-27036.250,0.000
-28956.000,-28905.050,-39036.460,-40758.740,-25119.640,-28804.190,-29796.860,-27059.390,0.000
-28983.020,-28931.700,-39088.710,-40809.130,-25160.550,-28837.320,-29825.320,-27082.990,0.000
-29010.760,-28958.910,-39141.160,-40859.750,-25202.420,-28871.030,-29854.420,-27107.510,0.000
-29038.950,-28986.570,-39193.790,-40910.550,-25244.950,-28905.400,-29883.830,-27132.200,0.000
-29067.660,-29014.800,-39246.630,-40961.650,-25288.390,-28940.960,-29914.100,-27157.310,0.000
-29097.160,-29043.500,-39299.750,-41013.160,-25332.650,-28977.080,-29945.230,-27183.210,0.000
-29126.700,-29071.700,-39352.340,-41064.180,-25376.250,-29012.040,-29975.450,-27208.820,0.000
-29154.800,-29098.070,-39403.040,-41113.300,-25417.630,-29044.730,-30003.170,-27232.660,0.000
-29181.180,-29122.830,-39451.980,-41160.600,-25457.200,-29075.840,-30028.980,-27254.860,0.000
-29207.710,-29148.300,-39501.720,-41208.450,-25497.570,-29107.540,-30055.280,-27277.740,0.000
-29235.290,-29175.150,-39553.420,-41258.030,-25539.470,-29140.070,-30082.620,-27302.050,0.000
-29262.050,-29201.450,-39604.890,-41307.270,-25580.460,-29171.560,-30109.040,-27325.260,0.000
-29288.180,-29227.760,-39655.840,-41355.930,-25620.730,-29203.250,-30135.180,-27347.330,0.000
-29315.000,-29255.320,-39707.070,-41405.070,-25661.810,-29236.590,-30162.550,-27370.000,0.000
-29341.230,-29282.020,-39756.750,-41452.990,-25701.870,-29269.020,-30189.210,-27392.000,0.000
-29366.090,-29306.350,-39803.890,-41498.570,-25739.530,-29298.890,-30213.490,-27412.140,0.000
-29390.220,-29329.390,-39849.590,-41542.840,-25776.010,-29328.050,-30236.430,-27431.360,0.000
-29413.610,-29352.020,-39894.450,-41586.380,-25812.370,-29358.140,-30259.450,-27450.340,0.000
-29435.700,-29374.150,-39938.320,-41628.950,-25848.240,-29387.850,-30282.350,-27468.900,0.000
-29456.890,-29396.000,-39981.320,-41670.580,-25883.360,-29416.450,-30304.770,-27487.070,0.000
-29478.400,-29417.990,-40024.020,-41711.860,-25918.090,-29445.130,-30327.180,-27505.090,0.000
-29501.130,-29440.380,-40067.410,-41753.850,-25953.020,-29473.710,-30349.910,-27523.350,0.000
-29525.010,-29463.230,-40111.970,-41796.980,-25988.220,-29500.410,-30372.430,-27542.130,0.000
-29548.460,-29485.390,-40156.140,-41839.720,-26022.580,-29524.640,-30393.630,-27560.170,0.000
-29570.260,-29505.940,-40198.540,-41880.950,-26055.960,-29548.450,-30413.930,-27576.570,0.000
-29591.400,-29526.190,-40240.320,-41921.860,-26090.200,-29574.360,-30435.260,-27592.970,0.000
-29613.240,-29547.760,-40283.010,-41963.570,-26126.520,-29602.780,-30458.410,-27610.990,0.000
-29635.720,-29570.230,-40326.180,-42005.520,-26163.530,-29631.340,-30481.720,-27629.870,0.000
-29658.120,-29592.300,-40368.820,-42046.790,-26199.230,-29657.630,-30503.400,-27648.370,0.000
-29680.570,-29614.090,-40411.460,-42087.710,-26233.800,-29681.850,-30523.820,-27666.830,0.000
-29703.840,-29636.700,-40455.210,-42129.230,-26268.720,-29705.820,-30544.420,-27686.060,0.000
-29727.070,-29659.600,-40499.310,-42170.760,-26303.820,-29730.180,-30565.190,-27705.220,0.000
-29749.210,-29681.630,-40542.640,-42211.430,-26338.190,-29755.270,-30585.640,-27723.100,0.000
-29771.640,-29703.430,-40585.940,-42252.050,-26372.500,-29782.400,-30606.670,-27740.210,0.000
-29794.830,-29725.120,-40629.080,-42292.630,-26406.550,-29810.240,-30627.790,-27756.630,0.000
-29817.090,-29745.500,-40670.410,-42331.920,-26439.080,-29836.120,-30647.440,-27772.000,0.000
-29837.730,-29764.590,-40709.650,-42370.100,-26470.530,-29860.310,-30666.040,-27787.660,0.000
-29857.230,-29782.960,-40747.480,-42407.550,-26501.820,-29883.840,-30684.560,-27804.200,0.000
-29876.160,-29801.290,-40784.730,-42444.100,-26533.240,-29907.590,-30703.210,-27820.700,0.000
-29895.050,-29820.380,-40822.280,-42480.000,-26565.170,-29933.090,-30722.600,-27836.950,0.000
-29913.880,-29839.750,-40860.060,-42515.550,-26597.310,-29959.230,-30742.530,-27852.830,0.000
-29932.660,-29858.480,-40897.630,-42550.850,-26629.070,-29983.710,-30761.790,-27867.940,0.000
-29951.220,-29876.290,-40934.470,-42585.550,-26660.230,-30006.510,-30779.780,-27881.940,0.000
-29968.980,-29892.890,-40970.070,-42619.260,-26690.490,-30028.280,-30796.330,-27894.580,0.000
-29985.850,-29908.510,-41004.720,-42652.210,-26720.020,-30049.660,-30811.810,-27906.500,0.000
-30003.100,-29924.930,-41040.160,-42685.540,-26750.390,-30071.900,-30827.950,-27919.490,0.000
-30021.400,-29942.910,-41077.160,-42719.790,-26782.240,-30095.040,-30845.740,-27934.230,0.000
-30039.440,-29960.820,-41114.230,-42754.130,-26813.830,-30117.580,-30864.060,-27949.520,0.000
-30056.550,-29977.530,-41150.290,-42788.020,-26843.780,-30138.640,-30881.590,-27964.570,0.000
-30073.310,-29993.310,-41185.320,-42821.200,-26871.910,-30158.290,-30897.630,-27979.060,0.000
-30089.740,-30008.450,-41219.340,-42853.370,-26898.260,-30177.030,-30911.780,-27992.300,0.000
-30104.820,-30022.300,-41251.760,-42883.920,-26922.580,-30194.540,-30923.580,-28003.540,0.000
-30118.780,-30035.120,-41283.050,-42913.220,-26946.110,-30211.000,-30934.100,-28013.410,0.000
-30133.710,-30049.070,-41315.160,-42942.990,-26971.600,-30228.950,-30946.270,-28023.940,0.000
-30149.980,-30064.720,-41348.250,-42973.450,-26999.460,-30249.750,-30960.830,-28035.310,0.000
-30166.020,-30080.630,-41380.770,-43003.360,-27027.690,-30271.160,-30975.740,-28045.720,0.000
-30181.140,-30095.920,-41412.210,-43032.310,-27055.100,-30291.370,-30989.850,-28054.450,0.000
-30195.840,-30110.570,-41443.110,-43060.720,-27081.430,-30310.700,-31003.300,-28062.340,0.000
-30210.320,-30124.400,-41473.480,-43088.610,-27106.470,-30329.180,-31015.850,-28069.690,0.000
-30224.210,-30137.070,-41502.860,-43115.790,-27130.390,-30346.180,-31027.420,-28076.180,0.000
-30237.520,-30148.560,-41531.400,-43142.810,-27153.900,-30361.890,-31038.770,-28082.540,0.000
-30250.050,-30158.610,-41558.930,-43169.400,-27176.870,-30376.500,-31050.050,-28089.330,0.000
-30262.050,-30167.700,-41585.660,-43195.330,-27199.400,-30390.450,-31061.540,-28097.190,0.000
-30274.440,-30177.130,-41612.680,-43221.350,-27222.580,-30404.390,-31073.950,-28106.990,0.000
-30285.690,-30185.740,-41638.800,-43246.160,-27245.190,-30417.150,-31085.880,-28116.410,0.000
-30295.070,-30192.960,-41663.230,-43269.110,-27266.360,-30429.220,-31096.870,-28123.720,0.000
-30305.480,-30201.580,-41688.430,-43292.910,-27288.470,-30444.130,-31109.230,-28131.440,0.000
-30317.550,-30212.510,-41714.940,-43318.270,-27312.090,-30462.630,-31123.030,-28140.640,0.000
-30329.660,-30224.620,-41741.580,-43343.830,-27336.120,-30482.460,-31136.830,-28150.160,0.000
-30341.450,-30237.450,-41768.440,-43369.110,-27360.330,-30501.900,-31150.000,-28159.550,0.000
-30352.600,-30249.840,-41794.890,-43393.160,-27383.880,-30519.800,-31161.670,-28167.810,0.000
-30362.810,-30260.950,-41820.060,-43415.190,-27406.100,-30536.120,-31171.910,-28174.120,0.000
-30372.890,-30271.490,-41844.720,-43436.130,-27427.730,-30551.730,-31181.910,-28179.230,0.000
-30383.130,-30281.560,-41869.230,-43456.920,-27449.110,-30566.600,-31191.850,-28184.200,0.000
-30393.220,-30290.780,-41893.270,-43478.040,-27470.130,-30580.880,-31201.440,-28190.090,0.000
-30403.620,-30299.830,-41917.460,-43500.240,-27491.390,-30595.720,-31211.260,-28198.100,0.000
-30414.630,-30309.550,-41942.350,-43523.690,-27513.480,-30611.740,-31221.970,-28208.250,0.000
-30425.290,-30319.640,-41967.300,-43547.590,-27536.200,-30628.530,-31233.450,-28219.340,0.000
-30434.290,-30328.990,-41991.190,-43571.050,-27558.920,-30645.190,-31245.070,-28230.180,0.000
-30441.470,-30337.130,-42013.570,-43593.470,-27581.080,-30660.620,-31256.130,-28240.120,0.000
-30447.380,-30344.170,-42034.540,-43614.130,-27602.000,-30673.440,-31265.340,-28248.130,0.000
-30452.510,-30350.400,-42054.360,-43632.640,-27621.240,-30683.740,-31271.970,-28253.350,0.000
-30457.540,-30356.340,-42073.510,-43649.570,-27639.430,-30694.150,-31277.380,-28256.400,0.000
-30463.700,-30363.150,-42093.380,-43666.550,-27658.430,-30707.420,-31284.250,-28259.400,0.000
-30472.360,-30372.070,-42115.560,-43685.390,-27679.630,-30723.350,-31293.490,-28264.340,0.000
-30483.000,-30382.170,-42139.230,-43705.640,-27701.440,-30738.870,-31302.850,-28270.710,0.000
-30493.920,-30391.650,-42162.340,-43725.660,-27721.660,-30751.550,-31310.220,-28276.790,0.000
-30504.010,-30400.010,-42184.090,-43744.660,-27740.230,-30761.510,-31315.750,-28281.550,0.000
-30513.040,-30407.890,-42204.890,-43762.840,-27758.380,-30770.270,-31320.610,-28285.600,0.000
-30521.310,-30415.960,-42225.370,-43781.120,-27777.260,-30779.470,-31326.320,-28290.420,0.000
-30528.440,-30423.910,-42245.350,-43799.680,-27796.740,-30789.900,-31333.690,-28296.070,0.000
-30533.750,-30431.200,-42264.290,-43817.610,-27815.850,-30800.830,-31341.910,-28301.430,0.000
-30537.280,-30437.280,-42281.850,-43833.900,-27833.570,-30810.570,-31348.820,-28305.100,0.000
-30540.400,-30442.070,-42298.490,-43848.990,-27849.780,-30818.980,-31353.360,-28306.850,0.000
-30544.940,-30446.920,-42315.460,-43864.320,-27865.700,-30828.400,-31357.300,-28308.390,0.000
-30550.790,-30452.360,-42332.780,-43879.870,-27881.730,-30839.700,-31361.920,-28310.490,0.000
-30556.150,-30456.800,-42348.980,-43894.290,-27896.720,-30850.460,-31366.080,-28312.280,0.000
-30561.010,-30459.900,-42364.360,-43907.980,-27910.770,-30859.140,-31369.610,-28314.050,0.000
-30566.500,-30462.510,-42380.140,-43922.050,-27924.760,-30865.320,-31372.810,-28316.330,0.000
-30572.110,-30464.700,-42396.000,-43936.170,-27938.630,-30868.990,-31375.160,-28318.180,0.000
-30577.430,-30467.090,-42411.910,-43950.130,-27953.040,-30872.890,-31377.730,-28319.300,0.000
-30583.360,-30471.070,-42428.860,-43964.670,-27969.120,-30880.080,-31382.080,-28321.120,0.000
-30589.240,-30475.900,-42445.930,-43979.290,-27985.730,-30889.740,-31387.290,-28324.190,0.000
-30592.350,-30478.740,-42460.160,-43991.680,-27999.950,-30897.880,-31390.640,-28326.750,0.000
-30592.850,-30479.720,-42471.840,-44001.950,-28012.190,-30904.520,-31392.480,-28328.290,0.000
-30593.220,-30480.880,-42483.370,-44012.000,-28024.840,-30912.270,-31395.010,-28329.450,0.000
-30594.260,-30482.170,-42495.100,-44021.950,-28037.690,-30919.560,-31397.640,-28329.880,0.000
-30596.340,-30483.640,-42507.260,-44032.070,-28050.360,-30925.070,-31399.770,-28329.780,0.000
-30599.760,-30486.100,-42520.640,-44043.140,-28063.410,-30930.770,-31402.320,-28329.790,0.000
-30603.470,-30488.750,-42534.340,-44054.270,-28076.240,-30936.910,-31404.550,-28329.510,0.000
-30605.770,-30489.660,-42546.140,-44063.800,-28087.610,-30941.160,-31404.750,-28328.430,0.000
-30606.780,-30488.770,-42555.770,-44071.910,-28098.190,-30943.670,-31403.640,-28327.600,0.000
-30607.740,-30487.710,-42564.840,-44079.780,-28109.420,-30946.650,-31403.380,-28327.790,0.000
-30608.690,-30487.220,-42574.200,-44087.640,-28121.560,-30950.900,-31404.670,-28328.370,0.000
-30609.630,-30487.650,-42584.380,-44095.900,-28134.690,-30956.300,-31407.170,-28329.220,0.000
-30610.990,-30489.270,-42595.840,-44105.060,-28148.690,-30962.390,-31409.930,-28330.570,0.000
-30612.930,-30491.610,-42608.410,-44114.960,-28162.880,-30968.360,-31411.930,-28332.070,0.000
-30615.720,-30494.230,-42621.570,-44125.490,-28176.860,-30974.280,-31413.300,-28333.220,0.000
-30618.970,-30496.740,-42634.240,-44135.860,-28190.090,-30980.940,-31414.470,-28333.710,0.000
-30621.350,-30498.230,-42645.130,-44144.550,-28201.820,-30987.740,-31415.030,-28333.040,0.000
-30622.430,-30498.510,-42654.380,-44151.450,-28212.340,-30993.310,-31414.620,-28331.330,0.000
-30622.890,-30498.500,-42663.170,-44157.520,-28222.870,-30998.010,-31413.890,-28329.340,0.000
-30623.540,-30499.150,-42672.370,-44163.460,-28234.380,-31003.110,-31413.750,-28327.500,0.000
-30624.840,-30500.440,-42682.130,-44169.860,-28246.850,-31008.570,-31414.280,-28326.050,0.000
-30626.440,-30501.270,-42691.810,-44176.710,-28258.960,-31013.020,-31414.430,-28324.780,0.000
-30627.440,-30500.420,-42700.460,-44183.070,-28269.420,-31015.440,-31413.130,-28322.600,0.000
-30627.490,-30497.990,-42707.830,-44188.630,-28278.710,-31016.610,-31410.940,-28319.540,0.000
-30626.520,-30494.990,-42714.150,-44193.350,-28287.810,-31017.230,-31408.460,-28316.200,0.000
-30624.410,-30492.240,-42719.540,-44196.770,-28296.770,-31018.020,-31405.680,-28312.340,0.000
-30621.460,-30489.990,-42724.270,-44198.950,-28305.330,-31020.000,-31402.730,-28307.420,0.000
-30618.670,-30488.470,-42729.400,-44201.070,-28313.910,-31023.040,-31400.060,-28302.190,0.000
-30617.590,-30488.620,-42736.670,-44205.070,-28323.920,-31027.380,-31399.020,-28298.960,0.000
-30617.860,-30489.650,-42745.460,-44210.820,-28334.960,-31031.760,-31399.080,-28297.450,0.000
-30617.930,-30489.540,-42753.580,-44216.460,-28345.420,-31033.930,-31398.420,-28295.440,0.000
-30617.410,-30487.960,-42760.440,-44221.460,-28355.340,-31034.910,-31397.280,-28292.890,0.000
-30616.710,-30485.690,-42766.350,-44226.000,-28365.160,-31036.970,-31396.440,-28290.430,0.000
-30615.770,-30483.120,-42771.420,-44229.820,-28374.320,-31039.840,-31394.970,-28287.490,0.000
-30614.130,-30480.080,-42775.710,-44232.640,-28382.190,-31042.020,-31391.700,-28283.350,0.000
-30611.980,-30476.500,-42779.400,-44234.480,-28388.760,-31042.340,-31386.810,-28278.330,0.000
-30609.540,-30472.020,-42782.240,-44235.220,-28393.960,-31039.750,-31380.570,-28272.620,0.000
-30606.390,-30466.480,-42783.880,-44234.910,-28397.960,-31034.970,-31373.500,-28266.100,0.000
-30602.580,-30460.720,-42784.950,-44234.680,-28402.120,-31030.300,-31367.020,-28259.620,0.000
-30599.170,-30456.050,-42787.210,-44236.130,-28408.260,-31027.810,-31362.540,-28254.640,0.000
-30596.930,-30452.910,-42791.570,-44239.230,-28416.570,-31027.710,-31359.770,-28251.450,0.000
-30595.150,-30450.340,-42796.650,-44242.190,-28425.210,-31027.610,-31356.800,-28248.610,0.000
-30592.980,-30447.610,-42801.200,-44244.000,-28432.870,-31026.500,-31352.710,-28244.850,0.000
-30590.600,-30445.000,-42805.640,-44245.270,-28440.010,-31025.730,-31348.210,-28240.270,0.000
-30587.900,-30442.090,-42809.740,-44246.320,-28446.800,-31025.310,-31343.410,-28235.050,0.000
-30584.420,-30438.500,-42812.730,-44246.790,-28452.920,-31024.540,-31338.000,-28229.210,0.000
-30580.530,-30434.870,-42814.890,-44247.090,-28458.710,-31023.250,-31332.480,-28223.370,0.000
-30576.010,-30430.870,-42816.220,-44247.360,-28463.960,-31021.030,-31326.830,-28217.790,0.000
-30569.580,-30425.250,-42815.640,-44246.270,-28467.670,-31017.750,-31320.170,-28211.110,0.000
-30561.100,-30418.060,-42813.050,-44243.010,-28469.810,-31014.560,-31312.430,-28202.280,0.000
-30552.860,-30411.120,-42810.420,-44239.340,-28472.310,-31012.840,-31304.720,-28192.820,0.000
-30546.270,-30405.310,-42809.000,-44236.580,-28476.200,-31011.740,-31297.710,-28184.270,0.000
-30539.770,-30399.230,-42807.460,-44233.270,-28480.150,-31009.250,-31290.810,-28176.130,0.000
-30531.390,-30391.270,-42804.030,-44227.550,-28482.450,-31004.300,-31282.900,-28167.110,0.000
-30521.450,-30381.530,-42798.750,-44219.870,-28483.070,-30997.890,-31273.950,-28157.140,0.000
-30511.740,-30371.380,-42793.190,-44212.290,-28483.470,-30992.000,-31265.250,-28147.690,0.000
-30503.160,-30361.850,-42788.490,-44205.950,-28484.780,-30987.570,-31257.610,-28139.690,0.000
-30495.590,-30353.550,-42785.050,-44200.850,-28487.750,-30984.800,-31251.230,-28133.380,0.000
-30488.050,-30346.030,-42782.360,-44196.270,-28492.060,-30982.740,-31245.650,-28127.930,0.000
-30479.260,-30338.060,-42779.430,-44191.180,-28496.280,-30979.920,-31239.850,-28122.050,0.000
-30469.010,-30329.280,-42776.040,-44185.390,-28499.630,-30975.880,-31233.400,-28115.540,0.000
-30458.130,-30320.120,-42772.300,-44179.470,-28502.030,-30970.820,-31226.230,-28108.420,0.000
-30448.680,-30311.780,-42769.070,-44174.470,-28504.240,-30965.290,-31218.700,-28101.060,0.000
-30441.150,-30304.040,-42766.310,-44170.190,-28506.350,-30958.900,-31210.460,-28093.500,0.000
-30433.560,-30295.110,-42762.380,-44164.860,-28507.160,-30950.370,-31200.270,-28084.360,0.000
-30425.080,-30285.110,-42756.970,-44157.950,-28506.600,-30940.730,-31188.380,-28072.910,0.000
-30416.160,-30275.370,-42750.950,-44150.090,-28505.670,-30933.150,-31176.580,-28060.400,0.000
-30407.520,-30266.780,-42745.430,-44142.280,-28505.430,-30929.550,-31166.520,-28048.660,0.000
-30399.940,-30259.360,-42741.340,-44135.520,-28506.110,-30928.110,-31158.160,-28038.660,0.000
-30392.910,-30251.620,-42737.820,-44129.290,-28506.670,-30925.000,-31149.650,-28029.790,0.000
-30385.100,-30242.370,-42733.300,-44122.190,-28506.590,-30919.530,-31140.080,-28020.710,0.000
-30376.010,-30232.300,-42727.840,-44114.010,-28506.700,-30913.750,-31130.200,-28010.840,0.000
-30366.040,-30222.290,-42722.080,-44105.360,-28507.530,-30907.710,-31120.500,-28000.210,0.000
-30355.630,-30212.380,-42715.780,-44096.200,-28508.600,-30900.850,-31111.040,-27989.100,0.000
-30344.840,-30202.240,-42708.350,-44086.010,-28508.880,-30893.190,-31101.100,-27977.620,0.000
-30333.860,-30191.750,-42700.130,-44075.050,-28507.950,-30884.350,-31089.870,-27966.020,0.000
-30323.570,-30181.620,-42692.690,-44064.910,-28507.220,-30875.880,-31078.540,-27955.350,0.000
-30314.550,-30172.250,-42686.950,-44056.540,-28507.710,-30869.320,-31068.200,-27945.900,0.000
-30306.480,-30163.350,-42682.210,-44049.070,-28508.630,-30863.790,-31058.050,-27936.690,0.000
-30298.800,-30154.690,-42677.280,-44041.200,-28509.060,-30858.350,-31047.330,-27926.940,0.000
-30290.670,-30145.550,-42671.050,-44032.060,-28508.240,-30852.050,-31035.540,-27916.130,0.000
-30281.080,-30134.880,-42662.940,-44021.410,-28505.570,-30843.680,-31022.180,-27903.700,0.000
-30269.560,-30122.200,-42653.000,-44009.250,-28501.270,-30832.880,-31007.290,-27889.200,0.000
-30256.760,-30108.410,-42642.050,-43996.090,-28496.470,-30820.810,-30991.940,-27873.570,0.000
-30244.410,-30095.780,-42631.900,-43983.480,-28493.270,-30810.580,-30978.620,-27859.350,0.000
-30232.870,-30084.840,-42622.780,-43971.630,-28491.890,-30802.870,-30967.840,-27847.190,0.000
-30221.300,-30074.080,-42613.270,-43959.340,-28490.560,-30794.680,-30957.270,-27835.350,0.000
-30209.980,-30063.080,-42603.310,-43946.860,-28488.880,-30784.860,-30945.810,-27823.170,0.000
-30198.810,-30051.840,-42593.200,-43934.600,-28487.220,-30774.600,-30933.800,-27811.070,0.000
-30187.180,-30040.520,-42583.090,-43922.490,-28486.040,-30765.690,-30922.390,-27799.600,0.000
-30174.710,-30028.880,-42572.950,-43910.460,-28484.990,-30758.060,-30911.810,-27788.860,0.000
-30160.810,-30015.600,-42561.850,-43897.610,-28482.170,-30749.000,-30899.960,-27777.650,0.000
-30146.120,-30001.000,-42549.950,-43883.790,-28477.380,-30737.620,-30886.020,-27765.430,0.000
-30131.900,-29986.530,-42538.160,-43869.910,-28471.810,-30725.180,-30870.980,-27752.620,0.000
-30118.220,-29972.440,-42526.450,-43856.070,-28465.790,-30712.770,-30855.760,-27739.210,0.000
-30104.540,-29958.390,-42514.440,-43841.700,-28459.620,-30701.150,-30841.040,-27725.000,0.000
-30090.620,-29944.370,-42501.940,-43826.600,-28453.840,-30690.520,-30826.880,-27710.230,0.000
-30076.550,-29930.400,-42488.880,-43811.130,-28448.330,-30679.750,-30812.320,-27695.380,0.000
-30062.780,-29916.870,-42475.820,-43796.200,-28443.420,-30668.750,-30797.540,-27681.340,0.000
-30049.990,-29904.660,-42463.930,-43782.860,-28440.390,-30659.600,-30784.380,-27668.820,0.000
-30038.060,-29893.380,-42453.340,-43770.660,-28438.800,-30651.790,-30772.410,-27656.960,0.000
-30025.970,-29881.510,-42442.980,-43758.050,-28436.660,-30642.060,-30759.360,-27644.110,0.000
-30012.990,-29868.370,-42431.790,-43743.930,-28432.820,-30629.630,-30744.460,-27629.330,0.000
-29999.310,-29854.490,-42419.360,-43728.360,-28427.700,-30616.960,-30728.800,-27613.090,0.000
-29985.610,-29840.740,-42406.070,-43712.360,-28422.280,-30605.570,-30713.430,-27596.770,0.000
-29972.130,-29827.310,-42392.480,-43696.850,-28417.110,-30594.220,-30698.240,-27581.290,0.000
-29958.490,-29814.010,-42378.850,-43681.810,-28412.340,-30581.930,-30683.090,-27566.660,0.000
-29943.680,-29799.870,-42364.330,-43666.090,-28407.130,-30568.940,-30667.610,-27551.910,0.000
-29927.360,-29784.310,-42348.460,-43649.170,-28400.910,-30556.120,-30651.760,-27536.840,0.000
-29910.820,-29768.020,-42332.310,-43631.860,-28394.350,-30543.610,-30635.960,-27522.030,0.000
-29894.900,-29751.520,-42316.500,-43614.450,-28387.870,-30530.480,-30619.910,-27507.440,0.000
-29880.060,-29735.460,-42301.340,-43597.240,-28381.840,-30517.330,-30604.090,-27493.570,0.000
-29866.680,-29720.380,-42286.940,-43580.730,-28376.200,-30505.180,-30589.100,-27480.780,0.000
-29853.860,-29705.390,-42272.270,-43564.340,-28369.620,-30492.370,-30573.570,-27467.730,0.000
-29840.100,-29689.210,-42256.350,-43547.080,-28361.200,-30476.660,-30555.790,-27452.870,0.000
-29825.610,-29672.660,-42240.080,-43529.500,-28352.370,-30459.650,-30536.830,-27436.500,0.000
-29811.370,-29657.280,-42224.750,-43512.730,-28344.900,-30444.920,-30518.970,-27420.080,0.000
-29796.750,-29642.390,-42209.640,-43496.100,-28338.380,-30432.500,-30502.260,-27403.870,0.000
-29780.570,-29626.660,-42193.420,-43478.250,-28331.540,-30419.710,-30485.150,-27387.190,0.000
-29762.840,-29609.910,-42175.710,-43459.000,-28323.810,-30405.630,-30467.060,-27369.720,0.000
-29744.350,-29592.260,-42156.550,-43438.750,-28314.870,-30390.720,-30448.060,-27351.360,0.000
-29725.990,-29574.240,-42136.520,-43417.900,-28304.970,-30375.140,-30428.530,-27332.390,0.000
-29708.520,-29556.960,-42116.930,-43397.050,-28295.250,-30359.020,-30409.260,-27313.410,0.000
-29691.990,-29540.450,-42098.250,-43376.430,-28286.040,-30341.980,-30390.110,-27294.210,0.000
-29676.070,-29524.110,-42080.310,-43355.870,-28276.920,-30325.230,-30370.900,-27274.240,0.000
-29660.640,-29507.920,-42063.110,-43335.140,-28267.920,-30310.630,-30352.350,-27253.500,0.000
-29645.410,-29491.740,-42045.960,-43313.680,-28258.800,-30297.110,-30334.440,-27232.460,0.000
-29630.100,-29475.450,-42028.170,-43291.480,-28249.480,-30283.520,-30317.050,-27212.250,0.000
-29613.950,-29458.490,-42009.340,-43268.930,-28239.840,-30269.070,-30299.880,-27193.520,0.000
-29596.210,-29440.170,-41989.480,-43246.550,-28229.780,-30252.430,-30282.330,-27176.260,0.000
-29577.020,-29420.700,-41969.080,-43224.900,-28219.580,-30234.190,-30264.340,-27160.560,0.000
-29556.820,-29400.460,-41948.110,-43203.550,-28209.080,-30216.200,-30245.890,-27145.230,0.000
-29535.970,-29379.450,-41926.230,-43181.270,-28197.580,-30199.110,-30226.660,-27128.010,0.000
-29514.570,-29357.450,-41903.180,-43157.170,-28184.460,-30182.000,-30206.320,-27108.050,0.000
-29493.050,-29335.070,-41879.500,-43131.760,-28170.270,-30164.320,-30185.270,-27087.050,0.000
-29471.790,-29313.030,-41855.810,-43106.100,-28156.250,-30146.070,-30164.310,-27066.950,0.000
-29450.310,-29291.080,-41831.810,-43080.220,-28142.580,-30127.230,-30143.590,-27047.910,0.000
-29428.810,-29269.600,-41807.800,-43054.020,-28129.490,-30109.170,-30123.560,-27029.650,0.000
-29408.310,-29249.770,-41785.140,-43028.240,-28118.110,-30093.160,-30104.860,-27012.400,0.000
-29388.980,-29231.640,-41764.510,-43003.630,-28108.670,-30078.010,-30086.870,-26995.920,0.000
-29370.010,-29214.110,-41745.200,-42980.280,-28100.120,-30061.830,-30068.770,-26979.570,0.000
-29350.350,-29195.760,-41725.690,-42957.590,-28091.260,-30044.070,-30050.180,-26963.150,0.000
-29330.090,-29176.260,-41705.320,-42935.070,-28081.670,-30025.740,-30031.040,-26946.680,0.000
-29310.880,-29156.820,-41684.910,-42912.910,-28071.800,-30008.670,-30011.990,-26930.190,0.000
-29293.340,-29137.880,-41664.320,-42890.470,-28061.110,-29991.960,-29992.520,-26913.000,0.000
-29276.300,-29118.720,-41642.540,-42866.500,-28048.600,-29973.060,-29971.070,-26894.470,0.000
-29258.820,-29099.290,-41619.860,-42841.350,-28035.260,-29953.220,-29948.600,-26875.210,0.000
-29240.330,-29079.400,-41596.750,-42815.800,-28022.150,-29934.660,-29926.750,-26855.230,0.000
-29220.980,-29058.770,-41573.190,-42789.730,-28009.040,-29916.880,-29905.210,-26833.580,0.000
-29201.830,-29038.130,-41549.650,-42763.390,-27995.860,-29899.530,-29883.870,-26810.550,0.000
-29183.300,-29017.810,-41526.530,-42737.300,-27982.710,-29882.330,-29863.020,-26787.400,0.000
-29164.980,-28997.230,-41503.730,-42711.460,-27969.500,-29864.150,-29841.830,-26764.680,0.000
-29146.370,-28976.040,-41480.910,-42685.700,-27956.350,-29844.850,-29819.730,-26742.640,0.000
-29127.190,-28954.800,-41458.070,-42660.100,-27943.630,-29825.650,-29797.640,-26721.980,0.000
-29107.250,-28934.270,-41435.090,-42634.600,-27931.320,-29807.510,-29776.490,-26702.970,0.000
-29086.360,-28914.500,-41411.520,-42608.760,-27918.940,-29790.070,-29756.020,-26684.950,0.000
-29064.920,-28895.380,-41387.590,-42582.630,-27906.430,-29772.250,-29735.560,-26667.270,0.000
-29043.320,-28876.530,-41363.750,-42556.580,-27893.990,-29753.300,-29714.710,-26649.760,0.000
-29021.410,-28857.200,-41339.610,-42530.270,-27881.550,-29733.700,-29693.640,-26631.690,0.000
-28998.730,-28836.460,-41314.310,-42502.680,-27868.540,-29713.700,-29671.980,-26611.700,0.000
-28975.130,-28813.690,-41287.460,-42473.470,-27854.530,-29692.950,-29648.840,-26589.340,0.000
-28952.250,-28790.730,-41260.820,-42444.850,-27841.000,-29673.470,-29625.800,-26566.670,0.000
-28931.990,-28770.030,-41236.840,-42419.460,-27829.810,-29657.050,-29604.950,-26546.480,0.000
-28912.690,-28750.180,-41214.390,-42395.840,-27819.260,-29641.050,-29584.410,-26527.770,0.000
-28892.540,-28729.040,-41191.280,-42371.390,-27806.790,-29622.330,-29561.850,-26508.400,0.000
-28872.340,-28706.890,-41167.320,-42345.700,-27792.140,-29600.930,-29537.550,-26487.970,0.000
-28852.210,-28684.380,-41142.600,-42318.640,-27776.030,-29578.640,-29512.630,-26466.380,0.000
-28831.160,-28661.810,-41116.930,-42290.090,-27759.180,-29556.500,-29487.630,-26443.790,0.000
-28809.120,-28639.430,-41090.440,-42260.650,-27742.100,-29534.040,-29462.370,-26420.470,0.000
-28787.090,-28617.400,-41063.840,-42231.290,-27725.380,-29511.550,-29437.270,-26396.720,0.000
-28765.420,-28595.470,-41037.340,-42202.230,-27709.210,-29489.580,-29412.700,-26372.830,0.000
-28743.540,-28572.960,-41010.370,-42172.580,-27692.850,-29468.010,-29388.290,-26348.390,0.000
-28720.650,-28549.110,-40982.170,-42141.230,-27675.410,-29446.640,-29363.750,-26322.730,0.000
-28696.760,-28524.020,-40952.720,-42108.520,-27657.150,-29425.280,-29339.210,-26296.440,0.000
-28672.850,-28498.830,-40922.870,-42075.760,-27639.230,-29403.640,-29315.230,-26270.930,0.000
-28648.980,-28474.160,-40893.040,-42043.000,-27621.930,-29382.100,-29292.120,-26246.150,0.000
-28624.690,-28449.820,-40863.390,-42010.040,-27605.020,-29361.120,-29269.470,-26221.530,0.000
-28599.630,-28424.850,-40833.680,-41977.050,-27587.930,-29338.980,-29245.760,-26197.100,0.000
-28573.850,-28398.590,-40803.620,-41944.280,-27570.250,-29314.350,-29220.320,-26173.220,0.000
-28548.340,-28371.940,-40773.880,-41912.520,-27552.810,-29289.400,-29194.560,-26150.600,0.000
-28524.320,-28346.540,-40745.210,-41882.710,-27536.740,-29266.880,-29170.120,-26129.680,0.000
-28502.030,-28322.970,-40717.430,-41854.620,-27521.810,-29246.050,-29146.920,-26110.210,0.000
-28480.070,-28299.880,-40689.240,-41826.470,-27506.520,-29223.700,-29123.210,-26090.910,0.000
-28456.960,-28276.460,-40660.260,-41797.240,-27490.680,-29200.390,-29099.210,-26071.120,0.000
-28432.180,-28253.120,-40631.070,-41767.130,-27475.220,-29178.970,-29076.450,-26051.020,0.000
-28406.350,-28229.980,-40602.100,-41736.500,-27460.110,-29158.750,-29054.240,-26030.380,0.000
-28380.700,-28207.050,-40573.820,-41705.590,-27445.050,-29138.180,-29031.570,-26009.130,0.000
-28355.340,-28183.840,-40545.600,-41674.020,-27429.400,-29116.090,-29007.760,-25987.220,0.000
-28329.830,-28159.760,-40516.300,-41641.500,-27412.210,-29091.690,-28982.310,-25964.610,0.000
-28303.820,-28134.730,-40485.220,-41607.800,-27393.300,-29066.910,-28955.780,-25941.100,0.000
-28276.910,-28108.710,-40452.140,-41572.520,-27373.090,-29043.840,-28928.860,-25916.420,0.000
-28250.270,-28082.950,-40418.990,-41536.940,-27353.390,-29022.740,-28902.710,-25891.920,0.000
-28225.800,-28059.400,-40388.360,-41503.520,-27336.480,-29003.320,-28878.630,-25869.090,0.000
-28203.300,-28038.140,-40360.380,-41472.540,-27322.190,-28984.830,-28856.170,-25847.270,0.000
-28181.420,-28018.030,-40333.920,-41442.950,-27309.080,-28966.130,-28834.080,-25825.760,0.000
-28159.280,-27997.490,-40307.610,-41413.510,-27295.630,-28945.130,-28810.890,-25804.210,0.000
-28136.060,-27974.890,-40279.460,-41382.570,-27280.060,-28920.570,-28785.340,-25781.630,0.000
-28111.870,-27950.210,-40248.790,-41349.590,-27261.930,-28894.670,-28758.530,-25757.950,0.000
-28087.630,-27924.850,-40216.960,-41315.890,-27242.570,-28870.290,-28732.350,-25734.290,0.000
-28063.570,-27899.590,-40185.330,-41282.620,-27223.150,-28846.770,-28706.520,-25711.120,0.000
-28039.100,-27874.190,-40153.890,-41249.520,-27203.720,-28821.840,-28679.710,-25687.580,0.000
-28013.900,-27848.800,-40122.460,-41215.930,-27184.400,-28796.340,-28652.380,-25662.890,0.000
-27988.870,-27824.330,-40091.860,-41182.250,-27166.150,-28773.140,-28626.200,-25637.660,0.000
-27965.150,-27800.970,-40062.640,-41149.400,-27149.300,-28752.200,-28601.340,-25612.930,0.000
-27942.480,-27777.790,-40034.050,-41117.530,-27132.890,-28731.190,-28576.710,-25589.070,0.000
-27919.800,-27753.770,-40005.060,-41086.100,-27115.540,-28708.400,-28551.250,-25565.790,0.000
-27896.340,-27728.670,-39974.810,-41054.290,-27096.790,-28684.420,-28525.050,-25542.740,0.000
-27871.960,-27703.120,-39943.110,-41021.660,-27077.490,-28661.280,-28499.380,-25520.350,0.000
-27846.810,-27677.650,-39910.510,-40988.340,-27058.650,-28638.880,-28474.500,-25498.970,0.000
-27821.000,-27652.390,-39877.610,-40954.390,-27040.800,-28616.290,-28449.980,-25478.220,0.000
-27794.790,-27627.180,-39844.720,-40920.040,-27023.890,-28593.540,-28425.740,-25457.500,0.000
-27768.110,-27600.840,-39811.270,-40885.110,-27006.470,-28569.770,-28400.800,-25435.330,0.000
-27741.240,-27573.140,-39777.380,-40849.880,-26987.480,-28544.680,-28374.260,-25411.040,0.000
-27715.690,-27545.920,-39744.640,-40815.520,-26968.070,-28519.560,-28346.860,-25386.150,0.000
-27691.600,-27519.540,-39713.180,-40781.650,-26948.540,-28493.950,-28318.790,-25361.170,0.000
-27667.670,-27493.140,-39681.780,-40747.090,-26928.160,-28467.130,-28289.710,-25335.570,0.000
-27642.970,-27466.920,-39649.770,-40711.590,-26907.390,-28440.440,-28260.370,-25309.500,0.000
-27617.040,-27441.180,-39616.870,-40675.050,-26886.790,-28414.770,-28231.440,-25282.930,0.000
-27590.270,-27415.750,-39583.320,-40637.820,-26866.470,-28390.100,-28203.350,-25256.120,0.000
-27562.910,-27389.700,-39548.910,-40600.340,-26846.020,-28366.200,-28176.130,-25229.280,0.000
-27533.980,-27361.340,-39512.580,-40561.880,-26824.110,-28341.030,-28148.010,-25201.390,0.000
-27503.920,-27331.310,-39475.220,-40522.960,-26801.080,-28313.900,-28118.650,-25173.090,0.000
-27474.530,-27302.020,-39438.930,-40485.000,-26778.730,-28286.370,-28089.760,-25146.310,0.000
-27446.550,-27274.170,-39404.180,-40447.800,-26757.250,-28258.490,-28061.370,-25120.610,0.000
-27420.040,-27247.420,-39370.600,-40410.700,-26736.090,-28230.250,-28032.620,-25094.380,0.000
-27394.770,-27221.520,-39337.810,-40373.800,-26715.440,-28203.150,-28004.150,-25067.840,0.000
-27370.020,-27196.280,-39305.170,-40337.860,-26695.690,-28178.060,-27977.150,-25042.320,0.000
-27344.750,-27170.930,-39271.840,-40303.110,-26676.460,-28153.490,-27950.710,-25017.640,0.000
-27318.030,-27144.290,-39237.200,-40268.480,-26656.870,-28127.260,-27923.140,-24992.390,0.000
-27289.860,-27116.160,-39201.320,-40232.910,-26636.620,-28099.440,-27894.490,-24966.010,0.000
-27261.720,-27088.030,-39165.450,-40196.940,-26616.720,-28072.150,-27866.160,-24939.650,0.000
-27234.820,-27061.090,-39130.620,-40161.370,-26597.620,-28045.870,-27838.710,-24914.220,0.000
-27208.010,-27034.190,-39095.830,-40125.260,-26577.880,-28018.780,-27810.960,-24888.590,0.000
-27179.640,-27005.960,-39060.050,-40087.700,-26556.580,-27990.190,-27781.860,-24861.950,0.000
-27149.900,-26976.910,-39023.700,-40049.030,-26534.340,-27961.410,-27751.890,-24834.690,0.000
-27120.010,-26948.140,-38987.670,-40010.110,-26512.070,-27933.850,-27722.070,-24806.790,0.000
-27091.350,-26920.240,-38952.700,-39972.040,-26490.200,-27907.230,-27692.670,-24778.400,0.000
-27064.160,-26892.780,-38918.170,-39934.750,-26468.270,-27880.340,-27662.910,-24750.150,0.000
-27037.460,-26865.220,-38882.580,-39896.990,-26445.940,-27853.500,-27632.790,-24722.220,0.000
-27010.890,-26838.150,-38845.870,-39858.580,-26423.940,-27828.120,-27603.790,-24695.030,0.000
-26984.200,-26811.770,-38808.650,-39819.760,-26402.630,-27803.840,-27576.400,-24668.860,0.000
-26956.810,-26785.240,-38771.270,-39780.450,-26381.440,-27779.040,-27549.320,-24642.930,0.000
-26928.740,-26758.120,-38734.340,-39741.230,-26359.970,-27753.350,-27521.510,-24616.530,0.000
-26900.000,-26730.040,-38697.870,-39702.380,-26337.890,-27726.730,-27492.580,-24589.300,0.000
-26870.690,-26700.940,-38661.640,-39663.750,-26315.430,-27699.760,-27463.270,-24561.960,0.000
-26841.920,-26671.990,-38626.210,-39626.180,-26293.610,-27673.980,-27435.060,-24536.300,0.000
-26814.130,-26643.500,-38591.290,-39589.800,-26272.370,-27648.060,-27407.230,-24512.020,0.000
-26785.950,-26614.320,-38555.190,-39552.660,-26250.350,-27619.600,-27377.920,-24486.900,0.000
-26757.050,-26585.000,-38517.770,-39514.110,-26227.560,-27589.990,-27347.780,-24460.810,0.000
-26728.600,-26557.060,-38480.180,-39475.130,-26204.950,-27561.720,-27318.120,-24434.850,0.000
-26700.250,-26529.740,-38441.960,-39435.010,-26181.800,-27534.200,-27288.030,-24407.990,0.000
-26671.210,-26501.410,-38402.770,-39393.430,-26157.520,-27505.620,-27256.550,-24379.610,0.000
-26641.980,-26471.600,-38363.290,-39351.590,-26132.950,-27475.400,-27224.250,-24350.880,0.000
-26612.340,-26440.330,-38323.480,-39309.910,-26108.720,-27444.630,-27192.160,-24322.590,0.000
-26580.910,-26407.870,-38282.990,-39268.130,-26084.840,-27414.780,-27161.160,-24294.990,0.000
-26547.750,-26375.460,-38242.930,-39227.140,-26061.950,-27386.580,-27131.940,-24268.980,0.000
-26514.190,-26344.050,-38204.140,-39187.430,-26040.110,-27359.610,-27104.320,-24244.930,0.000
-26480.850,-26312.910,-38165.520,-39147.650,-26017.390,-27331.850,-27076.520,-24220.970,0.000
-26447.940,-26281.330,-38125.800,-39106.380,-25992.130,-27301.650,-27046.540,-24194.610,0.000
-26415.930,-26249.520,-38084.860,-39063.380,-25964.610,-27268.890,-27013.890,-24165.210,0.000
-26385.380,-26218.120,-38043.660,-39019.700,-25936.750,-27235.330,-26980.260,-24134.500,0.000
-26355.770,-26186.910,-38002.800,-38976.260,-25909.980,-27202.900,-26947.400,-24104.240,0.000
-26326.020,-26155.180,-37962.110,-38933.000,-25884.260,-27171.380,-26915.390,-24074.630,0.000
-26296.290,-26123.590,-37922.110,-38890.030,-25859.630,-27140.980,-26884.430,-24045.770,0.000
-26266.870,-26093.000,-37883.090,-38847.440,-25835.880,-27112.310,-26854.530,-24017.710,0.000
-26237.180,-26063.220,-37844.250,-38804.900,-25811.980,-27084.340,-26824.510,-23989.750,0.000
-26206.910,-26033.950,-37805.010,-38762.340,-25787.460,-27056.140,-26793.590,-23961.260,0.000
-26175.980,-26004.480,-37765.070,-38719.490,-25762.040,-27026.780,-26761.470,-23932.100,0.000
-26143.860,-25973.430,-37723.750,-38675.550,-25735.030,-26995.160,-26727.640,-23901.690,0.000
-26111.380,-25941.130,-37681.930,-38631.400,-25707.290,-26962.080,-26692.980,-23870.380,0.000
-26080.940,-25909.960,-37641.960,-38589.550,-25681.430,-26929.660,-26659.800,-23840.210,0.000
-26052.330,-25880.540,-37603.760,-38549.870,-25657.980,-26898.940,-26628.790,-23811.820,0.000
-26023.880,-25852.340,-37565.960,-38510.620,-25635.720,-26870.810,-26599.370,-23784.790,0.000
-25995.860,-25825.610,-37528.700,-38471.650,-25614.130,-26845.650,-26571.270,-23759.120,0.000
-25967.620,-25798.750,-37490.940,-38432.060,-25591.800,-26820.530,-26542.760,-23733.040,0.000
-25937.170,-25769.030,-37450.630,-38389.910,-25566.730,-26792.190,-26511.580,-23704.050,0.000
-25904.190,-25735.750,-37407.520,-38344.670,-25538.690,-26760.630,-26477.470,-23671.660,0.000
-25870.250,-25700.570,-37363.250,-38298.090,-25509.360,-26727.610,-26442.190,-23637.710,0.000
-25837.690,-25666.330,-37320.450,-38253.250,-25481.530,-26694.790,-26408.000,-23605.330,0.000
-25807.880,-25635.290,-37281.160,-38212.070,-25457.420,-26663.840,-26376.440,-23576.850,0.000
-25779.810,-25607.550,-37244.710,-38173.280,-25436.510,-26635.630,-26347.520,-23551.580,0.000
-25751.470,-25581.160,-37208.260,-38133.700,-25415.830,-26608.870,-26319.560,-23526.450,0.000
-25721.570,-25553.830,-37169.590,-38091.390,-25392.870,-26581.310,-26290.630,-23499.220,0.000
-25689.610,-25524.100,-37128.080,-38046.540,-25366.840,-26551.600,-26259.610,-23469.660,0.000
-25656.160,-25491.920,-37084.460,-38000.610,-25338.610,-26519.930,-26226.750,-23439.100,0.000
-25622.570,-25458.710,-37040.200,-37955.090,-25309.740,-26487.540,-26193.220,-23409.030,0.000
-25589.430,-25425.850,-36996.300,-37910.290,-25280.900,-26455.000,-26159.350,-23379.340,0.000
-25557.290,-25394.780,-36954.190,-37866.590,-25253.280,-26423.740,-26126.000,-23349.910,0.000
-25526.690,-25366.230,-36914.770,-37824.340,-25228.020,-26395.440,-26094.330,-23320.890,0.000
-25495.720,-25337.770,-36875.340,-37781.080,-25202.960,-26367.590,-26062.360,-23290.440,0.000
-25463.500,-25308.070,-36834.050,-37735.680,-25176.780,-26338.320,-26029.090,-23258.580,0.000
-25432.230,-25279.310,-36792.960,-37690.520,-25151.740,-26310.180,-25997.110,-23228.230,0.000
-25401.940,-25251.530,-36752.550,-37646.410,-25127.960,-26283.130,-25966.590,-23199.530,0.000
-25370.790,-25222.750,-36711.100,-37602.520,-25103.380,-26254.200,-25935.610,-23170.690,0.000
-25338.340,-25191.990,-36668.090,-37558.380,-25077.040,-26221.980,-25903.410,-23140.750,0.000
-25304.720,-25159.140,-36623.950,-37513.410,-25049.140,-26187.740,-25870.140,-23109.630,0.000
-25269.750,-25124.700,-36579.180,-37467.240,-25020.670,-26154.050,-25836.750,-23078.110,0.000
-25233.890,-25089.700,-36534.520,-37420.680,-24992.920,-26121.740,-25804.010,-23047.450,0.000
-25198.390,-25055.510,-36490.840,-37375.020,-24966.690,-26090.600,-25772.240,-23018.440,0.000
-25162.960,-25021.930,-36447.140,-37329.520,-24940.570,-26059.490,-25740.370,-22989.540,0.000
-25127.160,-24988.040,-36402.010,-37283.380,-24912.980,-26026.920,-25707.090,-22959.160,0.000
-25091.960,-24954.390,-36356.330,-37237.450,-24885.080,-25994.830,-25673.530,-22928.160,0.000
-25058.080,-24921.940,-36311.560,-37192.320,-24858.360,-25965.980,-25641.420,-22897.510,0.000
-25026.730,-24891.640,-36269.040,-37148.790,-24833.360,-25939.680,-25611.300,-22868.280,0.000
-24998.130,-24863.270,-36228.900,-37106.840,-24809.520,-25913.510,-25582.180,-22841.430,0.000
-24969.810,-24834.700,-36189.020,-37064.210,-24784.570,-25884.870,-25551.500,-22815.190,0.000
-24940.170,-24804.740,-36148.070,-37019.490,-24757.120,-25852.600,-25517.880,-22786.870,0.000
-24910.050,-24774.430,-36106.840,-36973.730,-24728.800,-25818.630,-25482.920,-22756.300,0.000
-24880.210,-24744.550,-36065.840,-36928.070,-24701.240,-25785.180,-25448.030,-22724.830,0.000
-24850.470,-24714.440,-36024.380,-36882.520,-24674.030,-25752.910,-25413.300,-22693.300,0.000
-24820.450,-24683.140,-35981.720,-36836.850,-24646.290,-25721.340,-25378.840,-22661.990,0.000
-24789.380,-24650.260,-35937.320,-36790.660,-24617.360,-25689.120,-25344.330,-22630.560,0.000
-24756.140,-24615.840,-35890.630,-36742.870,-24586.360,-25655.340,-25308.740,-22597.750,0.000
-24721.140,-24580.590,-35842.500,-36693.420,-24553.720,-25619.760,-25271.740,-22563.540,0.000
-24687.120,-24547.030,-35796.340,-36645.130,-24522.540,-25584.600,-25235.680,-22530.490,0.000
-24656.560,-24517.570,-35754.880,-36600.580,-24495.710,-25553.820,-25203.360,-22500.410,0.000
-24629.200,-24491.360,-35717.070,-36559.130,-24472.700,-25527.080,-25174.200,-22472.620,0.000
-24602.900,-24465.470,-35679.910,-36518.670,-24451.000,-25500.540,-25146.010,-22446.070,0.000
-24575.720,-24437.840,-35641.100,-36477.500,-24428.490,-25472.450,-25117.410,-22419.790,0.000
-24546.400,-24407.200,-35599.240,-36434.350,-24403.450,-25442.230,-25086.840,-22392.010,0.000
-24514.890,-24373.830,-35554.820,-36389.300,-24376.080,-25410.440,-25054.100,-22362.450,0.000
-24482.790,-24340.250,-35510.200,-36343.900,-24348.750,-25379.180,-25020.960,-22332.920,0.000
-24451.030,-24308.000,-35466.580,-36298.770,-24322.300,-25348.440,-24987.960,-22304.190,0.000
-24418.840,-24276.460,-35423.180,-36253.430,-24295.620,-25317.080,-24954.660,-22275.530,0.000
-24385.220,-24244.750,-35379.150,-36207.610,-24268.230,-25284.970,-24921.190,-22246.140,0.000
-24350.060,-24212.540,-35334.250,-36161.360,-24240.230,-25251.910,-24887.590,-22215.830,0.000
-24314.010,-24179.290,-35288.270,-36114.680,-24211.350,-25217.120,-24853.320,-22185.270,0.000
-24277.470,-24144.250,-35240.940,-36067.410,-24181.370,-25180.350,-24817.820,-22154.760,0.000
-24240.860,-24107.860,-35192.860,-36019.730,-24151.090,-25143.840,-24781.940,-22124.070,0.000
-24205.080,-24071.760,-35145.340,-35972.200,-24121.520,-25110.170,-24747.090,-22093.360,0.000
-24170.900,-24037.060,-35099.080,-35925.240,-24092.770,-25078.970,-24713.440,-22062.860,0.000
-24138.580,-24004.010,-35054.410,-35879.130,-24064.640,-25048.920,-24680.500,-22032.650,0.000
-24106.720,-23971.230,-35009.990,-35832.470,-24035.730,-25018.620,-24647.280,-22001.810,0.000
-24073.510,-23937.160,-34963.820,-35783.570,-24004.640,-24986.380,-24612.560,-21969.370,0.000
-24039.970,-23903.160,-34917.110,-35733.890,-23973.070,-24952.500,-24577.110,-21936.730,0.000
-24007.530,-23870.620,-34871.630,-35685.310,-23942.960,-24918.320,-24542.130,-21905.210,0.000
-23976.110,-23839.220,-34827.470,-35637.980,-23914.560,-24885.350,-24508.040,-21874.750,0.000
-23945.880,-23809.130,-34784.960,-35592.200,-23888.270,-24855.040,-24475.520,-21845.710,0.000
-23915.980,-23779.720,-34743.560,-35547.510,-23863.380,-24826.810,-24444.490,-21818.130,0.000
-23884.050,-23748.550,-34700.930,-35501.780,-23837.220,-24796.920,-24412.450,-21790.340,0.000
-23848.750,-23713.770,-34655.270,-35453.060,-23807.300,-24761.530,-24376.430,-21759.550,0.000
-23811.870,-23677.100,-34607.750,-35402.210,-23774.330,-24722.280,-24337.310,-21725.180,0.000
-23776.790,-23642.130,-34561.390,-35352.290,-23741.530,-24684.210,-24298.440,-21689.440,0.000
-23745.180,-23610.350,-34517.750,-35304.850,-23710.880,-24649.240,-24261.200,-21653.440,0.000
-23716.500,-23580.870,-34476.380,-35259.170,-23682.350,-24617.000,-24225.140,-21616.940,0.000
-23688.230,-23551.370,-34435.140,-35213.500,-23654.240,-24586.160,-24189.270,-21580.160,0.000
-23656.660,-23518.550,-34390.610,-35165.620,-23623.820,-24553.270,-24151.830,-21543.400,0.000
-23622.320,-23482.980,-34343.280,-35116.610,-23592.110,-24517.800,-24114.010,-21509.030,0.000
-23589.360,-23448.920,-34297.590,-35070.290,-23563.360,-24482.870,-24079.470,-21479.670,0.000
-23558.260,-23417.540,-34254.570,-35026.600,-23538.130,-24449.760,-24048.590,-21453.150,0.000
-23526.400,-23386.710,-34211.500,-34982.170,-23513.430,-24417.820,-24018.610,-21425.330,0.000
-23492.790,-23354.780,-34166.760,-34935.510,-23487.140,-24385.910,-23987.260,-21394.760,0.000
-23459.120,-23322.290,-34121.720,-34888.510,-23459.930,-24353.880,-23954.720,-21363.380,0.000
-23426.320,-23289.940,-34077.400,-34842.390,-23432.760,-24322.340,-23921.790,-21332.880,0.000
-23393.740,-23257.360,-34033.010,-34796.390,-23405.230,-24291.040,-23888.290,-21302.510,0.000
-23361.130,-23224.530,-33988.340,-34750.320,-23377.220,-24258.870,-23854.230,-21271.310,0.000
-23328.310,-23191.470,-33943.390,-34703.970,-23348.540,-24225.050,-23819.780,-21239.050,0.000
-23294.640,-23157.520,-33897.280,-34656.450,-23318.180,-24189.360,-23784.410,-21205.490,0.000
-23259.540,-23121.670,-33848.910,-34607.010,-23285.170,-24151.400,-23747.190,-21170.530,0.000
-23223.340,-23084.040,-33798.390,-34555.910,-23249.990,-24111.850,-23708.140,-21135.280,0.000
-23187.280,-23046.050,-33747.530,-34504.770,-23214.580,-24072.230,-23668.550,-21101.590,0.000
-23152.220,-23009.200,-33698.210,-34455.210,-23180.740,-24034.100,-23630.010,-21069.940,0.000
-23118.070,-22973.630,-33650.640,-34406.950,-23148.660,-23998.040,-23593.100,-21038.990,0.000
-23084.160,-22938.510,-33603.770,-34358.670,-23117.600,-23963.770,-23557.450,-21007.640,0.000
-23050.610,-22904.110,-33557.640,-34310.640,-23087.930,-23931.860,-23523.440,-20976.720,0.000
-23017.790,-22870.800,-33512.510,-34263.450,-23059.760,-23901.240,-23491.030,-20947.110,0.000
-22985.050,-22837.760,-33467.190,-34215.720,-23031.600,-23868.660,-23458.190,-20917.730,0.000
-22951.970,-22804.880,-33420.850,-34166.460,-23002.680,-23833.400,-23423.670,-20887.270,0.000
-22918.580,-22772.530,-33373.650,-34116.270,-22973.250,-23797.490,-23388.040,-20855.290,0.000
-22884.720,-22740.100,-33325.950,-34065.950,-22943.360,-23762.280,-23352.070,-20821.830,0.000
-22850.950,-22707.520,-33278.970,-34016.720,-22913.700,-23729.620,-23317.380,-20788.030,0.000
-22817.190,-22674.320,-33232.890,-33968.540,-22884.130,-23699.530,-23283.910,-20754.360,0.000
-22782.330,-22638.990,-33185.970,-33919.630,-22852.930,-23667.980,-23248.800,-20720.040,0.000
-22746.920,-22602.290,-33138.040,-33869.820,-22820.490,-23633.290,-23211.790,-20686.350,0.000
-22712.000,-22565.780,-33089.950,-33820.090,-22788.220,-23596.290,-23174.570,-20654.870,0.000
-22678.400,-22530.780,-33042.660,-33771.440,-22757.270,-23558.540,-23138.520,-20625.450,0.000
-22646.450,-22497.860,-32996.700,-33724.110,-22727.920,-23521.170,-23103.650,-20596.710,0.000
-22614.490,-22465.220,-32950.820,-33676.630,-22698.210,-23483.870,-23068.260,-20565.940,0.000
-22581.790,-22431.940,-32904.640,-33628.640,-22667.570,-23447.940,-23032.500,-20532.350,0.000
-22548.040,-22397.640,-32858.130,-33579.870,-22636.300,-23413.120,-22996.220,-20497.120,0.000
-22512.950,-22362.040,-32811.160,-33529.940,-22604.510,-23377.430,-22958.660,-20462.000,0.000
-22478.590,-22327.390,-32765.540,-33480.950,-22574.520,-23342.730,-22922.420,-20429.770,0.000
-22445.840,-22294.840,-32721.510,-33433.610,-22547.390,-23310.760,-22889.320,-20400.900,0.000
-22412.540,-22262.400,-32676.570,-33385.660,-22520.670,-23279.600,-22857.140,-20372.810,0.000
-22377.740,-22229.130,-32629.640,-33336.380,-22492.480,-23247.760,-22823.990,-20343.780,0.000
-22342.350,-22195.690,-32581.430,-33286.830,-22462.880,-23215.480,-22789.740,-20313.420,0.000
-22306.600,-22161.940,-32532.310,-33237.370,-22432.220,-23183.160,-22754.520,-20281.840,0.000
-22270.030,-22127.030,-32482.330,-33187.500,-22400.340,-23150.000,-22718.030,-20248.930,0.000
-22233.120,-22090.790,-32432.440,-33137.330,-22367.650,-23114.700,-22680.430,-20215.090,0.000
-22196.550,-22053.580,-32383.380,-33087.150,-22335.000,-23077.160,-22642.640,-20181.550,0.000
-22160.740,-22016.470,-32335.420,-33037.340,-22303.680,-23040.200,-22606.230,-20149.380,0.000
-22125.510,-21980.470,-32288.230,-32987.910,-22274.030,-23006.020,-22571.520,-20118.130,0.000
-22089.860,-21945.560,-32240.630,-32937.910,-22244.570,-22972.810,-22536.690,-20086.210,0.000
-22054.040,-21912.200,-32192.530,-32887.300,-22214.870,-22939.900,-22501.740,-20053.730,0.000
-22018.370,-21879.620,-32143.820,-32836.030,-22184.440,-22906.570,-22466.740,-20020.770,0.000
-21983.000,-21846.260,-32094.370,-32784.410,-22152.740,-22870.670,-22430.770,-19987.170,0.000
-21948.950,-21812.340,-32045.490,-32734.270,-22121.160,-22832.820,-22394.640,-19954.100,0.000
-21916.500,-21778.350,-31998.320,-32686.290,-22090.980,-22795.360,-22359.620,-19922.140,0.000
-21884.510,-21743.890,-31952.470,-32639.170,-22061.730,-22759.520,-22325.470,-19890.570,0.000
-21851.530,-21708.490,-31906.400,-32591.080,-22032.070,-22724.930,-22290.800,-19858.710,0.000
-21817.360,-21672.690,-31859.420,-32541.740,-22001.630,-22690.610,-22255.130,-19827.200,0.000
-21781.610,-21636.390,-31810.960,-32491.310,-21970.110,-22655.340,-22218.670,-19796.490,0.000
-21743.710,-21599.020,-31760.430,-32439.660,-21937.180,-22619.210,-22181.610,-19765.710,0.000
-21705.480,-21561.860,-31709.340,-32388.180,-21904.020,-22583.970,-22144.880,-19734.790,0.000
-21668.350,-21525.540,-31658.860,-32337.630,-21871.010,-22548.960,-22108.230,-19703.210,0.000
-21633.060,-21490.260,-31609.740,-32288.020,-21838.410,-22513.660,-22071.630,-19670.560,0.000
-21600.540,-21456.940,-31563.360,-32239.870,-21807.680,-22480.350,-22036.450,-19637.900,0.000
-21569.030,-21424.060,-31518.540,-32191.790,-21777.890,-22448.040,-22001.510,-19604.700,0.000
-21536.570,-21390.180,-31473.320,-32142.240,-21747.600,-22414.420,-21965.580,-19570.160,0.000
-21503.160,-21356.150,-31427.220,-32091.550,-21717.160,-22380.310,-21929.970,-19535.470,0.000
-21468.570,-21321.950,-31379.400,-32039.970,-21686.180,-22345.830,-21894.800,-19501.740,0.000
-21432.140,-21286.280,-31328.930,-31987.190,-21653.170,-22309.430,-21858.540,-19468.500,0.000
-21394.620,-21249.400,-31276.710,-31934.040,-21618.300,-22271.530,-21821.210,-19435.420,0.000
-21357.620,-21212.870,-31224.840,-31882.150,-21583.790,-22234.510,-21784.540,-19402.960,0.000
-21321.250,-21176.540,-31173.690,-31831.220,-21550.350,-22198.380,-21748.360,-19369.940,0.000
-21285.720,-21140.120,-31123.300,-31780.510,-21517.810,-22162.090,-21711.930,-19335.710,0.000
-21252.190,-21104.750,-31074.990,-31730.640,-21486.930,-22125.610,-21675.670,-19301.960,0.000
-21220.250,-21070.710,-31028.740,-31681.640,-21457.290,-22088.580,-21639.320,-19269.790,0.000
-21188.300,-21037.370,-30983.080,-31632.940,-21427.420,-22052.160,-21603.110,-19238.970,0.000
-21156.280,-21005.130,-30937.850,-31584.960,-21397.370,-22018.960,-21568.440,-19209.350,0.000
-21124.780,-20974.260,-30893.240,-31537.900,-21367.600,-21988.740,-21535.450,-19180.280,0.000
-21092.450,-20942.780,-30847.480,-31489.950,-21336.970,-21958.280,-21502.150,-19149.890,0.000
-21058.450,-20909.200,-30799.560,-31440.380,-21305.100,-21925.170,-21467.360,-19117.830,0.000
-21023.310,-20873.710,-30750.140,-31389.970,-21272.790,-21889.310,-21431.290,-19085.080,0.000
-20986.430,-20836.280,-30699.040,-31338.110,-21239.750,-21851.870,-21393.630,-19051.360,0.000
-20948.290,-20798.160,-30647.280,-31285.270,-21206.720,-21814.920,-21355.500,-19017.240,0.000
-20911.270,-20761.640,-30597.310,-31233.710,-21175.390,-21779.790,-21319.220,-18984.430,0.000
-20876.790,-20727.440,-30550.040,-31184.250,-21145.820,-21746.130,-21284.940,-18952.960,0.000
-20844.480,-20694.920,-30504.610,-31135.940,-21116.790,-21712.740,-21251.090,-18921.390,0.000
-20811.740,-20661.710,-30458.280,-31086.370,-21085.780,-21677.360,-21215.260,-18887.590,0.000
-20777.040,-20626.450,-30409.420,-31034.520,-21051.780,-21640.080,-21177.400,-18851.410,0.000
-20741.880,-20590.670,-30359.470,-30982.390,-21016.820,-21603.390,-21140.020,-18815.670,0.000
-20706.850,-20554.830,-30309.080,-30931.020,-20981.840,-21566.970,-21103.530,-18781.810,0.000
-20671.540,-20518.410,-30258.170,-30880.020,-20946.670,-21529.540,-21066.930,-18749.270,0.000
-20636.700,-20482.740,-30208.240,-30829.860,-20912.830,-21492.440,-21030.880,-18717.980,0.000
-20602.710,-20448.910,-30160.320,-30780.640,-20881.340,-21456.820,-20995.670,-18687.190,0.000
-20568.450,-20415.690,-30113.130,-30730.960,-20850.510,-21421.430,-20959.630,-18654.590,0.000
-20534.050,-20382.290,-30066.020,-30680.640,-20819.230,-21385.790,-20922.280,-18620.070,0.000
-20500.570,-20348.840,-30019.230,-30630.600,-20787.890,-21350.520,-20884.680,-18585.520,0.000
-20468.000,-20315.130,-29972.420,-30580.960,-20756.540,-21315.590,-20847.520,-18551.900,0.000
-20435.800,-20281.050,-29925.100,-30531.560,-20725.250,-21281.210,-20811.250,-18519.560,0.000
-20402.320,-20245.700,-29876.120,-30481.290,-20693.210,-21246.730,-20775.220,-18487.690,0.000
-20366.800,-20208.780,-29825.390,-30429.940,-20660.080,-21211.040,-20738.930,-18455.460,0.000
-20329.570,-20171.040,-29773.840,-30378.280,-20626.690,-21173.940,-20702.850,-18422.950,0.000
-20291.190,-20133.680,-29722.630,-30326.660,-20594.110,-21136.780,-20667.540,-18390.650,0.000
-20253.200,-20098.540,-29673.440,-30275.980,-20563.460,-21101.690,-20633.570,-18359.420,0.000
-20215.810,-20065.080,-29625.470,-30225.680,-20533.490,-21067.980,-20600.000,-18328.500,0.000
-20178.200,-20031.180,-29576.330,-30174.210,-20502.190,-21033.190,-20564.900,-18296.670,0.000
-20140.490,-19996.270,-29525.620,-30121.810,-20469.830,-20996.780,-20528.230,-18264.780,0.000
-20103.420,-19961.140,-29474.760,-30069.930,-20437.910,-20960.600,-20492.070,-18234.290,0.000
-20066.930,-19926.000,-29424.280,-30018.830,-20406.730,-20925.310,-20457.140,-18204.510,0.000
-20030.650,-19890.880,-29374.210,-29967.820,-20375.960,-20890.530,-20422.570,-18173.600,0.000
-19995.220,-19857.100,-29325.720,-29917.290,-20346.290,-20857.610,-20388.590,-18141.490,0.000
-19961.050,-19824.850,-29279.100,-29867.560,-20317.500,-20826.440,-20354.880,-18108.470,0.000
-19927.100,-19792.020,-29232.400,-29817.420,-20287.190,-20793.450,-20319.150,-18073.020,0.000
-19893.400,-19757.710,-29184.870,-29766.850,-20254.540,-20756.940,-20280.780,-18035.090,0.000
-19860.650,-19723.100,-29137.260,-29716.720,-20221.370,-20719.220,-20241.930,-17996.960,0.000
-19828.280,-19688.720,-29089.310,-29666.290,-20188.610,-20682.240,-20204.180,-17960.030,0.000
-19796.260,-19654.880,-29041.090,-29615.230,-20156.310,-20646.580,-20168.010,-17925.200,0.000
-19763.970,-19620.990,-28992.170,-29563.420,-20123.640,-20611.760,-20132.790,-17892.540,0.000
-19729.100,-19584.920,-28940.740,-29509.520,-20088.380,-20575.200,-20096.520,-17860.610,0.000
-19691.090,-19546.210,-28886.740,-29453.580,-20049.910,-20535.340,-20058.290,-17828.840,0.000
-19652.000,-19507.180,-28832.640,-29397.620,-20010.770,-20495.330,-20019.890,-17797.690,0.000
-19614.010,-19469.930,-28780.500,-29343.240,-19973.790,-20458.590,-19983.020,-17766.970,0.000
-19578.560,-19434.810,-28730.990,-29291.530,-19939.900,-20424.320,-19947.370,-17736.430,0.000
-19545.320,-19400.620,-28683.080,-29241.820,-19907.950,-20389.890,-19911.410,-17705.190,0.000
-19512.530,-19366.070,-28635.050,-29192.260,-19876.190,-20354.190,-19874.430,-17672.290,0.000
-19479.840,-19331.890,-28587.270,-29142.870,-19844.810,-20318.050,-19837.620,-17638.980,0.000
-19447.400,-19298.920,-28540.540,-29094.420,-19814.530,-20282.550,-19802.090,-17606.920,0.000
-19414.500,-19266.320,-28494.150,-29046.530,-19784.750,-20247.510,-19767.300,-17576.290,0.000
-19379.950,-19232.260,-28446.390,-28997.910,-19753.750,-20211.160,-19731.340,-17545.360,0.000
-19342.810,-19195.910,-28396.180,-28947.190,-19720.550,-20173.480,-19693.360,-17511.600,0.000
-19304.690,-19159.200,-28345.110,-28895.330,-19686.890,-20137.120,-19655.150,-17475.070,0.000
-19267.820,-19124.140,-28295.070,-28843.940,-19654.450,-20103.390,-19618.220,-17437.280,0.000
-19231.680,-19089.790,-28245.080,-28792.080,-19622.190,-20070.450,-19581.430,-17398.350,0.000
-19195.760,-19055.380,-28194.470,-28739.340,-19589.640,-20037.010,-19544.220,-17359.420,0.000
-19160.720,-19021.620,-28144.360,-28687.040,-19558.040,-20004.160,-19507.950,-17323.110,0.000
-19125.460,-18987.330,-28094.180,-28634.910,-19526.620,-19970.910,-19472.070,-17289.940,0.000
-19088.920,-18951.210,-28043.070,-28582.380,-19493.590,-19934.890,-19435.130,-17258.780,0.000
-19052.190,-18914.410,-27992.280,-28530.390,-19459.230,-19896.660,-19397.770,-17228.720,0.000
-19016.790,-18878.460,-27943.180,-28479.900,-19424.990,-19858.410,-19361.150,-17199.010,0.000
-18982.510,-18843.010,-27894.870,-28429.970,-19390.960,-19820.730,-19324.890,-17168.410,0.000
-18947.760,-18806.670,-27845.250,-28378.760,-19356.040,-19782.780,-19287.810,-17135.600,0.000
-18912.750,-18770.340,-27794.700,-28326.990,-19321.210,-19744.940,-19250.750,-17101.770,0.000
-18878.330,-18735.380,-27744.780,-28276.270,-19288.220,-19708.170,-19215.290,-17069.190,0.000
-18843.650,-18700.580,-27694.860,-28225.840,-19256.210,-19671.910,-19180.540,-17037.520,0.000
-18808.610,-18664.740,-27644.250,-28174.940,-19223.990,-19635.510,-19145.010,-17005.490,0.000
-18774.940,-18629.140,-27594.360,-28124.640,-19192.480,-19599.970,-19109.490,-16973.610,0.000
-18742.720,-18594.590,-27545.900,-28074.940,-19161.710,-19565.580,-19074.450,-16941.630,0.000
-18709.960,-18560.020,-27497.670,-28024.370,-19130.060,-19530.930,-19038.780,-16908.290,0.000
-18676.180,-18525.350,-27449.430,-27973.140,-19097.600,-19495.410,-19002.710,-16874.550,0.000
-18642.300,-18491.380,-27401.830,-27922.620,-19065.420,-19459.500,-18967.020,-16842.090,0.000
-18607.260,-18457.130,-27353.630,-27872.020,-19032.810,-19423.830,-18931.120,-16809.980,0.000
-18568.960,-18420.580,-27302.540,-27819.270,-18998.280,-19388.670,-18894.320,-16776.280,0.000
-18528.960,-18382.640,-27249.550,-27765.420,-18962.960,-19353.870,-18857.560,-16741.920,0.000
-18491.260,-18346.670,-27198.250,-27713.900,-18929.900,-19320.120,-18822.790,-16709.840,0.000
-18456.550,-18313.360,-27149.570,-27665.280,-18899.490,-19287.150,-18789.900,-16680.430,0.000
-18421.810,-18279.810,-27100.600,-27616.250,-18868.650,-19252.250,-18755.920,-16650.380,0.000
-18385.240,-18244.140,-27049.470,-27564.430,-18835.170,-19213.630,-18718.800,-16617.240,0.000
-18348.320,-18207.750,-26997.670,-27510.920,-18800.100,-19173.570,-18680.040,-16582.600,0.000
-18312.270,-18172.060,-26946.640,-27457.240,-18765.100,-19135.770,-18642.040,-16548.660,0.000
-18276.780,-18136.930,-26896.540,-27404.080,-18730.880,-19100.810,-18605.570,-16516.210,0.000
-18241.480,-18101.930,-26847.220,-27352.010,-18697.600,-19066.820,-18570.450,-16485.330,0.000
-18205.550,-18066.240,-26797.560,-27300.500,-18664.370,-19031.820,-18535.560,-16454.830,0.000
-18167.700,-18028.890,-26746.040,-27247.950,-18629.670,-18994.460,-18498.890,-16422.420,0.000
-18127.910,-17990.380,-26692.650,-27193.470,-18593.350,-18955.280,-18459.900,-16386.990,0.000
-18089.470,-17954.010,-26640.680,-27139.470,-18558.210,-18917.970,-18421.510,-16351.140,0.000
-18055.170,-17921.800,-26592.750,-27088.650,-18526.230,-18884.130,-18385.810,-16317.600,0.000
-18023.480,-17891.370,-26547.160,-27039.890,-18495.740,-18850.630,-18350.850,-16285.410,0.000
-17992.710,-17860.810,-26502.270,-26991.850,-18465.970,-18817.330,-18316.240,-16253.960,0.000
-17962.510,-17829.850,-26457.740,-26944.420,-18437.350,-18786.270,-18283.310,-16223.830,0.000
-17931.520,-17797.460,-26412.220,-26896.530,-18408.470,-18755.300,-18250.700,-16193.890,0.000
-17898.380,-17763.100,-26364.460,-26847.350,-18378.020,-18721.950,-18216.840,-16163.100,0.000
-17862.600,-17726.740,-26314.030,-26796.620,-18345.490,-18685.460,-18181.060,-16131.030,0.000
-17825.760,-17689.510,-26262.190,-26745.250,-18311.570,-18646.050,-18143.610,-16098.270,0.000
-17790.040,-17653.480,-26210.910,-26694.680,-18277.890,-18606.400,-18106.250,-16066.250,0.000
-17755.390,-17618.930,-26160.400,-26644.290,-18244.500,-18569.170,-18070.040,-16034.790,0.000
-17721.740,-17585.610,-26111.020,-26593.840,-18211.510,-18534.940,-18035.250,-16003.820,0.000
-17688.610,-17552.550,-26062.850,-26543.570,-18179.080,-18501.800,-18001.040,-15973.520,0.000
-17654.840,-17518.460,-26015.060,-26493.300,-18146.750,-18467.380,-17966.120,-15943.510,0.000
-17619.600,-17482.930,-25966.720,-26442.630,-18113.970,-18430.710,-17929.920,-15912.890,0.000
-17581.570,-17445.600,-25916.370,-26390.340,-18079.800,-18392.960,-17892.600,-15880.160,0.000
-17541.230,-17407.240,-25863.940,-26336.350,-18044.450,-18356.700,-17855.280,-15845.380,0.000
-17501.480,-17369.960,-25811.160,-26282.110,-18009.290,-18322.360,-17818.340,-15809.730,0.000
-17464.890,-17335.630,-25760.020,-26229.280,-17975.940,-18289.460,-17782.320,-15774.690,0.000
-17431.240,-17304.010,-25711.070,-26178.400,-17944.970,-18257.360,-17748.090,-15741.840,0.000
-17398.090,-17272.710,-25662.970,-26128.570,-17915.070,-18224.030,-17714.790,-15711.280,0.000
-17363.510,-17239.640,-25614.450,-26078.740,-17884.550,-18188.490,-17680.810,-15681.480,0.000
-17327.280,-17204.190,-25565.310,-26028.380,-17852.890,-18151.650,-17645.810,-15651.360,0.000
-17289.620,-17166.620,-25515.560,-25977.360,-17820.290,-18114.490,-17610.490,-15620.910,0.000
-17250.190,-17127.050,-25464.440,-25925.250,-17786.220,-18076.530,-17574.430,-15589.670,0.000
-17208.900,-17085.680,-25411.150,-25871.350,-17749.830,-18036.370,-17536.350,-15556.770,0.000
-17168.040,-17044.910,-25357.360,-25817.180,-17712.800,-17995.030,-17497.370,-15523.720,0.000
-17129.940,-17007.900,-25305.910,-25765.300,-17678.510,-17956.530,-17460.900,-15493.240,0.000
-17093.530,-16974.670,-25256.690,-25715.340,-17647.470,-17922.670,-17427.820,-15464.940,0.000
-17056.630,-16942.400,-25207.650,-25665.100,-17617.250,-17890.570,-17395.490,-15435.880,0.000
-17018.230,-16908.080,-25157.360,-25613.040,-17585.140,-17856.140,-17361.000,-15403.680,0.000
-16979.780,-16871.780,-25106.740,-25560.060,-17551.280,-17818.700,-17324.490,-15369.190,0.000
-16944.180,-16836.660,-25058.210,-25508.840,-17518.500,-17782.070,-17289.070,-15335.830,0.000
-16911.190,-16803.470,-25011.360,-25459.440,-17487.320,-17748.730,-17255.920,-15304.450,0.000
-16877.040,-16768.870,-24962.460,-25408.550,-17454.600,-17715.700,-17221.970,-15271.970,0.000
-16840.460,-16731.730,-24910.640,-25355.000,-17419.240,-17680.330,-17185.200,-15236.990,0.000
-16804.420,-16695.410,-24859.370,-25301.810,-17384.390,-17643.950,-17148.060,-15202.570,0.000
-16769.770,-16660.810,-24809.480,-25250.040,-17350.900,-17606.940,-17111.710,-15169.760,0.000
-16734.270,-16625.760,-24758.910,-25198.080,-17316.840,-17568.330,-17074.650,-15136.820,0.000
-16698.240,-16590.890,-24708.600,-25146.820,-17283.300,-17530.220,-17038.150,-15105.100,0.000
-16663.450,-16557.970,-24660.550,-25098.020,-17252.340,-17495.330,-17004.280,-15076.320,0.000
-16629.110,-16525.350,-24613.520,-25050.500,-17222.750,-17462.230,-16971.520,-15048.660,0.000
-16593.470,-16490.690,-24565.160,-25002.030,-17192.100,-17428.140,-16937.590,-15019.820,0.000
-16555.760,-16453.340,-24514.180,-24951.040,-17158.850,-17392.100,-16901.620,-14988.610,0.000
-16516.450,-16413.790,-24460.870,-24897.480,-17122.790,-17353.760,-16863.650,-14954.990,0.000
