EEG 1, EEG 2, EEG 3, EEG 4, EEG 5, EEG 6, EEG 7, EEG 8, TRIG
750000.100,750000.100,750000.100,750000.100,750000.100,750000.100,750000.100,750000.100,0.000
750000.100,750000.100,446965.500,750000.100,412651.000,572299.600,750000.100,750000.100,0.000
626057.200,750000.100,332727.300,594964.100,-198206.700,268140.100,750000.100,657362.800,0.000
607138.600,750000.100,337458.800,587679.900,-449125.500,241993.700,750000.100,598178.200,0.000
610147.700,733667.900,320539.300,674221.700,-614788.200,316968.200,750000.100,654409.600,0.000
616682.600,597229.200,472901.900,726719.900,-750000.100,453162.300,750000.100,750000.100,0.000
750000.100,504459.100,689646.700,750000.100,-328819.300,585963.400,750000.100,750000.100,0.000
750000.100,750000.100,750000.100,750000.100,750000.100,632812.200,750000.100,750000.100,0.000
750000.100,750000.100,750000.100,750000.100,750000.100,750000.100,750000.100,750000.100,0.000
750000.100,750000.100,750000.100,750000.100,750000.100,750000.100,750000.100,750000.100,0.000
750000.100,750000.100,750000.100,750000.100,750000.100,750000.100,750000.100,750000.100,0.000
750000.100,750000.100,750000.100,750000.100,750000.100,750000.100,750000.100,750000.100,0.000
743245.000,743156.300,750000.100,750000.100,716318.800,750000.100,750000.100,684101.600,0.000
620312.200,620163.100,750000.100,750000.100,597841.900,636926.500,633698.000,571002.400,0.000
526628.900,526421.500,720094.300,738373.600,507612.400,540557.600,538249.600,484821.300,0.000
452029.200,451706.900,617632.800,633595.100,435705.700,463730.500,462144.600,416116.500,0.000
390576.500,389998.400,533310.800,547318.000,376378.000,400415.100,399451.300,359456.400,0.000
339320.600,338644.500,463052.000,475332.600,326980.200,347743.500,347355.200,312428.800,0.000
296661.500,296146.900,404527.600,415449.800,285948.200,304102.800,303705.400,273149.200,0.000
266777.900,266314.100,363616.900,373586.500,257143.300,273520.700,273114.600,245590.600,0.000
254724.300,254229.900,347133.600,356769.100,245586.100,261114.400,260814.600,234518.800,0.000
247322.000,246833.100,336970.700,346384.800,238449.400,253503.700,253253.800,227678.800,0.000
240614.500,240119.400,327756.900,336970.500,231970.500,246615.200,246383.300,221475.900,0.000
234385.000,233910.200,319248.400,328263.200,225980.900,240258.600,240036.400,215757.400,0.000
228641.800,228179.500,311400.600,320193.300,220444.600,234386.100,234155.200,210463.500,0.000
223327.500,222876.600,304146.600,312738.400,215323.200,228950.800,228706.700,205570.300,0.000
218428.300,217988.500,297452.700,305868.300,210600.100,223933.100,223682.300,201057.000,0.000
213881.700,213452.600,291232.600,299473.400,206209.000,219292.600,219030.900,196875.900,0.000
209675.700,209256.500,285474.300,293545.900,202145.300,214998.800,214716.900,193002.800,0.000
205736.300,205329.500,280096.300,288013.900,198349.200,210977.300,210655.900,189367.700,0.000
202062.700,201667.400,275073.400,282838.200,194808.700,207217.900,206890.300,185991.000,0.000
198623.700,198235.300,270369.800,278008.900,191492.400,203698.400,203363.900,182829.100,0.000
195406.600,195027.700,265975.200,273489.200,188394.700,200404.200,200065.600,179875.500,0.000
192401.900,192030.000,261860.400,269247.400,185490.100,197321.000,196971.100,177096.200,0.000
189597.300,189231.300,258014.100,265298.300,182784.200,194454.300,194098.100,174516.200,0.000
186939.600,186582.700,254377.500,261552.800,180221.900,191738.100,191375.100,172075.300,0.000
184454.000,184105.300,250970.400,258041.000,177825.400,189190.800,188822.700,169793.200,0.000
182140.000,181790.900,247786.700,254769.100,175588.400,186814.500,186441.100,167658.700,0.000
179957.800,179607.800,244785.200,251690.300,173480.300,184576.100,184200.200,165649.300,0.000
177874.500,177536.200,241939.500,248774.400,171486.400,182460.100,182080.800,163745.500,0.000
175878.600,175548.600,239217.100,245962.100,169573.100,180428.600,180048.400,161923.000,0.000
174025.600,173695.600,236671.500,243351.000,167784.200,178515.200,178149.400,160223.700,0.000
172275.900,171950.400,234272.900,240889.000,166099.300,176723.300,176356.800,158618.400,0.000
170635.200,170308.500,232014.300,238568.900,164515.400,175045.100,174676.700,157098.600,0.000
169068.000,168753.700,229869.400,236355.000,163013.600,173459.900,173090.000,155663.300,0.000
167595.100,167286.900,227844.400,234272.500,161592.500,171950.500,171572.400,154297.200,0.000
166188.200,165875.200,225909.800,232286.000,160228.000,170482.000,170119.500,153000.000,0.000
164884.300,164568.700,224103.600,230430.800,158960.300,169121.800,168763.600,151796.200,0.000
163624.300,163312.300,222372.700,228660.600,157749.000,167847.700,167488.700,150646.500,0.000
162403.800,162097.600,220703.900,226949.100,156575.900,166610.600,166253.200,149534.800,0.000
161269.000,160968.600,219140.300,225334.700,155484.500,165453.300,165094.600,148492.600,0.000
160197.300,159899.100,217664.100,223821.400,154457.900,164365.900,164001.600,147512.600,0.000
159163.500,158865.400,216242.600,222368.000,153460.700,163303.800,162936.600,146561.700,0.000
158180.400,157882.600,214892.600,220987.300,152509.500,162288.800,161921.900,145649.900,0.000
157277.500,156977.400,213637.400,219686.900,151639.500,161374.000,161018.000,144831.200,0.000
156356.600,156055.300,212389.900,218418.800,150755.100,160423.000,160059.700,143988.300,0.000
155542.300,155241.500,211254.800,217245.700,149964.400,159579.900,159211.000,143222.900,0.000
154803.500,154498.100,210208.700,216179.900,149250.000,158828.800,158467.500,142545.800,0.000
154010.500,153720.900,209136.200,215079.300,148500.100,158041.100,157675.600,141831.000,0.000
153261.500,152974.800,208112.500,214029.700,147775.800,157258.800,156899.800,141135.700,0.000
152589.500,152307.200,207176.300,213063.300,147130.700,156571.900,156215.300,140523.700,0.000
151990.300,151688.200,206312.500,212191.600,146530.400,155923.700,155565.200,139938.300,0.000
151338.700,151040.500,205428.700,211293.400,145905.800,155246.600,154899.800,139341.300,0.000
150721.900,150435.100,204586.300,210399.100,145315.900,154619.100,154275.300,138777.000,0.000
150156.900,149856.900,203796.600,209602.900,144762.200,154029.800,153687.900,138249.200,0.000
149640.800,149346.700,203072.300,208847.500,144265.400,153507.900,153156.000,137765.600,0.000
149127.500,148847.400,202367.300,208136.300,143783.800,153000.500,152653.800,137310.000,0.000
148631.600,148348.800,201678.100,207425.800,143299.900,152474.900,152133.400,136850.700,0.000
148140.000,147864.100,201006.800,206726.000,142830.700,151973.500,151626.900,136402.300,0.000
147693.700,147418.300,200390.900,206104.400,142406.600,151532.200,151184.400,135998.800,0.000
147288.000,146993.500,199810.100,205515.700,141999.400,151098.100,150745.400,135604.100,0.000
146866.500,146571.800,199229.400,204930.000,141591.000,150658.300,150309.500,135214.300,0.000
146462.300,146189.600,198681.200,204345.500,141216.500,150274.500,149919.200,134850.600,0.000
146118.800,145845.000,198189.700,203832.100,140885.200,149918.300,149568.400,134536.300,0.000
145777.500,145489.400,197699.900,203344.600,140539.400,149535.100,149191.500,134206.000,0.000
145433.100,145153.900,197219.000,202837.000,140204.300,149180.800,148838.000,133887.300,0.000
145110.300,144836.100,196774.000,202383.300,139906.000,148873.400,148528.500,133603.500,0.000
144798.500,144520.400,196341.000,201946.500,139605.900,148550.300,148207.100,133319.800,0.000
144509.200,144227.800,195928.300,201518.300,139314.300,148234.600,147888.900,133038.200,0.000
144253.700,143961.600,195553.500,201136.400,139056.500,147950.000,147605.000,132782.800,0.000
143972.400,143685.200,195165.500,200732.500,138793.200,147678.900,147334.300,132531.800,0.000
143701.300,143426.800,194796.700,200353.700,138542.600,147418.400,147072.100,132294.300,0.000
143460.800,143186.500,194457.000,200005.600,138312.000,147172.200,146828.300,132073.000,0.000
143234.500,142950.800,194132.500,199672.000,138089.900,146937.100,146592.600,131862.300,0.000
143003.200,142717.500,193808.300,199350.700,137861.700,146690.800,146343.900,131642.900,0.000
142794.800,142517.300,193515.300,199043.100,137673.300,146502.700,146151.700,131460.300,0.000
142595.300,142318.700,193228.400,198744.000,137482.400,146292.500,145949.200,131276.200,0.000
142397.600,142113.700,192945.500,198458.600,137282.400,146064.500,145724.300,131083.700,0.000
142216.800,141936.800,192687.300,198193.900,137109.500,145883.500,145545.500,130922.900,0.000
142020.200,141741.600,192418.000,197920.300,136922.400,145689.300,145346.500,130742.600,0.000
141844.700,141562.700,192166.500,197665.300,136747.400,145503.100,145158.400,130569.100,0.000
141684.200,141403.300,191938.400,197433.800,136598.300,145341.300,145002.000,130432.200,0.000
141538.300,141261.100,191728.500,197221.900,136463.800,145199.700,144864.900,130307.300,0.000
141370.100,141086.900,191493.500,196991.700,136296.100,145017.900,144679.600,130145.500,0.000
141212.800,140936.100,191274.400,196751.100,136148.100,144860.600,144525.400,130006.100,0.000
141101.000,140820.100,191096.500,196568.000,136028.800,144734.500,144385.000,129878.600,0.000
140954.900,140677.900,190894.500,196365.800,135888.400,144590.800,144241.000,129743.800,0.000
140850.800,140577.700,190740.800,196210.100,135797.000,144503.200,144155.800,129668.900,0.000
140728.100,140448.700,190563.900,196034.400,135672.200,144363.500,144019.700,129555.800,0.000
140598.400,140314.500,190378.700,195846.800,135538.800,144218.200,143864.400,129420.300,0.000
140479.300,140195.600,190211.000,195685.500,135427.800,144101.300,143751.600,129320.000,0.000
140353.900,140079.800,190041.700,195499.900,135320.500,143996.600,143651.400,129226.000,0.000
140240.200,139973.600,189887.600,195339.800,135221.500,143903.300,143554.800,129132.300,0.000
140151.800,139883.100,189753.400,195200.600,135129.700,143795.000,143445.300,129038.100,0.000
140092.800,139819.600,189648.800,195092.700,135067.100,143714.600,143370.400,128967.400,0.000
140011.600,139738.600,189528.800,194972.800,134992.700,143635.900,143293.300,128895.300,0.000
139908.700,139632.500,189382.400,194816.600,134883.900,143522.000,143168.100,128776.300,0.000
139826.200,139549.500,189262.800,194692.600,134805.600,143436.200,143085.400,128694.900,0.000
139756.000,139474.400,189152.800,194580.100,134732.200,143358.500,143010.100,128623.200,0.000
139678.700,139394.300,189037.300,194464.500,134654.400,143274.100,142929.900,128551.800,0.000
139590.300,139312.100,188917.100,194338.100,134577.400,143198.500,142855.200,128487.500,0.000
139523.000,139243.200,188815.100,194237.400,134511.700,143118.800,142783.900,128430.800,0.000
139467.000,139187.800,188726.400,194149.600,134460.100,143066.000,142735.300,128396.800,0.000
139411.900,139131.500,188639.600,194063.000,134407.600,143014.800,142684.500,128358.700,0.000
139343.500,139064.000,188542.600,193969.600,134340.800,142941.700,142611.600,128302.000,0.000
139268.400,138988.900,188440.500,193865.500,134268.900,142870.200,142536.000,128233.900,0.000
139209.600,138935.000,188354.800,193770.700,134214.500,142812.800,142474.600,128175.000,0.000
139168.900,138896.500,188288.100,193702.800,134178.300,142780.500,142439.300,128138.300,0.000
139120.700,138843.800,188211.600,193625.900,134128.400,142726.500,142381.300,128085.900,0.000
139083.600,138809.400,188150.100,193565.500,134093.200,142684.200,142330.600,128041.900,0.000
139015.900,138745.000,188058.400,193465.400,134034.400,142618.100,142269.000,127982.800,0.000
138974.500,138704.000,187992.700,193401.000,134000.000,142574.000,142229.200,127944.300,0.000
138939.700,138674.300,187937.100,193341.100,133974.400,142549.300,142201.500,127915.300,0.000
138897.700,138628.600,187871.700,193278.000,133935.000,142505.200,142159.100,127876.400,0.000
138840.200,138571.300,187792.000,193199.900,133882.800,142453.700,142106.400,127822.900,0.000
138806.400,138539.200,187736.200,193145.400,133854.000,142424.300,142079.000,127795.700,0.000
138759.500,138492.500,187668.000,193079.700,133811.000,142377.300,142038.500,127766.700,0.000
138734.700,138462.900,187620.100,193031.400,133779.500,142338.500,142001.300,127741.700,0.000
138715.000,138445.000,187583.200,192993.400,133763.900,142318.700,141987.400,127733.000,0.000
138662.300,138390.300,187510.300,192923.400,133712.900,142263.100,141938.200,127698.000,0.000
138620.800,138347.600,187448.400,192860.000,133669.100,142217.300,141886.500,127653.500,0.000
138592.300,138320.000,187401.600,192811.200,133645.200,142197.800,141865.000,127630.600,0.000
138575.500,138298.200,187364.500,192774.900,133623.800,142172.000,141836.000,127612.600,0.000
138555.700,138277.600,187326.700,192735.000,133602.500,142153.300,141812.000,127590.400,0.000
138528.700,138249.800,187281.200,192688.900,133574.400,142122.500,141781.200,127561.900,0.000
138504.300,138227.800,187240.300,192646.400,133549.800,142102.200,141756.400,127534.400,0.000
138474.300,138198.300,187193.500,192598.800,133517.300,142066.200,141714.600,127497.800,0.000
138452.000,138174.900,187154.100,192557.400,133493.200,142040.300,141688.600,127473.200,0.000
138433.800,138156.100,187119.300,192520.400,133473.800,142022.000,141668.800,127455.800,0.000
138415.100,138142.400,187090.000,192488.700,133464.800,142014.900,141660.500,127445.300,0.000
138386.100,138117.800,187050.900,192450.900,133449.200,142003.200,141653.100,127432.800,0.000
138372.400,138103.600,187022.500,192424.200,133438.800,141976.000,141640.700,127425.600,0.000
138353.500,138084.300,186988.900,192391.700,133423.000,141961.700,141622.400,127409.100,0.000
138337.600,138069.100,186959.400,192360.700,133406.800,141940.200,141596.300,127387.200,0.000
138311.500,138043.600,186920.000,192322.500,133384.600,141917.700,141581.100,127371.300,0.000
138298.100,138024.400,186887.900,192290.000,133361.500,141877.900,141540.100,127343.500,0.000
138272.900,137999.700,186849.400,192251.200,133337.900,141859.500,141519.100,127317.900,0.000
138265.600,137992.400,186829.700,192230.900,133333.600,141859.700,141521.300,127319.400,0.000
138242.400,137970.500,186795.800,192198.100,133312.200,141835.300,141500.000,127301.100,0.000
138216.800,137946.100,186758.400,192162.300,133288.000,141808.600,141473.400,127277.600,0.000
138202.700,137934.800,186732.200,192136.600,133277.500,141798.000,141463.000,127266.900,0.000
138198.000,137930.500,186714.500,192118.900,133273.800,141792.700,141458.700,127259.400,0.000
138183.600,137916.200,186688.400,192092.900,133262.400,141780.200,141447.600,127249.900,0.000
138169.300,137903.300,186663.500,192067.200,133251.400,141768.900,141434.100,127239.000,0.000
138142.600,137879.100,186627.300,192032.100,133229.300,141746.500,141411.300,127216.800,0.000
138122.700,137859.600,186597.100,192004.300,133210.600,141727.400,141392.000,127199.100,0.000
138115.800,137852.900,186579.700,191987.000,133204.200,141724.200,141391.000,127200.900,0.000
138135.800,137869.400,186585.000,191988.200,133216.700,141734.100,141400.100,127203.200,0.000
138120.700,137851.800,186557.200,191959.100,133199.100,141709.800,141379.600,127186.000,0.000
138108.100,137840.800,186535.200,191935.900,133188.600,141698.000,141366.100,127173.400,0.000
138088.100,137818.300,186502.200,191903.900,133164.900,141672.300,141338.700,127147.700,0.000
138087.000,137814.400,186486.800,191890.400,133159.800,141668.400,141332.900,127142.400,0.000
138079.700,137807.200,186469.700,191873.700,133152.500,141663.000,141326.200,127135.900,0.000
138066.100,137793.400,186448.400,191850.800,133140.000,141649.500,141313.800,127125.500,0.000
138064.400,137791.000,186434.800,191836.600,133135.300,141644.600,141307.600,127121.400,0.000
138061.200,137785.300,186417.800,191821.900,133128.200,141636.500,141301.300,127117.600,0.000
138047.100,137768.000,186392.800,191799.300,133114.600,141617.700,141288.700,127107.800,0.000
138037.100,137758.800,186374.600,191781.300,133107.200,141606.800,141281.500,127099.600,0.000
138031.600,137753.500,186359.900,191765.800,133100.300,141600.700,141275.200,127095.400,0.000
138027.400,137748.100,186345.500,191750.700,133093.600,141596.000,141266.400,127089.300,0.000
138016.800,137739.600,186326.300,191731.500,133085.800,141589.200,141257.000,127081.400,0.000
138012.600,137738.000,186312.300,191717.700,133084.800,141593.700,141256.700,127077.100,0.000
138000.700,137723.400,186288.800,191694.500,133069.200,141574.300,141236.800,127062.300,0.000
138003.800,137724.200,186280.300,191684.200,133067.100,141575.000,141236.000,127059.000,0.000
137990.100,137708.300,186255.000,191658.600,133050.000,141559.700,141218.900,127039.800,0.000
137989.800,137705.900,186243.200,191646.700,133046.300,141555.400,141215.600,127032.600,0.000
137987.400,137702.200,186229.500,191635.300,133040.900,141550.600,141211.800,127030.200,0.000
137984.100,137698.900,186218.700,191623.800,133037.400,141549.000,141211.400,127029.500,0.000
137977.200,137693.100,186204.400,191608.500,133032.900,141545.300,141205.200,127025.300,0.000
137966.900,137681.700,186184.600,191587.400,133023.800,141537.900,141197.700,127016.800,0.000
137968.300,137681.500,186176.800,191580.300,133026.300,141537.400,141201.600,127023.100,0.000
137959.500,137671.900,186160.000,191566.100,133018.200,141526.200,141193.700,127022.000,0.000
137945.600,137659.300,186141.600,191547.000,133005.000,141509.200,141177.700,127011.400,0.000
137947.900,137661.100,186136.200,191541.300,133008.200,141514.400,141180.200,127017.300,0.000
137940.900,137652.200,186119.500,191524.900,133000.800,141509.100,141173.500,127013.200,0.000
137936.200,137646.700,186104.500,191511.500,132993.700,141500.300,141163.300,127003.800,0.000
137935.000,137645.900,186095.000,191504.000,132994.000,141500.200,141163.000,127003.600,0.000
137929.600,137638.200,186079.200,191487.000,132983.900,141488.200,141146.600,126988.400,0.000
137933.200,137642.900,186074.600,191480.300,132985.400,141495.800,141149.800,126986.900,0.000
137928.700,137636.100,186060.500,191466.900,132977.500,141481.300,141140.900,126980.500,0.000
137919.100,137625.900,186042.300,191449.800,132966.900,141470.800,141134.200,126972.500,0.000
137917.900,137622.900,186032.100,191439.300,132961.400,141468.000,141131.500,126970.300,0.000
137924.300,137627.700,186030.800,191436.000,132962.600,141473.100,141133.900,126970.100,0.000
137924.700,137625.100,186022.000,191427.600,132958.400,141468.300,141127.500,126964.500,0.000
137923.300,137623.100,186011.700,191416.600,132953.800,141462.600,141121.300,126956.500,0.000
137913.200,137614.600,185995.200,191400.200,132945.600,141453.200,141111.800,126946.700,0.000
137918.700,137620.100,185993.200,191398.000,132952.200,141461.300,141118.500,126952.400,0.000
137912.800,137613.000,185979.900,191383.800,132947.400,141457.100,141114.100,126951.900,0.000
137912.100,137612.000,185971.300,191374.600,132947.300,141459.500,141114.300,126956.200,0.000
137904.100,137603.800,185955.400,191358.300,132941.100,141451.200,141106.200,126947.200,0.000
137900.700,137601.400,185945.500,191348.100,132940.200,141445.300,141100.800,126942.500,0.000
137897.300,137600.900,185936.200,191338.500,132941.100,141444.200,141098.200,126942.300,0.000
137888.500,137592.600,185920.400,191324.100,132933.400,141438.500,141092.000,126937.700,0.000
137893.700,137595.700,185918.100,191324.500,132937.600,141441.600,141096.200,126944.000,0.000
137889.200,137589.900,185905.300,191316.500,132934.500,141439.500,141094.100,126943.300,0.000
137892.800,137594.000,185900.900,191310.900,132936.200,141437.000,141094.300,126940.500,0.000
137880.000,137580.600,185883.000,191294.200,132923.400,141424.000,141084.300,126934.200,0.000
137887.700,137587.600,185884.600,191293.800,132929.000,141433.300,141086.400,126939.300,0.000
137882.800,137579.300,185872.500,191280.700,132920.700,141422.900,141074.700,126931.600,0.000
137869.000,137567.500,185853.300,191261.000,132909.400,141414.700,141063.800,126919.500,0.000
137873.000,137574.600,185851.300,191259.400,132916.300,141424.300,141070.700,126923.800,0.000
137879.300,137580.500,185850.700,191258.400,132924.400,141427.500,141076.100,126927.000,0.000
137868.500,137569.200,185834.900,191241.500,132912.700,141412.900,141063.300,126914.700,0.000
137866.300,137564.400,185825.400,191232.100,132904.900,141404.400,141054.800,126908.400,0.000
137861.800,137558.600,185812.800,191219.000,132897.700,141398.200,141049.300,126898.800,0.000
137862.600,137560.600,185807.800,191214.300,132899.600,141399.100,141050.600,126902.600,0.000
137860.300,137559.000,185798.700,191206.500,132900.300,141395.700,141049.000,126903.500,0.000
137857.500,137556.800,185788.900,191198.800,132899.600,141393.000,141045.200,126900.600,0.000
137849.400,137550.100,185774.800,191184.400,132893.500,141391.200,141041.100,126894.800,0.000
137851.700,137551.800,185769.700,191179.400,132893.900,141393.600,141043.600,126899.200,0.000
137848.800,137549.300,185759.400,191170.200,132890.800,141391.000,141038.100,126894.300,0.000
137850.200,137552.300,185754.300,191166.600,132894.100,141396.000,141041.600,126899.700,0.000
137845.500,137548.700,185744.300,191156.400,132892.000,141397.400,141044.400,126899.900,0.000
137843.700,137546.700,185737.000,191146.200,132889.900,141401.000,141041.600,126894.800,0.000
137842.600,137542.900,185729.200,191138.300,132886.700,141396.500,141036.200,126892.000,0.000
137844.300,137542.500,185724.100,191132.400,132887.900,141392.700,141035.800,126891.800,0.000
137840.800,137539.000,185713.500,191122.000,132883.400,141387.800,141031.600,126888.100,0.000
137841.300,137539.100,185708.200,191117.600,132883.500,141388.000,141033.300,126887.800,0.000
137838.300,137537.400,185700.900,191110.900,132882.700,141385.300,141031.400,126885.600,0.000
137829.000,137530.000,185687.600,191099.500,132877.500,141377.800,141025.100,126880.600,0.000
137825.900,137527.400,185680.100,191091.800,132875.000,141371.300,141015.500,126873.800,0.000
137828.800,137533.000,185679.700,191089.900,132880.100,141377.800,141018.400,126873.700,0.000
137817.800,137523.900,185664.900,191075.200,132871.400,141370.000,141010.700,126865.900,0.000
137814.000,137522.300,185655.700,191065.800,132868.900,141369.300,141009.300,126864.500,0.000
137815.000,137523.200,185649.800,191059.100,132870.100,141371.500,141011.200,126866.600,0.000
137818.000,137524.000,185644.800,191053.400,132872.100,141375.900,141014.600,126872.400,0.000
137818.300,137521.800,185636.900,191045.100,132867.100,141366.300,141009.000,126867.300,0.000
137814.200,137519.200,185627.300,191037.200,132863.500,141364.600,141008.000,126865.600,0.000
137821.200,137528.400,185629.500,191039.700,132872.400,141378.300,141018.000,126874.400,0.000
137814.100,137522.500,185617.900,191028.400,132867.500,141372.400,141016.500,126868.000,0.000
137812.700,137522.200,185611.000,191022.800,132867.500,141365.000,141011.200,126871.400,0.000
137809.200,137520.000,185601.100,191014.300,132862.600,141362.100,141007.100,126867.000,0.000
137806.500,137518.100,185594.600,191007.200,132860.400,141363.300,141005.200,126865.200,0.000
137802.600,137512.300,185585.400,190996.700,132855.000,141360.000,140998.900,126858.300,0.000
137802.400,137508.700,185577.400,190987.700,132851.300,141355.000,140996.100,126856.400,0.000
137802.400,137505.300,185569.500,190983.100,132850.000,141352.200,140996.500,126857.900,0.000
137802.800,137504.200,185564.000,190979.900,132851.300,141351.700,140997.500,126861.200,0.000
137797.100,137498.000,185554.200,190969.700,132848.000,141347.400,140995.100,126858.300,0.000
137801.700,137503.700,185553.500,190967.900,132854.000,141353.200,141000.600,126860.800,0.000
137801.700,137505.300,185546.800,190960.400,132858.200,141358.000,141004.200,126861.200,0.000
137801.700,137504.300,185539.100,190952.800,132859.000,141356.000,141003.400,126859.000,0.000
137797.300,137498.800,185529.100,190943.700,132854.700,141346.500,140997.000,126857.200,0.000
137798.900,137501.500,185526.700,190942.000,132858.000,141351.500,141000.200,126860.800,0.000
137800.700,137502.100,185523.700,190940.100,132857.100,141345.800,140993.700,126860.200,0.000
137797.700,137500.000,185514.500,190929.700,132852.300,141346.700,140989.100,126853.600,0.000
137802.100,137505.200,185511.400,190924.300,132856.300,141355.800,140994.900,126854.000,0.000
137805.700,137508.200,185508.700,190920.900,132859.100,141356.100,140997.800,126856.800,0.000
137802.100,137505.500,185500.300,190911.200,132854.800,141344.300,140987.100,126844.600,0.000
137795.500,137503.100,185490.300,190902.300,132852.800,141343.100,140985.600,126841.100,0.000
137793.600,137504.000,185484.500,190896.700,132853.600,141343.000,140987.200,126842.100,0.000
137789.500,137502.000,185475.500,190887.800,132849.600,141339.200,140983.800,126839.700,0.000
137789.000,137501.900,185467.000,190880.000,132847.800,141337.500,140983.000,126841.100,0.000
137787.700,137499.400,185458.500,190872.100,132844.200,141338.700,140981.800,126841.800,0.000
137795.100,137504.300,185459.700,190871.700,132847.500,141345.400,140986.700,126847.100,0.000
137801.900,137508.200,185458.300,190870.400,132849.200,141348.800,140987.600,126851.400,0.000
137794.400,137499.900,185445.200,190858.500,132841.600,141341.500,140979.300,126841.100,0.000
137785.600,137492.600,185432.300,190847.600,132835.400,141334.100,140974.100,126834.300,0.000
137785.500,137493.000,185428.200,190843.400,132835.500,141333.100,140974.600,126833.500,0.000
137787.200,137493.100,185424.100,190837.100,132835.300,141331.900,140972.100,126829.800,0.000
137791.600,137495.700,185422.200,190834.800,132837.100,141330.800,140973.200,126830.800,0.000
137792.500,137496.600,185418.800,190831.300,132839.600,141326.400,140973.700,126831.200,0.000
137798.600,137503.100,185421.700,190833.700,132847.400,141326.600,140979.500,126836.400,0.000
137793.400,137495.800,185410.700,190823.600,132843.000,141316.000,140972.900,126833.000,0.000
137792.200,137493.400,185403.600,190817.800,132842.200,141315.100,140970.800,126833.500,0.000
137790.400,137492.700,185396.500,190811.700,132842.100,141320.400,140971.200,126833.000,0.000
137789.800,137496.900,185391.900,190810.100,132843.700,141328.900,140973.300,126836.700,0.000
137783.500,137494.200,185381.300,190800.700,132838.500,141329.500,140969.900,126835.100,0.000
137779.700,137493.000,185373.600,190792.100,132835.300,141331.800,140969.300,126836.000,0.000
137778.000,137493.100,185368.300,190788.200,132836.200,141336.900,140973.700,126841.700,0.000
137774.100,137492.200,185361.600,190782.500,132834.500,141341.200,140974.000,126840.300,0.000
137764.500,137485.700,185349.700,190771.300,132827.400,141340.200,140971.000,126833.500,0.000
137768.800,137489.300,185349.000,190770.200,132830.300,141343.900,140971.900,126832.300,0.000
137777.900,137495.300,185351.400,190771.700,132834.300,141341.800,140971.800,126831.000,0.000
137774.700,137489.400,185343.500,190762.600,132829.700,141334.600,140966.900,126824.100,0.000
137774.000,137486.800,185338.300,190758.400,132828.700,141327.900,140964.800,126822.400,0.000
137765.100,137477.600,185323.900,190746.200,132819.300,141313.900,140954.500,126813.400,0.000
137763.400,137475.100,185315.800,190739.300,132816.200,141306.000,140951.500,126811.800,0.000
137766.600,137477.600,185313.800,190737.500,132818.400,141306.500,140954.200,126821.600,0.000
137775.700,137487.600,185318.900,190740.200,132828.400,141317.400,140963.000,126831.800,0.000
137764.000,137478.700,185306.000,190727.700,132823.600,141311.400,140958.100,126828.700,0.000
137754.800,137472.500,185294.900,190717.900,132820.700,141309.200,140955.100,126824.300,0.000
137758.600,137478.300,185294.800,190717.900,132825.600,141317.900,140960.900,126827.700,0.000
137763.900,137483.200,185293.800,190717.000,132827.800,141323.800,140963.300,126830.300,0.000
137756.800,137475.500,185281.700,190704.700,132819.700,141315.300,140956.200,126823.900,0.000
137752.300,137470.000,185272.600,190695.500,132814.300,141306.000,140949.600,126818.600,0.000
137760.900,137477.400,185272.300,190694.200,132818.000,141308.400,140950.800,126815.600,0.000
137765.300,137478.200,185267.200,190689.800,132817.600,141306.300,140951.300,126814.800,0.000
137763.700,137475.600,185261.100,190683.000,132816.000,141302.500,140947.800,126811.600,0.000
137770.000,137480.000,185263.200,190685.300,132820.900,141309.000,140952.000,126818.400,0.000
137764.600,137474.000,185253.800,190677.000,132815.800,141308.100,140947.800,126815.000,0.000
137753.600,137462.200,185235.700,190661.500,132801.800,141300.300,140936.100,126803.100,0.000
137760.400,137467.900,185236.000,190662.900,132806.700,141308.300,140941.700,126807.600,0.000
137756.400,137462.500,185227.200,190652.400,132800.800,141303.100,140937.000,126804.000,0.000
137752.900,137459.000,185218.600,190644.100,132796.100,141300.200,140933.800,126801.200,0.000
137758.500,137465.600,185219.100,190644.800,132801.800,141303.300,140940.100,126806.400,0.000
137761.800,137470.900,185219.300,190644.100,132806.000,141303.300,140942.000,126807.700,0.000
137758.200,137468.900,185212.500,190638.400,132805.800,141300.400,140939.600,126805.000,0.000
137756.900,137468.300,185207.600,190634.500,132808.500,141302.500,140940.400,126807.400,0.000
137758.100,137471.300,185206.000,190633.300,132814.300,141308.300,140944.200,126813.200,0.000
137762.800,137476.500,185207.200,190636.800,132821.600,141314.100,140950.000,126821.400,0.000
137756.300,137468.700,185195.800,190628.500,132818.000,141308.700,140945.000,126821.000,0.000
137759.500,137470.700,185193.200,190625.600,132822.100,141315.300,140949.400,126819.700,0.000
137766.100,137476.800,185193.500,190624.100,132825.200,141319.600,140953.100,126821.300,0.000
137757.600,137469.100,185181.100,190610.600,132814.800,141310.600,140943.300,126814.200,0.000
137751.500,137464.000,185170.700,190602.000,132809.000,141305.500,140937.700,126809.700,0.000
137741.900,137455.500,185157.000,190589.700,132799.700,141296.100,140931.600,126800.900,0.000
137745.800,137457.600,185156.100,190588.800,132802.200,141297.400,140934.400,126803.100,0.000
137751.700,137460.600,185156.900,190589.200,132805.200,141296.100,140934.600,126804.000,0.000
137756.500,137464.300,185157.600,190589.700,132809.000,141292.800,140935.400,126806.100,0.000
137759.700,137469.200,185155.800,190586.300,132812.100,141295.300,140938.200,126809.200,0.000
137763.100,137472.900,185153.200,190582.400,132813.900,141297.500,140939.300,126809.900,0.000
137757.800,137463.900,185140.300,190569.400,132804.800,141287.300,140929.500,126802.100,0.000
137758.500,137462.000,185135.600,190564.300,132802.500,141285.300,140926.100,126802.600,0.000
137758.400,137460.900,185132.900,190563.700,132804.000,141288.900,140928.500,126806.700,0.000
137755.900,137456.900,185125.900,190559.700,132801.600,141285.700,140926.100,126804.700,0.000
137760.300,137461.000,185124.600,190558.300,132804.900,141290.400,140930.100,126806.300,0.000
137758.200,137458.400,185115.900,190547.800,132800.100,141288.000,140925.400,126797.300,0.000
137759.700,137460.500,185112.200,190542.000,132799.000,141291.700,140924.500,126792.300,0.000
137761.100,137465.300,185111.400,190540.200,132802.300,141300.000,140931.100,126795.800,0.000
137763.300,137469.000,185108.900,190536.800,132802.500,141294.800,140928.800,126793.000,0.000
137754.500,137459.000,185093.500,190523.400,132791.500,141283.900,140921.800,126786.100,0.000
137761.800,137463.800,185093.500,190524.600,132794.800,141288.900,140925.200,126789.900,0.000
137763.100,137461.300,185089.100,190522.300,132793.400,141279.600,140919.600,126793.000,0.000
137763.800,137462.500,185088.700,190522.700,132799.400,141286.500,140925.000,126799.300,0.000
137755.800,137456.300,185078.700,190512.500,132795.700,141283.000,140920.900,126795.100,0.000
137761.000,137462.300,185079.200,190512.700,132802.700,141288.000,140927.000,126799.600,0.000
137753.700,137456.200,185067.400,190500.600,132797.500,141279.400,140920.700,126795.800,0.000
137752.700,137457.500,185063.100,190494.300,132796.700,141283.500,140920.300,126794.200,0.000
137751.700,137458.900,185060.500,190491.500,132797.600,141288.800,140924.500,126795.300,0.000
137745.600,137454.300,185051.400,190483.600,132793.600,141284.100,140919.800,126788.400,0.000
137741.200,137447.300,185041.300,190475.400,132788.500,141273.400,140914.700,126783.700,0.000
137747.100,137450.700,185041.200,190477.200,132792.900,141277.800,140921.600,126792.200,0.000
137747.000,137451.500,185038.300,190473.200,132794.500,141276.800,140922.200,126795.400,0.000
137742.600,137446.800,185031.300,190464.300,132789.500,141269.900,140918.300,126793.500,0.000
137739.800,137443.500,185023.100,190454.000,132783.900,141265.800,140910.400,126789.000,0.000
137749.300,137453.800,185026.900,190457.100,132793.900,141274.500,140919.300,126795.900,0.000
137751.800,137456.000,185025.900,190457.200,132798.100,141274.300,140921.500,126798.200,0.000
137756.000,137459.600,185027.500,190459.100,132804.300,141281.100,140927.300,126802.100,0.000
137751.200,137453.500,185019.000,190452.300,132801.200,141280.900,140924.800,126798.100,0.000
137743.000,137442.600,185005.900,190440.900,132790.500,141269.800,140912.500,126786.600,0.000
137749.200,137447.900,185006.600,190441.600,132795.200,141274.100,140916.800,126789.100,0.000
137755.100,137457.800,185008.700,190441.700,132804.400,141288.500,140926.800,126795.300,0.000
137754.200,137460.000,185003.600,190435.300,132804.200,141293.300,140927.100,126796.600,0.000
137751.700,137458.500,184996.400,190428.300,132801.600,141291.000,140926.100,126798.100,0.000
137747.100,137453.500,184988.000,190419.100,132795.400,141281.700,140917.700,126796.500,0.000
137741.200,137448.700,184978.300,190409.800,132789.700,141279.500,140914.900,126794.400,0.000
137743.400,137450.100,184974.600,190409.500,132791.100,141284.100,140919.100,126798.000,0.000
137744.100,137448.000,184970.700,190407.400,132789.500,141286.200,140919.100,126797.400,0.000
137738.300,137440.300,184961.300,190400.300,132783.100,141280.400,140913.800,126790.600,0.000
137744.400,137448.700,184964.500,190404.200,132791.600,141288.800,140921.400,126796.200,0.000
137750.200,137456.900,184966.100,190404.600,132797.900,141293.200,140925.300,126799.800,0.000
137745.400,137453.800,184957.000,190392.000,132791.400,141282.900,140915.100,126786.200,0.000
137742.500,137453.000,184951.000,190383.500,132787.600,141278.100,140911.900,126780.500,0.000
137745.600,137454.700,184949.300,190381.300,132788.200,141277.000,140911.700,126779.500,0.000
137749.000,137454.100,184947.800,190382.100,132789.000,141271.200,140911.400,126782.900,0.000
137747.100,137450.300,184941.300,190379.600,132785.500,141264.600,140906.100,126783.400,0.000
137736.100,137439.900,184927.400,190367.800,132777.600,141255.100,140903.200,126780.600,0.000
137721.700,137429.000,184911.600,190352.800,132768.800,141249.600,140895.800,126774.900,0.000
137722.900,137432.700,184908.800,190351.400,132771.300,141256.600,140899.500,126777.800,0.000
137733.000,137444.500,184914.300,190356.900,132782.900,141271.700,140912.400,126789.400,0.000
137732.300,137449.200,184910.800,190353.100,132788.400,141285.100,140920.000,126795.700,0.000
137722.000,137438.700,184896.700,190339.400,132778.000,141265.700,140905.500,126787.000,0.000
137727.300,137441.600,184896.800,190338.100,132779.800,141267.500,140905.700,126788.000,0.000
137736.900,137449.500,184902.400,190343.100,132788.900,141280.800,140914.100,126794.600,0.000
137729.800,137441.900,184892.400,190335.200,132785.600,141277.200,140909.800,126788.800,0.000
137730.500,137445.100,184891.900,190334.400,132792.900,141284.400,140917.300,126793.000,0.000
137734.900,137451.700,184894.000,190335.900,132801.200,141293.400,140922.000,126797.200,0.000
137730.400,137447.600,184887.200,190327.400,132797.000,141292.300,140919.800,126794.100,0.000
137718.400,137435.400,184873.100,190311.100,132783.000,141279.700,140907.300,126781.100,0.000
137719.000,137436.700,184869.200,190308.000,132781.600,141281.500,140909.600,126779.200,0.000
137720.800,137435.500,184863.200,190306.000,132779.200,141278.000,140910.100,126779.600,0.000
137730.800,137439.400,184864.700,190310.300,132783.200,141270.400,140908.400,126784.700,0.000
137730.900,137438.200,184860.500,190305.500,132783.300,141269.900,140910.000,126786.800,0.000
137728.100,137436.900,184854.400,190298.900,132780.500,141263.700,140900.400,126778.700,0.000
137733.600,137445.900,184857.700,190300.700,132789.400,141270.500,140906.600,126782.500,0.000
137732.400,137448.700,184854.000,190295.100,132789.900,141275.300,140908.300,126785.900,0.000
137731.200,137449.700,184849.400,190290.300,132791.800,141281.000,140912.000,126787.700,0.000
137724.700,137444.800,184839.800,190282.300,132787.600,141281.300,140912.300,126786.500,0.000
137722.900,137440.700,184833.600,190276.500,132782.800,141283.100,140910.200,126782.400,0.000
137723.000,137437.000,184827.800,190273.700,132779.300,141280.300,140904.000,126779.000,0.000
137726.300,137437.100,184826.600,190273.400,132781.400,141270.400,140899.900,126778.800,0.000
137726.800,137437.700,184825.300,190273.200,132784.700,141266.100,140903.000,126783.400,0.000
137730.900,137443.400,184826.500,190273.300,132791.700,141275.400,140910.600,126789.900,0.000
137725.900,137439.300,184817.100,190261.600,132786.300,141274.600,140906.800,126786.500,0.000
137721.400,137435.000,184808.400,190252.300,132781.100,141270.000,140902.000,126781.000,0.000
137720.500,137435.000,184803.400,190248.600,132779.800,141267.000,140900.000,126780.400,0.000
137726.200,137440.300,184804.400,190249.600,132784.200,141273.700,140905.900,126784.900,0.000
137729.100,137442.300,184803.300,190246.600,132784.800,141278.800,140909.300,126785.500,0.000
137728.100,137438.800,184798.200,190241.400,132782.700,141279.800,140906.800,126782.100,0.000
137726.600,137436.300,184792.000,190236.600,132782.000,141276.500,140905.800,126777.600,0.000
137719.800,137430.800,184780.500,190226.000,132776.600,141270.100,140900.200,126771.800,0.000
137722.600,137434.500,184777.500,190221.200,132778.800,141272.700,140902.800,126772.700,0.000
137729.800,137442.000,184779.800,190221.300,132783.000,141276.500,140908.100,126777.700,0.000
137729.600,137441.400,184777.800,190217.400,132779.200,141272.300,140905.000,126775.400,0.000
137729.600,137441.100,184777.500,190218.400,132780.600,141272.000,140906.100,126779.500,0.000
137724.300,137437.900,184771.700,190214.800,132779.500,141269.300,140904.600,126778.400,0.000
137722.200,137436.700,184768.700,190211.900,132780.200,141270.300,140905.700,126778.000,0.000
137726.600,137438.900,184768.800,190211.200,132783.500,141273.800,140907.000,126776.600,0.000
137726.700,137435.600,184763.400,190203.200,132781.300,141267.100,140900.800,126769.400,0.000
137729.800,137439.300,184760.800,190198.400,132784.900,141271.900,140903.200,126770.200,0.000
137732.300,137446.100,184759.400,190195.800,132791.000,141279.000,140908.500,126775.200,0.000
137731.300,137447.900,184755.300,190191.500,132792.100,141277.300,140907.500,126776.100,0.000
137734.100,137451.700,184756.300,190192.400,132795.100,141281.700,140909.300,126784.200,0.000
137736.500,137453.800,184755.800,190192.600,132798.100,141285.700,140914.200,126785.000,0.000
137741.200,137456.900,184755.200,190195.800,132801.300,141287.800,140918.600,126790.900,0.000
137738.300,137456.600,184750.600,190192.400,132801.900,141291.500,140920.300,126791.000,0.000
137733.500,137452.600,184743.300,190185.100,132798.800,141286.600,140916.700,126788.200,0.000
137731.500,137449.100,184737.700,190179.200,132795.700,141275.900,140910.600,126788.500,0.000
137733.300,137451.000,184736.200,190179.200,132798.800,141279.800,140916.000,126795.000,0.000
137724.500,137443.500,184724.000,190169.200,132790.400,141272.000,140906.300,126787.400,0.000
137726.400,137448.500,184724.800,190169.600,132795.500,141278.100,140910.200,126791.400,0.000
137732.500,137455.700,184730.100,190176.200,132805.400,141286.600,140919.300,126799.700,0.000
137734.900,137456.200,184729.600,190177.200,132808.500,141290.600,140922.700,126801.400,0.000
137740.300,137460.100,184732.200,190180.100,132813.500,141297.300,140926.100,126807.400,0.000
137724.900,137447.300,184715.500,190163.600,132801.000,141288.400,140914.700,126794.700,0.000
137717.100,137443.000,184704.600,190152.700,132797.000,141286.800,140910.500,126790.600,0.000
137730.400,137458.000,184713.100,190158.300,132811.300,141303.400,140925.100,126799.000,0.000
137732.300,137458.600,184708.200,190150.500,132808.100,141295.800,140920.300,126794.600,0.000
137733.100,137457.700,184703.500,190144.300,132803.500,141288.300,140914.300,126787.700,0.000
137732.900,137456.900,184701.200,190141.300,132802.800,141287.100,140915.500,126787.000,0.000
137731.300,137455.100,184696.900,190137.700,132802.400,141292.200,140917.700,126787.900,0.000
137731.300,137452.800,184693.200,190136.400,132800.800,141286.100,140915.400,126786.300,0.000
137737.400,137455.000,184694.800,190138.300,132804.700,141285.000,140917.100,126791.200,0.000
137744.600,137459.300,184697.200,190138.500,132810.600,141290.700,140921.000,126797.300,0.000
137742.500,137456.900,184690.300,190130.100,132806.900,141288.900,140919.000,126791.500,0.000
137735.200,137452.100,184679.200,190119.300,132801.000,141284.000,140913.800,126786.600,0.000
137738.600,137455.600,184679.800,190120.100,132804.500,141283.300,140914.000,126791.400,0.000
137739.700,137457.800,184678.300,190118.800,132805.900,141289.300,140920.000,126795.700,0.000
137734.400,137451.300,184668.900,190111.000,132801.200,141284.800,140915.100,126792.700,0.000
137727.700,137439.400,184655.500,190100.700,132790.700,141264.000,140900.800,126784.600,0.000
137734.000,137446.300,184655.300,190102.000,132797.000,141273.100,140907.900,126790.400,0.000
137736.100,137450.800,184653.000,190098.700,132800.000,141282.300,140915.300,126794.200,0.000
137740.000,137457.500,184654.800,190099.700,132805.900,141291.100,140923.100,126802.400,0.000
137729.300,137447.600,184641.900,190086.200,132795.700,141279.200,140910.800,126792.600,0.000
137728.200,137447.500,184639.200,190082.800,132796.600,141279.500,140912.600,126792.600,0.000
137735.800,137453.800,184643.100,190087.200,132802.700,141283.500,140919.800,126800.800,0.000
137740.900,137454.200,184641.900,190087.600,132803.300,141286.400,140920.400,126798.300,0.000
137735.300,137444.400,184631.700,190079.300,132794.000,141274.600,140908.000,126788.300,0.000
137729.300,137437.600,184623.000,190074.100,132789.400,141268.500,140902.600,126784.300,0.000
137730.500,137439.000,184620.900,190072.000,132791.400,141273.700,140903.900,126782.900,0.000
137732.000,137442.900,184620.000,190070.200,132795.700,141278.600,140907.500,126786.200,0.000
137729.000,137445.400,184615.000,190064.400,132796.700,141283.100,140909.600,126786.100,0.000
137724.100,137447.000,184610.000,190059.200,132795.700,141285.400,140911.000,126784.600,0.000
137722.200,137446.300,184604.700,190055.400,132793.500,141282.300,140907.500,126786.500,0.000
137726.600,137447.000,184602.100,190055.000,132792.100,141274.900,140904.900,126786.700,0.000
137736.500,137452.600,184605.400,190059.400,132797.700,141278.500,140911.000,126792.600,0.000
137727.700,137440.400,184592.300,190047.500,132788.300,141263.800,140900.600,126784.600,0.000
137724.000,137436.100,184585.700,190040.000,132787.200,141263.800,140899.500,126781.100,0.000
137722.500,137435.400,184581.400,190033.700,132788.400,141266.300,140900.000,126781.100,0.000
137720.300,137433.500,184575.200,190025.200,132786.700,141265.200,140897.100,126775.800,0.000
137726.100,137442.000,184577.700,190025.400,132792.400,141272.000,140903.100,126776.900,0.000
137728.100,137448.600,184580.500,190026.500,132797.400,141275.100,140907.300,126781.600,0.000
137724.600,137446.300,184575.900,190022.700,132793.300,141269.600,140901.600,126780.500,0.000
137729.500,137449.600,184576.900,190027.300,132797.400,141275.500,140906.700,126789.900,0.000
137719.900,137437.700,184563.100,190018.400,132788.300,141265.600,140897.600,126785.300,0.000
137722.700,137439.500,184561.100,190017.800,132789.900,141272.400,140900.800,126782.900,0.000
137729.500,137445.700,184563.600,190018.800,132794.200,141279.900,140906.600,126787.800,0.000
137735.700,137451.800,184565.800,190017.600,132798.700,141289.300,140912.400,126790.400,0.000
137731.600,137447.400,184558.500,190007.300,132794.000,141285.000,140906.700,126787.800,0.000
137727.500,137442.600,184552.000,189998.700,132789.600,141276.000,140900.800,126782.700,0.000
137731.700,137445.800,184550.400,189997.300,132791.300,141272.700,140900.000,126781.000,0.000
137736.200,137450.100,184549.500,189996.500,132794.500,141275.800,140900.800,126779.500,0.000
137729.800,137443.200,184541.100,189989.000,132788.900,141270.300,140896.300,126774.700,0.000
137728.500,137440.100,184538.200,189987.800,132789.200,141270.300,140897.700,126777.500,0.000
137728.800,137438.700,184536.700,189988.200,132793.400,141275.500,140905.000,126785.100,0.000
137719.300,137430.300,184524.100,189976.100,132785.400,141271.400,140897.500,126780.200,0.000
137722.000,137433.500,184521.000,189973.600,132787.000,141273.200,140900.000,126782.500,0.000
137727.100,137441.700,184523.000,189973.900,132790.600,141279.800,140903.500,126784.600,0.000
137727.100,137442.800,184518.900,189968.200,132786.700,141274.600,140899.700,126780.400,0.000
137731.300,137444.400,184516.200,189966.900,132786.100,141272.200,140899.700,126781.300,0.000
137734.900,137445.700,184514.000,189966.800,132788.400,141274.300,140901.700,126782.100,0.000
137739.800,137447.900,184515.600,189968.200,132794.500,141275.400,140905.100,126785.000,0.000
137740.500,137443.300,184513.400,189963.900,132793.800,141264.100,140898.100,126781.600,0.000
137747.800,137449.500,184520.300,189966.900,132801.800,141273.400,140904.400,126788.800,0.000
137740.100,137440.800,184508.200,189952.100,132792.700,141267.300,140897.500,126781.300,0.000
137744.700,137447.700,184508.600,189950.800,132796.500,141274.000,140901.700,126785.000,0.000
137734.700,137442.000,184495.800,189939.700,132790.600,141274.100,140899.200,126778.300,0.000
137729.700,137437.700,184488.200,189933.400,132784.100,141266.200,140892.300,126774.300,0.000
137734.200,137441.200,184489.900,189936.700,132787.800,141268.500,140896.500,126777.800,0.000
137732.400,137435.700,184483.300,189931.800,132783.100,141261.800,140891.600,126772.700,0.000
137731.800,137433.300,184479.100,189929.000,132781.300,141257.800,140891.100,126771.400,0.000
137737.100,137438.100,184480.400,189931.200,132785.100,141259.300,140895.200,126777.000,0.000
137732.700,137432.300,184470.400,189919.000,132778.200,141254.200,140889.600,126770.500,0.000
137728.800,137429.200,184462.500,189910.600,132772.800,141251.600,140886.300,126767.100,0.000
137739.000,137442.900,184470.400,189919.000,132785.300,141268.500,140896.500,126777.500,0.000
137742.000,137448.000,184471.500,189920.800,132791.500,141273.400,140901.700,126780.700,0.000
137733.000,137437.700,184457.700,189909.300,132783.000,141264.700,140894.500,126773.600,0.000
137732.300,137435.000,184454.300,189907.300,132784.600,141263.800,140895.800,126775.800,0.000
137726.300,137428.500,184447.800,189901.600,132782.500,141262.400,140892.400,126776.600,0.000
137725.200,137429.400,184444.200,189897.500,132785.900,141268.700,140896.100,126777.900,0.000
137723.700,137432.800,184438.600,189891.800,132789.800,141278.000,140902.200,126781.200,0.000
137726.700,137437.800,184437.800,189890.700,132792.400,141274.800,140903.000,126783.300,0.000
137721.000,137433.400,184428.800,189880.400,132786.100,141268.800,140896.800,126775.200,0.000
137724.600,137436.700,184430.000,189881.400,132787.600,141269.200,140896.100,126774.500,0.000
137734.000,137445.300,184437.000,189887.600,132794.500,141272.800,140900.400,126779.300,0.000
137736.000,137442.400,184433.600,189885.200,132794.200,141266.000,140900.600,126778.700,0.000
137724.600,137425.100,184416.100,189869.300,132778.400,141246.800,140886.300,126766.500,0.000
137729.100,137428.600,184417.900,189869.800,132782.700,141253.900,140892.100,126774.500,0.000
137732.700,137434.900,184418.800,189867.900,132787.500,141263.800,140896.800,126777.000,0.000
137730.400,137433.700,184412.800,189861.700,132785.100,141264.000,140893.200,126771.000,0.000
137736.900,137443.300,184416.500,189864.900,132791.600,141270.200,140899.200,126775.100,0.000
137737.100,137447.200,184414.500,189864.100,132793.000,141271.300,140901.700,126778.900,0.000
137737.100,137447.600,184411.400,189861.500,132791.800,141271.600,140899.500,126780.400,0.000
137737.500,137445.100,184407.200,189858.700,132790.000,141272.200,140898.300,126778.000,0.000
137737.200,137439.100,184400.100,189854.200,132787.500,141268.600,140897.500,126774.100,0.000
137736.200,137435.800,184395.500,189852.800,132790.300,141262.600,140899.000,126778.700,0.000
137736.000,137437.500,184394.300,189851.500,132794.700,141265.400,140901.600,126780.800,0.000
137738.200,137442.000,184395.300,189849.400,132797.600,141270.700,140903.100,126779.800,0.000
137738.100,137443.200,184391.900,189843.100,132797.300,141273.200,140900.600,126777.700,0.000
137743.000,137451.700,184395.600,189846.000,132803.300,141284.000,140907.400,126781.700,0.000
137740.100,137450.200,184391.400,189843.500,132800.100,141284.300,140905.300,126779.300,0.000
137742.500,137447.400,184387.900,189842.600,132796.400,141272.500,140898.200,126778.500,0.000
137747.300,137447.200,184386.100,189841.700,132796.900,141269.800,140897.500,126778.600,0.000
137746.100,137445.800,184382.400,189838.200,132799.300,141276.100,140902.600,126780.300,0.000
137740.500,137438.700,184375.200,189831.900,132796.400,141264.900,140895.700,126777.100,0.000
137738.100,137438.000,184370.300,189828.400,132797.400,141262.200,140897.700,126780.500,0.000
137736.000,137437.100,184366.200,189824.100,132796.500,141260.600,140897.000,126782.900,0.000
137734.200,137436.400,184361.600,189816.800,132791.800,141258.000,140891.800,126774.300,0.000
137737.500,137441.700,184362.800,189815.800,132793.300,141267.400,140896.200,126772.700,0.000
137743.800,137446.700,184364.500,189818.000,132796.700,141273.200,140900.200,126773.600,0.000
137742.100,137442.300,184357.300,189810.600,132790.500,141258.800,140890.600,126768.300,0.000
137746.900,137445.800,184359.300,189812.400,132795.600,141262.500,140894.800,126774.700,0.000
137736.900,137434.500,184348.200,189801.000,132788.200,141253.400,140887.900,126769.400,0.000
137734.500,137434.500,184346.600,189798.000,132789.800,141259.500,140891.200,126771.800,0.000
137739.100,137439.700,184350.000,189802.100,132795.900,141261.400,140894.800,126776.100,0.000
137742.500,137443.900,184349.600,189803.500,132797.600,141265.500,140897.300,126779.200,0.000
137736.800,137440.500,184340.600,189795.400,132791.700,141265.800,140894.400,126772.800,0.000
137734.000,137439.400,184335.900,189789.800,132788.400,141261.300,140889.100,126768.000,0.000
137738.000,137445.000,184337.400,189790.500,132793.000,141269.400,140894.000,126771.800,0.000
137737.400,137442.700,184332.100,189785.500,132790.500,141263.100,140892.100,126771.000,0.000
137736.600,137440.300,184325.100,189780.700,132789.300,141260.000,140890.500,126770.900,0.000
137739.700,137442.100,184324.700,189780.900,132794.300,141262.600,140895.000,126776.500,0.000
137738.700,137442.000,184322.200,189777.800,132796.500,141264.200,140897.700,126777.900,0.000
137730.900,137435.700,184313.700,189767.200,132790.500,141260.700,140891.100,126770.400,0.000
137734.400,137440.500,184313.700,189766.600,132793.200,141270.400,140897.200,126773.800,0.000
137739.500,137444.700,184313.800,189765.700,132794.800,141268.700,140897.200,126774.300,0.000
137735.800,137439.100,184303.900,189757.000,132788.900,141260.800,140892.000,126766.900,0.000
137731.200,137431.300,184295.100,189750.100,132783.400,141256.100,140889.100,126766.900,0.000
137733.100,137431.500,184295.300,189749.800,132786.600,141256.100,140891.000,126771.000,0.000
137740.500,137439.900,184301.200,189755.500,132799.100,141270.300,140903.700,126779.900,0.000
137735.900,137437.800,184294.700,189749.000,132796.700,141270.900,140901.500,126776.500,0.000
137735.100,137437.400,184291.300,189746.200,132795.600,141266.600,140896.700,126773.400,0.000
137744.200,137449.500,184299.200,189753.000,132804.700,141285.000,140906.900,126778.600,0.000
137739.300,137443.100,184292.300,189745.400,132794.200,141266.300,140892.600,126769.400,0.000
137735.900,137437.200,184283.700,189736.000,132785.300,141253.700,140883.500,126761.400,0.000
137740.000,137442.500,184282.900,189735.800,132788.600,141262.800,140886.000,126765.400,0.000
137743.300,137444.500,184281.500,189734.400,132791.200,141263.100,140888.100,126766.700,0.000
137752.700,137453.300,184288.400,189738.500,132800.000,141274.000,140899.100,126775.600,0.000
137755.500,137457.600,184289.600,189739.600,132805.500,141285.300,140908.900,126784.000,0.000
137746.800,137446.400,184276.300,189724.200,132795.200,141268.800,140898.800,126775.200,0.000
137744.100,137444.300,184270.300,189718.800,132793.000,141267.500,140898.200,126773.200,0.000
137742.100,137443.900,184266.600,189715.300,132794.000,141272.000,140901.500,126772.700,0.000
137737.800,137440.300,184260.600,189709.000,132790.600,141269.000,140898.100,126769.400,0.000
137742.900,137445.400,184260.800,189709.500,132793.200,141272.700,140900.900,126774.700,0.000
137744.700,137444.000,184256.200,189705.000,132791.400,141268.700,140897.800,126771.600,0.000
137744.600,137441.200,184252.000,189701.100,132788.900,141263.100,140893.900,126767.300,0.000
137756.800,137454.500,184262.700,189711.300,132800.800,141271.700,140903.600,126776.800,0.000
137753.300,137451.700,184259.600,189705.400,132799.300,141268.500,140899.900,126771.600,0.000
137751.400,137449.500,184254.900,189701.600,132798.800,141267.800,140898.600,126769.800,0.000
137745.400,137442.300,184245.100,189693.500,132791.700,141262.200,140889.800,126761.000,0.000
137739.900,137437.900,184237.400,189688.400,132787.400,141259.500,140886.300,126755.700,0.000
137741.600,137440.800,184236.700,189690.100,132789.600,141263.500,140891.400,126763.500,0.000
137745.200,137441.600,184235.900,189689.300,132789.600,141265.100,140894.300,126771.000,0.000
137740.000,137434.000,184226.800,189678.200,132781.600,141256.300,140888.800,126765.000,0.000
137739.600,137433.400,184224.700,189675.400,132782.400,141257.600,140892.400,126768.700,0.000
137739.000,137433.800,184222.100,189673.400,132785.700,141261.600,140894.900,126772.800,0.000
137744.100,137438.500,184224.100,189677.200,132792.000,141266.100,140901.500,126779.600,0.000
137744.100,137438.000,184221.400,189672.700,132790.200,141267.800,140902.200,126779.500,0.000
137746.800,137440.600,184221.500,189671.200,132789.800,141271.800,140899.300,126777.000,0.000
137756.100,137447.700,184226.800,189674.900,132795.500,141267.100,140898.000,126780.300,0.000
137754.100,137443.400,184219.100,189666.700,132791.400,141259.500,140893.000,126773.100,0.000
137744.200,137433.500,184205.600,189653.700,132782.300,141253.000,140886.500,126763.700,0.000
137746.000,137436.400,184203.700,189651.400,132783.000,141258.000,140888.300,126764.000,0.000
137746.900,137438.300,184201.600,189649.600,132783.200,141259.500,140890.100,126765.600,0.000
137748.800,137440.600,184202.600,189651.100,132787.300,141260.700,140894.500,126771.300,0.000
137751.000,137444.900,184203.800,189657.000,132794.000,141264.500,140901.600,126778.500,0.000
137744.300,137441.600,184195.500,189653.100,132792.300,141261.600,140898.600,126775.900,0.000
137745.000,137444.400,184195.000,189653.900,132795.800,141267.100,140903.200,126780.400,0.000
137739.800,137441.600,184190.000,189647.600,132792.200,141265.600,140899.400,126777.000,0.000
137743.200,137446.600,184191.300,189646.100,132795.100,141269.800,140902.500,126777.900,0.000
137745.700,137449.500,184190.300,189644.000,132799.000,141274.300,140906.100,126780.000,0.000
137739.900,137443.100,184182.600,189636.400,132796.100,141268.000,140901.700,126774.500,0.000
137736.200,137440.200,184180.300,189633.200,132795.200,141266.700,140899.600,126774.400,0.000
137737.000,137441.200,184179.300,189633.200,132796.000,141268.300,140898.600,126775.900,0.000
137744.200,137448.100,184182.400,189637.000,132800.400,141273.200,140902.600,126779.800,0.000
137746.900,137453.900,184183.600,189637.500,132803.300,141274.300,140905.000,126784.400,0.000
137741.700,137449.900,184175.700,189628.000,132797.900,141269.300,140900.800,126779.500,0.000
137752.600,137458.200,184180.500,189631.000,132803.700,141276.300,140906.600,126783.900,0.000
137752.900,137455.400,184174.900,189624.000,132800.000,141273.600,140903.900,126782.300,0.000
137752.000,137454.800,184172.200,189621.000,132802.500,141277.200,140908.200,126785.100,0.000
137744.900,137449.100,184163.800,189614.000,132802.600,141276.400,140907.900,126780.900,0.000
137746.100,137451.500,184163.500,189615.000,132805.500,141272.800,140907.900,126782.300,0.000
137751.600,137457.300,184164.500,189615.800,132808.200,141279.200,140911.500,126785.400,0.000
137753.100,137457.300,184161.700,189613.000,132808.200,141285.000,140913.500,126784.200,0.000
137749.000,137454.800,184155.500,189608.200,132807.100,141285.700,140912.500,126784.900,0.000
137741.800,137446.800,184146.000,189598.400,132799.900,141266.100,140899.000,126780.100,0.000
137741.000,137445.900,184143.700,189595.000,132801.600,141266.300,140900.800,126781.600,0.000
137742.600,137449.300,184145.100,189595.500,132804.300,141272.600,140902.500,126782.500,0.000
137736.200,137443.200,184137.300,189588.500,132799.000,141270.200,140899.500,126778.500,0.000
137736.200,137443.000,184135.400,189589.900,132800.800,141270.600,140901.900,126780.100,0.000
137741.000,137450.500,184139.100,189595.000,132808.100,141278.300,140907.500,126783.000,0.000
137745.600,137458.000,184142.900,189598.100,132815.200,141283.000,140913.400,126787.600,0.000
137740.000,137455.500,184136.700,189588.700,132810.300,141278.100,140907.500,126782.900,0.000
137741.700,137455.900,184132.500,189584.600,132805.400,141277.400,140903.500,126780.500,0.000
137742.900,137452.900,184126.800,189579.900,132800.800,141274.500,140901.700,126777.000,0.000
137747.400,137454.700,184125.700,189580.300,132803.000,141274.600,140904.600,126778.000,0.000
137740.800,137447.200,184115.400,189571.300,132796.700,141268.000,140897.500,126770.900,0.000
137737.800,137443.900,184110.500,189567.300,132794.900,141267.000,140896.800,126770.700,0.000
137734.300,137443.400,184107.400,189565.400,132797.700,141269.400,140900.400,126775.800,0.000
137731.700,137443.500,184103.400,189564.800,132800.000,141269.800,140903.000,126781.300,0.000
137732.200,137445.100,184101.600,189564.200,132801.300,141268.000,140903.000,126783.400,0.000
137738.300,137451.300,184105.200,189564.300,132805.800,141272.600,140905.400,126782.500,0.000
137738.700,137451.600,184103.200,189558.700,132803.300,141271.900,140902.200,126780.400,0.000
137743.900,137455.500,184105.300,189560.300,132805.900,141275.400,140904.900,126783.600,0.000
137755.600,137466.600,184112.800,189568.900,132817.800,141289.300,140917.400,126793.900,0.000
137742.000,137454.600,184096.900,189553.900,132807.300,141280.200,140908.400,126781.600,0.000
137735.200,137447.000,184089.100,189546.800,132802.700,141272.500,140903.300,126776.100,0.000
137738.000,137451.000,184092.000,189550.300,132807.600,141282.000,140909.800,126782.600,0.000
137735.300,137448.600,184087.500,189547.500,132805.300,141273.000,140904.700,126783.200,0.000
137727.000,137442.500,184077.000,189538.000,132799.700,141269.600,140901.700,126779.000,0.000
137729.100,137447.400,184074.900,189536.300,132801.300,141273.200,140900.300,126780.200,0.000
137731.000,137450.100,184072.700,189534.100,132801.000,141270.900,140902.500,126780.900,0.000
137733.800,137451.300,184073.300,189534.000,132802.100,141274.400,140904.600,126782.300,0.000
137736.100,137449.400,184072.300,189531.300,132801.100,141274.200,140903.600,126778.400,0.000
137740.600,137450.200,184073.900,189533.100,132804.000,141275.100,140905.000,126781.000,0.000
137739.400,137446.800,184068.900,189529.200,132801.900,141271.800,140902.100,126780.100,0.000
137744.300,137450.400,184070.400,189533.400,132805.500,141273.600,140904.200,126788.800,0.000
137751.000,137456.800,184073.700,189537.500,132810.100,141282.000,140909.800,126797.500,0.000
137749.100,137456.600,184069.400,189531.800,132807.500,141283.900,140907.800,126795.200,0.000
137747.600,137456.200,184064.500,189526.500,132804.100,141285.400,140902.400,126791.700,0.000
137749.600,137459.600,184063.800,189524.800,132805.800,141287.300,140903.300,126792.300,0.000
137745.400,137455.500,184056.900,189517.400,132803.000,141284.000,140901.200,126788.100,0.000
137742.000,137451.200,184052.200,189511.600,132801.800,141282.100,140900.400,126786.500,0.000
137739.100,137448.500,184048.900,189506.500,132802.500,141282.100,140900.700,126787.000,0.000
137743.700,137451.000,184052.400,189508.600,132807.300,141279.800,140903.900,126792.900,0.000
137751.900,137457.100,184053.300,189511.700,132812.700,141282.500,140910.500,126799.400,0.000
137746.100,137452.000,184041.900,189501.100,132807.500,141277.200,140905.900,126796.600,0.000
137740.800,137445.400,184034.300,189493.500,132804.300,141276.500,140905.000,126795.000,0.000
137741.300,137444.100,184032.400,189490.900,132803.700,141275.600,140904.800,126795.600,0.000
137742.100,137443.500,184029.000,189487.500,132803.900,141275.200,140903.900,126792.800,0.000
137750.000,137450.100,184034.200,189491.000,132810.000,141280.500,140910.700,126796.300,0.000
137758.200,137458.300,184040.900,189496.400,132817.700,141289.900,140917.800,126801.200,0.000
137751.900,137453.200,184035.300,189490.100,132814.600,141279.500,140911.600,126799.300,0.000
137747.500,137449.900,184029.400,189485.500,132813.000,141276.100,140911.300,126800.300,0.000
137745.400,137450.400,184025.200,189480.000,132812.600,141277.200,140908.600,126797.700,0.000
137744.100,137451.800,184021.300,189473.600,132812.200,141277.400,140908.200,126793.600,0.000
137742.200,137451.800,184017.500,189467.300,132809.500,141275.500,140905.800,126791.300,0.000
137747.400,137456.200,184019.600,189470.000,132813.300,141282.500,140912.300,126795.600,0.000
137750.500,137456.400,184020.800,189471.200,132815.500,141283.400,140915.700,126797.700,0.000
137751.000,137455.300,184019.600,189471.600,132817.600,141281.200,140911.700,126798.200,0.000
137761.900,137467.700,184031.000,189484.100,132834.300,141297.500,140928.700,126813.200,0.000
137753.600,137459.900,184020.700,189476.400,132828.600,141288.200,140922.500,126810.000,0.000
137753.900,137462.100,184017.700,189472.500,132829.300,141290.600,140919.800,126808.300,0.000
137750.800,137460.400,184012.300,189463.600,132824.600,141288.500,140918.200,126805.000,0.000
137741.800,137452.800,184001.200,189450.500,132815.200,141282.600,140911.300,126798.100,0.000
137742.900,137456.100,183999.200,189449.200,132816.400,141285.500,140912.600,126798.500,0.000
137742.500,137455.400,183994.600,189447.900,132814.600,141286.400,140912.900,126798.000,0.000
137747.600,137457.100,183996.200,189451.100,132816.800,141288.800,140915.300,126800.200,0.000
137750.500,137459.300,183998.800,189453.900,132819.900,141290.400,140917.700,126803.600,0.000
137741.600,137449.900,183987.100,189443.400,132812.300,141279.200,140909.500,126795.600,0.000
137737.600,137445.600,183979.200,189435.200,132809.400,141273.800,140904.200,126791.400,0.000
137740.300,137447.700,183977.500,189431.800,132810.800,141278.300,140907.400,126793.500,0.000
137741.600,137448.700,183974.600,189426.900,132808.200,141281.000,140907.300,126791.400,0.000
137750.100,137456.900,183980.700,189432.800,132814.300,141288.000,140913.800,126796.800,0.000
137745.800,137450.900,183972.700,189426.500,132807.100,141281.600,140906.800,126790.300,0.000
137747.500,137448.500,183969.500,189426.000,132806.200,141280.800,140905.500,126789.400,0.000
137750.300,137448.900,183969.400,189428.300,132809.300,141280.400,140907.100,126793.900,0.000
137756.100,137455.100,183973.500,189434.400,132815.700,141285.700,140914.500,126800.900,0.000
137751.600,137449.200,183965.900,189427.500,132809.700,141280.200,140908.800,126795.800,0.000
137749.400,137446.100,183960.000,189418.200,132806.400,141280.400,140905.300,126790.700,0.000
137756.200,137455.100,183963.600,189419.400,132811.800,141286.100,140909.800,126794.800,0.000
137758.600,137458.600,183963.500,189419.200,132812.400,141284.400,140908.800,126794.200,0.000
137757.300,137457.700,183961.800,189418.300,132811.900,141285.000,140908.000,126793.200,0.000
137754.900,137453.300,183955.800,189413.900,132806.700,141282.100,140905.900,126787.900,0.000
137764.600,137458.900,183960.700,189419.000,132809.300,141285.500,140909.100,126792.000,0.000
137758.200,137450.200,183950.500,189409.900,132802.100,141277.800,140904.000,126786.300,0.000
137755.300,137447.000,183945.400,189405.900,132802.500,141275.800,140905.800,126788.900,0.000
137755.400,137447.600,183944.000,189403.600,132806.900,141273.400,140908.400,126794.400,0.000
137755.200,137450.200,183942.300,189399.600,132810.100,141279.400,140909.700,126794.200,0.000
137750.000,137447.700,183935.900,189391.800,132805.000,141270.500,140901.200,126787.900,0.000
137748.300,137447.500,183933.100,189389.400,132803.300,141268.800,140898.100,126785.400,0.000
137749.700,137446.900,183930.900,189389.500,132802.300,141265.100,140897.900,126786.300,0.000
137759.900,137453.000,183937.200,189396.500,132809.500,141273.800,140908.800,126793.700,0.000
137761.800,137453.300,183936.800,189397.600,132811.000,141278.900,140911.800,126795.900,0.000
137757.000,137447.500,183928.200,189389.000,132806.500,141275.900,140906.800,126792.800,0.000
137752.200,137443.400,183919.700,189379.800,132805.100,141271.600,140904.400,126787.400,0.000
137740.600,137434.400,183906.000,189366.300,132796.000,141258.900,140893.000,126777.100,0.000
137740.000,137436.700,183904.700,189365.600,132796.800,141261.200,140894.000,126777.900,0.000
137744.300,137442.300,183906.900,189366.600,132798.000,141266.300,140899.700,126778.900,0.000
137748.000,137444.000,183905.900,189367.500,132797.400,141269.100,140901.600,126782.900,0.000
137755.000,137448.700,183909.100,189372.400,132805.000,141272.500,140904.400,126789.300,0.000
137755.200,137448.000,183907.300,189371.500,132807.400,141270.100,140905.500,126790.000,0.000
137755.900,137447.000,183905.500,189370.600,132808.500,141271.100,140907.900,126792.300,0.000
137753.300,137443.700,183898.800,189362.800,132804.300,141268.500,140904.900,126789.700,0.000
137747.300,137440.100,183891.200,189352.700,132800.300,141266.700,140900.300,126783.700,0.000
137741.900,137436.100,183885.800,189347.100,132798.000,141262.900,140896.100,126779.500,0.000
137746.100,137442.500,183889.200,189350.700,132803.300,141266.900,140899.700,126781.600,0.000
137747.900,137447.000,183889.200,189349.200,132804.500,141271.300,140902.500,126779.600,0.000
137753.600,137453.200,183890.400,189347.100,132807.300,141282.300,140907.100,126780.400,0.000
137755.100,137449.200,183886.300,189342.500,132801.600,141271.600,140900.800,126777.200,0.000
137753.700,137446.500,183882.100,189339.200,132800.400,141267.100,140898.300,126777.800,0.000
137754.600,137449.000,183882.900,189339.300,132806.700,141274.800,140903.600,126782.100,0.000
137752.900,137450.000,183883.000,189338.000,132811.200,141277.600,140906.700,126786.200,0.000
137758.200,137458.300,183886.200,189339.800,132815.100,141283.000,140910.600,126790.100,0.000
137754.300,137456.800,183879.200,189334.600,132808.200,141280.900,140909.000,126786.600,0.000
137748.000,137455.500,183873.800,189331.200,132807.500,141280.500,140908.300,126787.000,0.000
137749.600,137459.700,183874.600,189333.000,132812.800,141284.600,140913.200,126793.300,0.000
137746.300,137452.300,183866.900,189327.700,132806.900,141276.400,140908.900,126791.400,0.000
137733.700,137435.300,183850.900,189310.900,132793.200,141262.000,140894.100,126779.400,0.000
137740.200,137440.500,183856.000,189314.900,132803.500,141270.000,140906.400,126789.700,0.000
137753.200,137453.600,183867.200,189325.200,132818.200,141280.300,140921.100,126803.500,0.000
137754.300,137454.400,183863.800,189323.800,132819.800,141283.100,140923.800,126807.100,0.000
137747.500,137447.000,183852.600,189312.000,132809.100,141274.900,140912.700,126793.900,0.000
137746.600,137446.100,183848.300,189305.500,132801.600,141270.100,140905.000,126785.500,0.000
137747.500,137448.300,183847.500,189305.200,132801.300,141270.900,140903.400,126783.000,0.000
137748.300,137449.000,183844.700,189306.600,132805.000,141276.000,140908.200,126784.400,0.000
137754.200,137452.400,183845.900,189307.800,132810.900,141284.800,140912.400,126790.500,0.000
137752.300,137445.700,183839.700,189301.600,132805.500,141279.300,140905.500,126784.600,0.000
137756.600,137448.500,183842.800,189304.000,132811.500,141282.900,140910.500,126787.500,0.000
137764.200,137458.700,183853.300,189312.600,132824.900,141291.900,140922.000,126797.300,0.000
137759.500,137455.100,183848.400,189307.700,132820.400,141281.200,140914.900,126792.200,0.000
137758.800,137454.800,183843.800,189304.800,132816.600,141283.000,140915.200,126792.000,0.000
137757.200,137450.500,183837.100,189298.400,132808.700,141278.200,140909.300,126788.800,0.000
137755.900,137448.100,183832.200,189293.200,132803.300,141274.100,140905.800,126786.500,0.000
137754.000,137444.400,183826.500,189288.300,132798.700,141268.700,140899.000,126784.300,0.000
137753.800,137443.000,183823.100,189285.100,132799.300,141271.300,140899.000,126783.300,0.000
137762.200,137449.400,183828.400,189287.500,132806.000,141275.800,140905.500,126788.300,0.000
137769.800,137453.800,183831.800,189290.200,132808.800,141276.000,140906.800,126792.500,0.000
137777.100,137459.600,183835.800,189295.800,132813.800,141283.300,140911.600,126800.400,0.000
137781.000,137461.500,183835.000,189297.100,132813.700,141285.700,140910.000,126800.900,0.000
137784.900,137464.000,183834.300,189297.000,132816.000,141290.100,140914.300,126802.400,0.000
137782.700,137459.300,183824.700,189287.600,132809.400,141286.300,140909.500,126795.000,0.000
137785.600,137461.500,183823.300,189285.300,132810.800,141288.300,140913.500,126796.600,0.000
137784.500,137460.100,183818.800,189280.900,132811.600,141285.900,140915.000,126797.400,0.000
137788.100,137462.900,183820.600,189282.900,132816.300,141283.700,140917.100,126801.700,0.000
137786.600,137463.500,183819.700,189282.300,132821.700,141288.900,140923.800,126804.000,0.000
137783.100,137462.200,183816.000,189278.000,132822.400,141287.800,140921.100,126800.000,0.000
137788.800,137467.100,183819.200,189280.000,132824.300,141286.000,140918.600,126798.900,0.000
137784.600,137464.000,183813.800,189273.200,132817.600,141290.800,140915.200,126796.800,0.000
137783.500,137465.700,183810.700,189269.600,132817.700,141293.300,140916.000,126799.800,0.000
137786.200,137472.500,183812.800,189268.000,132823.300,141303.100,140923.600,126806.600,0.000
137786.100,137471.600,183809.900,189265.500,132823.200,141302.500,140925.400,126810.800,0.000
137785.900,137469.000,183809.000,189264.200,132823.300,141295.000,140922.500,126815.800,0.000
137794.300,137476.100,183817.300,189272.600,132832.500,141303.100,140932.100,126825.900,0.000
137786.100,137468.200,183805.700,189262.600,132825.900,141296.500,140924.500,126816.900,0.000
137784.500,137466.200,183799.600,189259.300,132824.000,141294.200,140921.900,126813.500,0.000
137788.600,137468.500,183799.100,189259.500,132823.500,141297.300,140921.600,126814.200,0.000
137783.700,137462.400,183793.100,189253.600,132817.000,141286.600,140913.300,126809.300,0.000
137784.300,137464.400,183791.500,189252.100,132820.200,141292.100,140916.400,126808.100,0.000
137788.900,137470.400,183792.400,189251.800,132824.500,141303.600,140920.600,126808.500,0.000
137776.300,137455.700,183777.200,189236.400,132811.700,141285.000,140904.300,126798.600,0.000
137776.000,137455.500,183778.200,189236.000,132816.200,141285.500,140907.100,126804.400,0.000
137781.200,137461.300,183784.500,189240.000,132823.700,141294.000,140914.900,126810.900,0.000
137788.700,137468.700,183790.700,189245.700,132829.600,141301.100,140919.900,126815.700,0.000
137787.100,137465.300,183784.800,189241.800,132822.800,141293.100,140913.100,126809.200,0.000
137779.600,137459.100,183775.100,189233.200,132813.500,141281.500,140904.200,126799.600,0.000
137777.800,137459.100,183771.800,189230.000,132813.500,141284.800,140905.600,126796.000,0.000
137780.100,137461.200,183770.600,189227.700,132815.000,141288.000,140909.300,126797.100,0.000
137786.500,137467.300,183773.400,189229.700,132818.700,141291.900,140914.000,126805.900,0.000
137783.200,137464.900,183768.200,189225.000,132817.000,141289.800,140915.600,126809.700,0.000
137767.600,137446.500,183749.900,189209.400,132802.900,141266.800,140901.400,126800.100,0.000
137765.100,137442.800,183746.300,189207.600,132804.300,141264.700,140901.700,126801.000,0.000
137772.700,137452.800,183751.500,189212.300,132813.500,141276.700,140905.800,126803.600,0.000
137783.100,137464.000,183759.300,189219.700,132821.000,141286.700,140909.300,126807.400,0.000
137778.500,137460.500,183753.300,189214.900,132817.600,141283.600,140904.800,126804.300,0.000
137784.500,137468.700,183757.400,189217.600,132825.300,141286.800,140911.400,126813.200,0.000
137793.000,137479.200,183763.000,189219.400,132834.500,141298.000,140922.500,126821.500,0.000
137788.800,137477.000,183757.900,189212.500,132834.100,141301.100,140923.600,126819.700,0.000
137777.900,137465.700,183746.400,189203.200,132824.000,141286.500,140913.300,126812.000,0.000
137772.700,137459.100,183740.600,189200.200,132822.500,141284.400,140911.800,126810.000,0.000
137780.000,137465.800,183746.000,189208.200,132831.300,141294.000,140920.200,126817.900,0.000
137786.300,137475.800,183750.800,189215.200,132838.600,141306.300,140928.900,126828.100,0.000
137777.700,137470.700,183740.400,189203.000,132829.600,141305.000,140921.900,126818.500,0.000
137777.000,137471.200,183738.500,189198.900,132828.000,141304.400,140920.500,126817.600,0.000
137784.900,137480.100,183744.000,189202.100,132834.500,141307.600,140925.600,126825.100,0.000
137784.500,137479.300,183738.700,189195.300,132832.000,141306.200,140922.200,126823.100,0.000
137788.000,137481.100,183740.200,189195.400,132835.600,141307.200,140924.000,126825.500,0.000
137789.700,137481.400,183741.800,189194.900,132837.400,141311.300,140927.200,126824.600,0.000
137781.100,137471.500,183732.300,189188.500,132830.300,141299.500,140920.300,126819.100,0.000
137775.000,137464.000,183723.900,189183.800,132825.700,141293.300,140916.000,126816.000,0.000
137765.200,137454.400,183712.200,189173.900,132817.300,141284.700,140910.000,126812.500,0.000
137764.600,137458.300,183711.000,189174.800,132820.900,141289.000,140916.200,126820.200,0.000
137780.500,137475.600,183723.100,189185.700,132837.200,141309.500,140932.600,126834.400,0.000
137784.600,137478.800,183723.600,189182.800,132837.400,141312.700,140932.800,126832.800,0.000
137776.800,137467.200,183711.500,189168.900,132824.700,141300.700,140920.100,126820.400,0.000
137779.500,137468.200,183711.800,189167.700,132827.600,141304.300,140923.800,126821.900,0.000
137781.200,137470.000,183711.800,189170.300,132832.900,141309.900,140932.100,126825.200,0.000
137771.600,137457.700,183699.700,189158.300,132821.600,141292.400,140913.600,126811.700,0.000
137776.900,137462.600,183703.600,189160.400,132825.500,141296.000,140916.700,126814.100,0.000
137778.800,137466.100,183703.000,189160.500,132828.300,141296.400,140919.800,126816.900,0.000
137774.100,137461.800,183694.800,189151.700,132823.800,141295.000,140918.000,126811.700,0.000
137780.500,137469.000,183697.500,189152.900,132829.100,141302.700,140924.800,126815.800,0.000
137786.100,137474.800,183700.900,189154.200,132832.700,141302.700,140925.900,126821.000,0.000
137789.800,137480.600,183704.400,189157.100,132836.500,141309.300,140930.200,126824.900,0.000
137778.600,137469.800,183691.000,189147.000,132828.800,141303.500,140924.900,126816.700,0.000
137773.800,137464.800,183685.000,189144.000,132829.900,141301.800,140926.300,126817.000,0.000
137769.400,137461.500,183681.600,189141.900,132832.100,141299.700,140927.000,126817.800,0.000
137770.600,137464.800,183682.600,189140.700,132835.200,141303.600,140930.300,126819.200,0.000
137772.500,137467.200,183681.700,189139.000,132837.200,141308.400,140934.200,126819.200,0.000
137768.400,137461.700,183673.400,189133.200,132831.200,141300.300,140924.300,126814.200,0.000
137768.800,137463.100,183671.400,189130.500,132833.000,141302.900,140927.000,126813.600,0.000
137777.400,137473.500,183679.000,189138.000,132843.200,141313.300,140937.600,126823.400,0.000
137777.900,137472.200,183676.600,189135.500,132840.800,141316.000,140938.300,126823.200,0.000
137783.800,137475.000,183677.400,189137.600,132841.300,141314.500,140939.700,126829.000,0.000
137766.700,137456.700,183656.700,189120.900,132823.100,141292.200,140922.200,126815.000,0.000
137759.900,137454.700,183648.900,189113.600,132820.600,141291.900,140922.500,126812.400,0.000
137767.600,137469.400,183657.900,189120.800,132833.900,141305.400,140935.000,126821.000,0.000
137762.200,137466.000,183652.900,189115.500,132831.400,141300.800,140930.200,126818.800,0.000
137759.400,137460.600,183645.900,189108.100,132825.300,141300.900,140927.000,126816.900,0.000
137765.200,137464.900,183647.600,189109.300,132827.800,141307.200,140930.700,126818.800,0.000
137765.300,137466.600,183648.000,189110.000,132831.700,141310.800,140933.800,126819.400,0.000
137754.000,137455.100,183636.900,189102.700,132823.100,141293.800,140921.000,126811.700,0.000
137754.600,137454.300,183634.600,189102.700,132824.000,141298.500,140923.100,126813.400,0.000
137753.900,137450.400,183629.800,189097.900,132821.300,141298.400,140922.300,126813.300,0.000
137752.200,137448.300,183626.000,189093.900,132821.700,141298.900,140924.700,126815.700,0.000
137758.200,137457.300,183630.400,189096.900,132829.500,141302.500,140930.600,126820.600,0.000
137768.400,137469.100,183638.000,189103.400,132839.800,141316.000,140943.100,126832.200,0.000
137765.900,137466.600,183632.400,189094.800,132833.400,141315.300,140940.800,126830.000,0.000
137754.600,137454.500,183617.300,189077.800,132815.600,141293.700,140920.300,126815.000,0.000
137754.000,137454.700,183614.400,189078.000,132814.900,141297.900,140920.600,126818.100,0.000
137756.900,137456.400,183613.600,189081.100,132818.300,141302.300,140923.400,126825.000,0.000
137760.600,137457.100,183614.400,189085.000,132822.300,141303.900,140927.500,126833.000,0.000
137767.700,137463.100,183621.200,189091.000,132831.300,141314.400,140936.600,126842.400,0.000
137765.200,137462.600,183618.000,189085.100,132829.900,141319.200,140932.000,126840.900,0.000
137764.700,137465.700,183617.300,189078.600,132828.500,141321.200,140929.000,126833.900,0.000
137763.700,137468.000,183615.800,189073.800,132827.300,141319.500,140925.700,126828.400,0.000
137756.400,137461.900,183607.000,189066.500,132821.400,141310.100,140920.300,126821.400,0.000
137761.700,137466.500,183610.400,189072.100,132827.300,141318.600,140928.100,126824.800,0.000
137763.800,137464.000,183609.400,189073.400,132826.200,141313.600,140924.000,126821.700,0.000
137770.700,137465.200,183611.600,189074.800,132827.500,141309.200,140921.900,126816.500,0.000
137776.900,137470.700,183614.800,189075.500,132833.800,141311.800,140926.800,126817.800,0.000
137773.800,137471.000,183612.300,189071.900,132835.400,141309.300,140927.700,126816.800,0.000
137774.400,137476.000,183615.200,189072.900,132839.500,141311.200,140929.500,126821.400,0.000
137787.000,137489.100,183627.100,189081.900,132850.200,141321.000,140937.800,126830.900,0.000
137793.100,137492.600,183627.700,189082.500,132851.700,141331.300,140942.500,126831.900,0.000
137789.900,137487.200,183619.500,189076.400,132846.600,141325.000,140937.000,126831.500,0.000
137785.400,137483.000,183613.200,189073.700,132844.300,141314.000,140933.800,126833.500,0.000
137778.500,137476.900,183605.900,189067.500,132840.500,141310.200,140930.800,126832.800,0.000
137783.200,137480.600,183608.500,189069.400,132845.500,141317.700,140937.300,126840.200,0.000
137786.300,137482.300,183605.400,189065.500,132846.700,141319.300,140938.800,126838.900,0.000
137779.200,137477.200,183595.500,189055.000,132842.000,141310.900,140933.200,126831.500,0.000
137784.600,137484.300,183598.000,189056.300,132846.600,141313.900,140940.800,126836.100,0.000
137795.700,137497.100,183607.400,189064.100,132854.800,141328.600,140949.400,126845.500,0.000
137793.500,137498.800,183606.500,189061.400,132854.500,141336.400,140952.700,126844.100,0.000
137782.900,137485.300,183593.600,189051.800,132841.200,141317.000,140935.600,126833.300,0.000
137791.800,137492.500,183600.500,189062.700,132854.000,141330.400,140949.100,126846.500,0.000
137781.300,137482.500,183589.300,189053.500,132850.200,141320.000,140944.600,126845.200,0.000
137779.300,137483.700,183588.700,189050.700,132854.600,141325.400,140951.700,126850.300,0.000
137771.100,137477.400,183580.900,189041.800,132846.800,141317.200,140940.100,126841.400,0.000
137772.800,137481.800,183581.700,189041.100,132848.500,141317.800,140940.800,126841.800,0.000
137768.800,137479.700,183575.600,189034.800,132845.400,141318.500,140939.200,126837.600,0.000
137769.300,137480.500,183572.900,189032.300,132843.000,141320.200,140940.600,126832.700,0.000
137766.400,137473.900,183565.400,189026.200,132834.500,141309.300,140930.100,126827.600,0.000
137766.500,137473.300,183563.900,189026.800,132837.000,141317.600,140936.000,126833.800,0.000
137770.600,137474.400,183563.800,189029.300,132839.800,141315.100,140938.700,126838.600,0.000
137763.400,137469.100,183555.000,189019.500,132836.300,141312.100,140935.400,126834.800,0.000
137761.900,137468.700,183554.100,189015.800,132837.900,141314.300,140937.300,126836.000,0.000
137758.300,137465.200,183549.900,189010.600,132835.300,141311.800,140934.300,126832.200,0.000
137761.000,137469.800,183549.800,189011.500,132836.000,141313.500,140934.400,126831.700,0.000
137763.500,137472.400,183550.300,189011.600,132836.500,141316.500,140935.000,126828.800,0.000
137762.200,137470.200,183546.800,189006.200,132834.000,141312.700,140931.300,126821.800,0.000
137772.400,137477.900,183553.300,189012.600,132842.700,141321.000,140940.400,126830.000,0.000
137768.700,137469.800,183544.700,189005.900,132838.700,141317.600,140938.400,126827.200,0.000
137763.600,137464.100,183537.900,188998.300,132835.100,141314.000,140931.600,126822.800,0.000
137765.300,137467.600,183538.000,188997.200,132838.900,141312.900,140934.500,126827.500,0.000
137764.500,137470.800,183536.800,188995.500,132840.800,141318.800,140934.900,126826.500,0.000
137759.400,137464.000,183530.000,188989.900,132834.500,141306.900,140926.200,126818.800,0.000
137769.700,137474.500,183537.000,188996.000,132838.600,141309.400,140929.400,126826.400,0.000
137771.700,137479.200,183538.100,188995.200,132838.800,141317.600,140932.900,126828.800,0.000
137767.800,137476.700,183532.700,188989.900,132834.900,141317.800,140932.600,126827.100,0.000
137765.800,137474.400,183526.900,188986.000,132830.300,141312.700,140927.900,126822.900,0.000
137767.000,137473.800,183523.600,188982.800,132831.200,141313.000,140929.700,126821.200,0.000
137765.400,137471.200,183520.600,188978.600,132830.700,141311.900,140927.400,126821.000,0.000
137764.600,137472.100,183519.700,188974.500,132832.800,141316.100,140930.300,126822.500,0.000
137769.300,137479.000,183524.200,188979.500,132841.800,141322.200,140938.100,126829.300,0.000
137759.700,137471.500,183514.000,188968.200,132834.500,141316.700,140930.100,126820.000,0.000
137761.900,137473.800,183514.900,188968.400,132834.400,141317.500,140932.000,126821.500,0.000
137763.300,137473.000,183514.500,188968.600,132832.900,141313.000,140930.700,126823.400,0.000
137768.800,137476.500,183517.300,188971.600,132837.200,141321.500,140937.400,126828.500,0.000
137777.900,137481.100,183522.600,188979.400,132844.900,141327.900,140946.200,126839.500,0.000
137763.900,137466.000,183505.300,188962.400,132832.200,141311.200,140929.100,126826.000,0.000
137768.500,137471.400,183508.100,188964.300,132839.100,141318.200,140936.200,126832.600,0.000
137766.900,137468.700,183504.500,188962.300,132836.800,141312.600,140932.200,126830.300,0.000
137766.200,137466.700,183503.100,188961.600,132838.100,141315.300,140935.700,126829.900,0.000
137773.000,137474.400,183507.100,188965.500,132844.300,141324.600,140941.300,126835.500,0.000
137776.200,137476.500,183506.400,188961.900,132841.300,141316.000,140933.900,126828.500,0.000
137784.100,137485.900,183513.600,188968.000,132848.500,141322.800,140940.400,126834.700,0.000
137785.900,137488.100,183514.200,188966.800,132849.900,141326.300,140944.000,126835.200,0.000
137781.800,137481.900,183506.300,188959.300,132846.300,141321.900,140943.600,126836.200,0.000
137778.200,137479.000,183501.500,188953.200,132845.500,141320.900,140938.500,126833.100,0.000
137767.600,137468.000,183488.100,188941.300,132836.700,141310.800,140930.300,126822.400,0.000
137765.700,137464.000,183482.500,188937.200,132832.900,141305.400,140927.400,126818.900,0.000
137780.300,137479.700,183495.100,188949.400,132847.900,141321.700,140943.500,126834.400,0.000
137780.700,137483.400,183495.400,188949.000,132850.600,141325.100,140942.200,126838.800,0.000
137780.500,137482.000,183492.500,188946.200,132848.000,141322.000,140941.200,126837.500,0.000
137784.400,137485.900,183494.300,188949.000,132853.500,141327.000,140946.200,126842.400,0.000
137790.600,137490.500,183496.400,188950.900,132858.900,141328.500,140949.200,126845.100,0.000
137788.200,137485.500,183491.400,188945.600,132855.000,141322.400,140943.400,126838.900,0.000
137782.500,137480.700,183485.000,188936.700,132849.600,141323.200,140936.600,126830.900,0.000
137785.000,137486.000,183488.200,188938.800,132854.100,141331.700,140943.500,126834.200,0.000
137790.900,137493.800,183492.300,188944.700,132861.700,141342.000,140954.800,126841.900,0.000
137776.000,137478.100,183473.800,188928.600,132845.100,141322.000,140938.800,126824.200,0.000
137772.000,137470.800,183467.100,188921.700,132837.900,141312.700,140930.600,126818.100,0.000
137774.300,137470.900,183467.100,188921.500,132837.900,141310.900,140930.800,126820.900,0.000
137783.400,137481.000,183474.700,188927.900,132846.300,141319.600,140939.400,126831.800,0.000
137785.000,137481.700,183473.500,188924.400,132849.800,141319.300,140940.200,126833.100,0.000
137789.200,137485.900,183474.800,188924.300,132856.500,141324.100,140945.500,126837.000,0.000
137800.800,137494.700,183484.900,188933.100,132866.200,141331.100,140953.700,126844.000,0.000
137795.000,137489.300,183479.000,188927.900,132861.300,141325.600,140949.800,126841.500,0.000
137780.300,137474.000,183462.100,188913.600,132845.500,141315.300,140936.300,126830.800,0.000
137782.200,137474.700,183460.400,188914.600,132841.700,141317.200,140934.300,126829.000,0.000
137791.300,137481.100,183465.200,188919.400,132844.900,141318.200,140937.000,126831.200,0.000
137790.900,137482.300,183463.900,188914.400,132844.500,141324.500,140940.500,126826.100,0.000
137794.500,137484.200,183464.100,188911.700,132844.100,141323.300,140936.300,126824.800,0.000
137791.300,137481.600,183458.700,188906.900,132845.800,141323.000,140937.800,126825.000,0.000
137792.400,137484.600,183458.300,188907.800,132855.500,141329.500,140945.700,126833.700,0.000
137790.500,137488.400,183457.400,188908.500,132862.500,141338.800,140952.700,126841.300,0.000
137784.300,137483.800,183449.700,188901.900,132856.600,141334.200,140945.500,126836.700,0.000
137783.900,137482.300,183446.200,188899.200,132854.200,141330.200,140942.600,126836.900,0.000
137787.700,137489.400,183449.300,188901.600,132858.000,141338.400,140949.800,126845.400,0.000
137783.000,137488.200,183442.700,188898.000,132854.600,141341.400,140953.000,126848.200,0.000
137781.300,137483.300,183435.000,188892.700,132847.100,141326.800,140937.200,126842.300,0.000
137783.800,137485.400,183436.000,188892.600,132850.800,141336.900,140942.300,126845.500,0.000
137771.200,137470.500,183423.100,188881.100,132839.200,141326.000,140930.700,126837.500,0.000
137765.600,137462.600,183415.700,188874.600,132832.700,141317.500,140925.200,126832.600,0.000
137776.500,137472.300,183422.000,188882.400,132842.800,141322.900,140936.500,126842.900,0.000
137781.000,137475.700,183422.600,188885.400,132846.200,141323.700,140941.800,126848.500,0.000
137777.800,137471.500,183417.400,188879.100,132840.100,141319.000,140937.700,126844.800,0.000
137775.400,137470.400,183413.600,188871.300,132836.500,141313.900,140933.600,126837.000,0.000
137793.400,137489.500,183426.900,188883.800,132853.200,141324.800,140949.500,126855.200,0.000
137792.100,137485.700,183422.300,188882.000,132854.000,141321.700,140947.700,126856.500,0.000
137776.400,137469.100,183407.600,188868.000,132843.800,141308.500,140937.200,126845.400,0.000
137768.400,137461.100,183401.800,188861.800,132839.700,141303.600,140936.500,126839.400,0.000
137778.800,137472.200,183412.000,188869.400,132849.500,141315.300,140942.600,126842.400,0.000
137785.400,137477.800,183415.700,188872.200,132854.700,141320.900,140943.000,126842.000,0.000
137790.300,137484.200,183419.000,188875.600,132860.700,141335.300,140951.300,126842.900,0.000
137791.600,137485.700,183418.300,188870.700,132861.500,141339.300,140955.800,126839.500,0.000
137786.000,137479.900,183410.800,188861.500,132854.100,141328.200,140949.600,126835.800,0.000
137779.800,137476.200,183403.000,188854.200,132847.500,141329.500,140941.300,126828.800,0.000
137775.100,137471.800,183395.500,188846.800,132843.000,141323.700,140935.400,126820.600,0.000
137786.400,137480.200,183403.200,188854.900,132852.800,141326.400,140942.700,126830.800,0.000
137783.600,137475.700,183398.400,188852.100,132851.200,141317.000,140938.300,126828.900,0.000
137777.800,137474.700,183395.100,188848.900,132854.300,141327.300,140953.700,126832.400,0.000
137773.800,137468.900,183389.500,188844.100,132848.800,141320.800,140943.000,126832.600,0.000
137766.900,137458.200,183377.100,188833.600,132835.600,141303.300,140921.400,126817.800,0.000
137763.700,137456.300,183372.300,188830.900,132835.600,141302.300,140927.200,126819.100,0.000
137771.200,137466.000,183377.800,188837.500,132846.100,141320.200,140941.300,126835.500,0.000
137765.300,137461.600,183369.800,188828.100,132840.500,141316.100,140937.000,126829.100,0.000
137770.400,137468.100,183373.600,188830.900,132846.100,141322.700,140941.100,126831.300,0.000
137776.000,137475.800,183378.500,188839.300,132855.300,141338.400,140951.500,126839.100,0.000
137770.000,137469.200,183371.600,188834.500,132849.900,141326.500,140942.600,126834.200,0.000
137765.800,137468.000,183367.000,188828.900,132847.400,141328.800,140942.800,126828.500,0.000
137772.400,137473.800,183371.100,188834.300,132852.300,141332.200,140946.600,126832.700,0.000
137769.300,137471.500,183366.700,188826.500,132848.000,141319.000,140937.600,126829.500,0.000
137770.200,137473.900,183364.900,188820.500,132849.700,141324.600,140942.000,126830.000,0.000
137766.000,137473.100,183359.600,188815.300,132848.600,141330.400,140943.300,126827.800,0.000
137769.300,137477.100,183364.300,188818.900,132854.200,141329.700,140947.600,126836.200,0.000
137774.500,137481.800,183368.600,188822.200,132860.300,141334.000,140954.200,126845.600,0.000
137778.500,137481.400,183370.400,188825.400,132862.500,141337.200,140957.300,126851.900,0.000
137773.300,137474.200,183365.100,188820.700,132857.900,141334.600,140953.600,126846.400,0.000
137763.700,137463.800,183351.600,188812.100,132847.200,141326.300,140945.500,126840.000,0.000
137759.300,137454.700,183338.500,188801.600,132834.300,141311.800,140932.900,126828.500,0.000
137771.500,137464.500,183348.200,188807.500,132841.400,141317.900,140937.800,126833.600,0.000
137778.800,137472.400,183355.300,188810.800,132847.500,141325.800,140943.000,126837.600,0.000
137778.800,137472.900,183352.500,188809.300,132850.500,141328.700,140947.200,126839.400,0.000
137773.000,137465.700,183344.000,188799.700,132846.500,141322.400,140939.600,126832.600,0.000
137775.700,137469.600,183345.600,188800.100,132850.600,141326.200,140944.800,126833.600,0.000
137784.800,137477.600,183353.500,188807.400,132859.100,141334.900,140955.500,126844.500,0.000
137777.800,137469.500,183345.400,188800.500,132851.400,141327.300,140948.200,126840.400,0.000
137778.300,137470.900,183342.900,188796.800,132851.400,141328.300,140948.400,126840.400,0.000
137788.700,137479.200,183350.700,188804.800,132861.800,141335.800,140958.000,126847.500,0.000
137775.500,137464.600,183336.100,188791.400,132848.600,141319.300,140943.800,126834.400,0.000
137768.100,137462.400,183326.900,188779.200,132841.100,141315.300,140934.800,126824.600,0.000
137783.600,137480.100,183341.700,188791.500,132854.900,141330.900,140950.100,126839.700,0.000
137775.400,137470.700,183331.300,188782.800,132845.900,141317.900,140940.800,126833.000,0.000
137781.200,137476.600,183334.700,188788.300,132852.600,141328.000,140947.000,126837.300,0.000
137782.500,137479.000,183333.400,188789.400,132854.700,141329.100,140948.900,126836.700,0.000
137782.000,137476.100,183327.800,188782.300,132848.800,141310.500,140933.800,126827.900,0.000
137785.100,137480.000,183327.600,188779.900,132852.700,141320.600,140943.400,126831.500,0.000
137793.900,137490.800,183333.400,188786.000,132863.500,141334.300,140955.300,126842.500,0.000
137782.600,137484.200,183323.300,188774.600,132857.100,141330.400,140948.900,126837.000,0.000
137774.000,137475.800,183313.700,188765.500,132848.900,141326.600,140942.600,126831.900,0.000
137786.100,137485.200,183322.900,188774.900,132859.600,141336.700,140952.900,126843.100,0.000
137788.300,137487.900,183323.600,188778.200,132865.000,141343.000,140957.700,126847.800,0.000
137783.300,137481.500,183317.300,188773.400,132862.500,141337.200,140954.200,126844.900,0.000
137774.000,137471.700,183307.900,188763.900,132855.500,141328.700,140943.800,126838.500,0.000
137770.000,137469.500,183303.500,188761.700,132853.200,141330.100,140943.600,126838.300,0.000
137775.200,137475.900,183307.300,188764.600,132857.400,141336.400,140949.100,126846.200,0.000
137779.600,137479.900,183308.900,188764.900,132858.400,141338.000,140945.900,126851.500,0.000
137771.800,137470.200,183298.500,188757.200,132849.800,141327.200,140937.000,126846.900,0.000
137778.700,137475.400,183301.100,188761.800,132855.200,141331.500,140943.200,126857.400,0.000
137782.200,137478.800,183302.000,188764.600,132858.000,141330.800,140944.500,126861.300,0.000
137776.300,137474.700,183296.800,188760.600,132854.700,141330.400,140943.000,126855.200,0.000
137783.000,137477.600,183302.700,188765.800,132859.800,141325.600,140944.600,126856.100,0.000
137774.400,137464.200,183291.700,188755.000,132848.600,141308.900,140933.400,126844.500,0.000
137772.500,137460.700,183286.500,188750.000,132845.000,141307.400,140931.100,126840.900,0.000
137783.400,137472.800,183294.700,188755.300,132853.800,141313.900,140937.900,126844.900,0.000
137792.200,137484.300,183301.700,188758.300,132861.100,141324.400,140943.700,126846.100,0.000
137782.700,137474.200,183289.800,188750.300,132852.200,141313.700,140934.000,126836.400,0.000
137786.400,137477.200,183291.500,188751.500,132854.400,141319.200,140936.700,126835.700,0.000
137791.900,137482.300,183294.500,188754.300,132857.500,141322.800,140941.700,126837.400,0.000
137795.200,137485.600,183296.600,188757.300,132862.600,141327.000,140947.100,126842.900,0.000
137793.800,137484.300,183294.500,188755.300,132863.100,141326.500,140946.900,126842.600,0.000
137781.600,137476.600,183284.800,188745.200,132855.900,141322.800,140942.100,126836.400,0.000
137775.200,137469.800,183275.200,188737.100,132845.900,141303.500,140928.500,126832.100,0.000
137780.300,137477.000,183277.300,188738.000,132853.100,141309.200,140936.900,126838.800,0.000
137780.000,137479.200,183274.400,188735.400,132855.700,141318.200,140942.800,126836.900,0.000
137786.100,137484.800,183279.000,188740.000,132860.500,141317.900,140941.700,126837.200,0.000
137790.500,137487.700,183282.600,188745.400,132866.200,141325.300,140949.800,126845.600,0.000
137782.400,137478.300,183272.900,188737.800,132859.400,141317.800,140942.300,126841.400,0.000
137782.000,137477.100,183271.200,188737.600,132862.100,141316.600,140946.500,126845.600,0.000
137783.000,137480.100,183272.000,188737.500,132864.100,141317.400,140946.400,126848.200,0.000
137790.800,137490.600,183278.500,188741.000,132872.400,141335.000,140956.000,126855.600,0.000
137785.000,137484.200,183270.300,188730.600,132865.800,141331.800,140952.500,126852.500,0.000
137774.800,137474.100,183257.800,188716.100,132854.200,141315.600,140938.800,126841.700,0.000
137776.900,137476.900,183258.900,188717.400,132855.700,141317.800,140941.200,126845.100,0.000
137783.400,137483.400,183263.700,188723.300,132861.200,141325.400,140948.900,126850.100,0.000
137781.500,137479.800,183259.400,188721.000,132859.200,141326.300,140949.100,126848.600,0.000
137785.500,137483.900,183262.500,188725.900,132867.600,141337.500,140959.800,126858.100,0.000
137780.500,137478.300,183256.000,188721.100,132864.100,141325.400,140951.800,126854.800,0.000
137768.200,137467.300,183241.700,188706.900,132853.500,141315.400,140940.100,126842.900,0.000
137771.200,137472.400,183241.300,188705.400,132858.100,141322.800,140948.600,126847.400,0.000
137773.800,137474.500,183241.900,188704.300,132858.600,141320.800,140943.400,126847.500,0.000
137773.800,137478.300,183242.000,188701.400,132860.200,141325.700,140943.900,126849.200,0.000
137781.300,137488.500,183248.300,188707.800,132869.100,141340.200,140955.400,126858.700,0.000
137779.800,137486.200,183244.400,188706.200,132867.600,141337.300,140955.600,126855.400,0.000
137769.500,137471.500,183233.200,188697.200,132856.900,141323.500,140942.600,126842.000,0.000
137770.200,137469.500,183233.500,188696.700,132856.500,141319.800,140942.000,126842.000,0.000
137773.900,137473.700,183235.900,188700.200,132862.300,141329.100,140948.900,126848.300,0.000
137779.200,137479.200,183238.000,188703.400,132869.300,141337.200,140955.900,126854.600,0.000
137774.000,137472.300,183228.900,188691.400,132860.200,141320.800,140943.200,126844.900,0.000
137775.100,137472.400,183227.100,188687.500,132860.400,141320.200,140942.900,126843.300,0.000
137785.500,137484.100,183234.600,188696.200,132869.700,141333.100,140954.800,126854.000,0.000
137789.800,137488.300,183236.800,188698.500,132870.800,141338.000,140956.500,126855.300,0.000
137779.200,137475.400,183224.700,188687.600,132860.300,141327.400,140942.900,126842.100,0.000
137773.300,137467.400,183216.800,188683.100,132856.600,141324.200,140942.200,126838.200,0.000
137781.400,137473.800,183221.600,188689.200,132864.200,141329.300,140949.100,126847.800,0.000
137782.000,137473.500,183220.600,188684.600,132860.000,141317.700,140941.100,126845.100,0.000
137784.500,137480.200,183223.600,188682.200,132862.900,141324.100,140945.500,126847.100,0.000
137783.000,137481.400,183219.800,188677.400,132862.400,141328.600,140947.400,126845.500,0.000
137782.700,137480.300,183215.600,188673.100,132862.000,141329.100,140947.800,126844.700,0.000
137790.400,137488.200,183221.800,188680.700,132868.700,141333.900,140952.700,126851.500,0.000
137780.500,137477.600,183211.800,188672.100,132859.100,141329.900,140945.600,126842.700,0.000
137778.700,137471.200,183207.400,188668.500,132852.300,141316.500,140938.500,126837.700,0.000
137784.600,137475.200,183209.800,188671.400,132857.500,141325.300,140945.800,126843.700,0.000
137791.700,137480.100,183213.100,188675.500,132864.400,141325.700,140949.700,126850.200,0.000
137796.900,137483.900,183213.300,188674.700,132865.800,141322.000,140947.700,126850.100,0.000
137791.500,137478.700,183204.400,188665.800,132858.900,141318.500,140942.900,126844.600,0.000
137784.800,137473.200,183195.400,188657.200,132851.100,141312.700,140937.200,126837.900,0.000
137782.600,137473.500,183191.400,188652.400,132849.900,141319.300,140938.800,126835.400,0.000
137788.000,137480.200,183194.500,188656.300,132856.100,141328.300,140946.400,126841.100,0.000
137791.900,137479.500,183195.400,188658.900,132856.500,141318.500,140942.300,126842.900,0.000
137791.900,137478.800,183195.400,188660.800,132856.500,141319.000,140942.000,126843.400,0.000
137785.600,137472.000,183191.200,188657.000,132854.200,141315.700,140939.600,126840.300,0.000
137774.100,137461.400,183179.200,188644.200,132847.900,141311.700,140934.400,126835.700,0.000
137775.200,137464.800,183177.900,188643.000,132851.400,141314.300,140937.200,126837.000,0.000
137786.200,137477.200,183186.900,188651.100,132860.800,141319.700,140943.700,126845.200,0.000
137785.000,137476.400,183184.500,188647.000,132859.900,141318.400,140941.100,126843.200,0.000
137784.900,137476.700,183184.300,188647.700,132860.000,141316.600,140938.500,126840.300,0.000
137789.700,137485.900,183190.700,188652.600,132868.500,141328.500,140947.900,126846.100,0.000
137789.900,137484.000,183188.700,188654.400,132868.500,141326.200,140947.600,126846.300,0.000
137787.300,137479.400,183181.400,188649.900,132864.400,141321.200,140944.800,126844.500,0.000
137785.800,137477.500,183176.700,188644.900,132862.300,141318.800,140941.400,126842.700,0.000
137784.500,137475.800,183173.800,188641.200,132862.200,141323.300,140942.900,126841.800,0.000
137797.400,137490.100,183184.900,188648.200,132871.600,141338.900,140951.800,126849.500,0.000
137804.900,137498.600,183187.600,188648.400,132874.300,141340.200,140953.800,126851.700,0.000
137799.800,137493.000,183179.500,188642.100,132869.000,141330.400,140949.000,126847.800,0.000
137794.300,137488.800,183174.700,188637.300,132865.800,141326.700,140943.400,126844.000,0.000
137801.100,137497.500,183181.300,188640.400,132871.400,141335.100,140949.200,126847.500,0.000
137795.800,137490.100,183174.000,188633.600,132864.900,141328.700,140942.200,126843.700,0.000
137799.300,137492.400,183175.600,188636.000,132872.000,141333.900,140951.300,126849.300,0.000
137814.100,137510.500,183192.000,188650.400,132893.300,141358.200,140972.800,126869.900,0.000
137801.000,137498.500,183177.700,188633.400,132880.400,141342.300,140958.900,126859.000,0.000
137798.000,137491.300,183169.300,188624.600,132872.300,141324.600,140947.000,126851.800,0.000
137803.700,137496.500,183172.400,188628.000,132875.200,141330.700,140951.300,126853.500,0.000
137797.300,137493.500,183167.600,188625.300,132872.200,141332.800,140950.100,126852.200,0.000
137794.600,137493.500,183165.500,188624.500,132873.700,141334.200,140953.600,126851.900,0.000
137795.700,137495.800,183165.000,188626.500,132875.700,141338.000,140955.000,126851.600,0.000
137806.000,137502.800,183171.900,188635.300,132884.800,141340.500,140962.400,126863.600,0.000
137804.900,137498.500,183167.500,188632.800,132881.200,141331.300,140952.600,126860.200,0.000
137795.400,137489.500,183157.000,188620.600,132872.300,141323.200,140943.400,126851.300,0.000
137802.500,137497.900,183163.300,188625.600,132882.200,141340.900,140960.500,126863.000,0.000
137799.700,137492.400,183157.400,188618.200,132875.500,141330.400,140949.400,126855.900,0.000
137799.200,137491.900,183154.900,188614.100,132874.300,141326.600,140947.000,126850.100,0.000
137801.400,137495.300,183155.000,188616.100,132879.600,141334.800,140951.500,126850.000,0.000
137804.200,137500.300,183155.400,188617.700,132885.500,141343.600,140956.300,126853.400,0.000
137809.000,137506.700,183159.900,188621.100,132894.900,141347.200,140963.900,126862.900,0.000
137816.800,137513.500,183168.200,188628.500,132904.500,141355.000,140971.000,126872.000,0.000
137819.800,137515.200,183171.000,188632.500,132907.600,141356.800,140975.000,126879.100,0.000
137803.800,137499.400,183152.000,188614.400,132892.800,141345.600,140962.800,126872.200,0.000
137807.100,137504.000,183151.800,188613.600,132896.600,141355.800,140966.600,126878.600,0.000
137801.800,137497.600,183143.900,188604.800,132886.800,141334.400,140949.000,126872.800,0.000
137811.100,137506.700,183153.200,188612.500,132894.400,141342.100,140955.100,126879.300,0.000
137814.800,137512.100,183155.900,188615.100,132897.100,141351.800,140961.900,126882.400,0.000
137808.800,137506.100,183148.500,188612.000,132890.900,141348.100,140956.900,126877.800,0.000
137795.700,137492.000,183133.500,188597.900,132877.900,141332.700,140944.700,126866.900,0.000
137795.000,137490.800,183130.500,188592.900,132877.900,141332.000,140946.100,126866.700,0.000
137802.700,137502.600,183138.000,188594.500,132887.100,141349.900,140956.300,126870.700,0.000
137798.800,137498.300,183132.600,188589.500,132880.400,141332.000,140944.100,126864.800,0.000
137800.700,137501.800,183133.800,188590.600,132884.200,141338.000,140949.800,126867.400,0.000
137806.900,137505.800,183138.000,188594.500,132890.200,141341.600,140955.800,126869.000,0.000
137807.000,137506.900,183137.300,188592.800,132889.700,141344.300,140957.800,126866.000,0.000
137803.200,137504.400,183133.900,188590.300,132888.400,141348.100,140961.200,126866.000,0.000
137805.800,137502.300,183133.900,188591.100,132886.700,141336.700,140952.600,126865.600,0.000
137798.800,137492.500,183124.800,188581.700,132877.600,141323.200,140943.500,126856.300,0.000
137798.900,137493.300,183123.900,188580.600,132881.900,141330.000,140954.500,126862.000,0.000
137791.900,137485.900,183116.500,188575.500,132877.500,141316.700,140943.800,126857.700,0.000
137791.500,137489.400,183118.100,188575.600,132881.400,141324.400,140948.700,126859.500,0.000
137794.800,137496.000,183120.000,188574.600,132883.600,141338.000,140955.300,126861.700,0.000
137798.700,137500.400,183121.100,188576.800,132887.200,141346.100,140961.500,126867.100,0.000
137805.600,137507.200,183124.100,188582.300,132893.500,141345.800,140965.200,126871.300,0.000
137809.500,137512.700,183126.100,188586.500,132900.800,141352.700,140970.500,126878.600,0.000
137801.600,137504.500,183117.800,188580.100,132896.400,141347.700,140969.300,126876.500,0.000
137798.300,137502.500,183112.900,188574.800,132893.900,141339.700,140964.100,126873.700,0.000
137794.400,137502.500,183107.500,188567.700,132891.500,141342.900,140959.400,126867.000,0.000
137792.100,137504.300,183104.300,188564.500,132893.100,141351.200,140965.200,126867.000,0.000
137794.500,137506.200,183104.900,188563.800,132893.000,141346.500,140963.900,126866.800,0.000
137798.400,137507.400,183106.000,188564.900,132893.500,141348.500,140967.900,126869.900,0.000
137797.400,137502.900,183099.800,188560.900,132888.300,141343.500,140961.200,126867.200,0.000
137787.000,137488.400,183085.700,188549.800,132876.000,141330.200,140949.400,126858.700,0.000
137787.800,137488.300,183084.900,188550.900,132880.000,141338.800,140959.400,126864.300,0.000
137790.100,137489.600,183086.000,188551.800,132881.000,141330.200,140955.400,126868.600,0.000
137798.400,137499.700,183094.100,188556.600,132890.500,141343.100,140963.700,126875.300,0.000
137811.800,137514.500,183106.800,188565.900,132903.800,141359.500,140974.100,126886.500,0.000
137799.900,137502.400,183093.300,188552.100,132891.500,141347.600,140961.300,126872.400,0.000
137799.100,137504.700,183091.900,188550.700,132893.800,141352.500,140964.300,126869.100,0.000
137802.400,137506.400,183092.200,188553.400,132896.000,141352.500,140967.300,126872.000,0.000
137808.900,137512.000,183096.900,188554.900,132900.300,141354.500,140970.000,126872.800,0.000
137806.200,137509.500,183093.600,188547.400,132897.600,141354.000,140964.600,126867.100,0.000
137801.100,137503.600,183085.700,188540.500,132892.900,141350.400,140959.400,126861.900,0.000
137806.200,137507.400,183086.900,188544.300,132898.400,141352.700,140966.000,126866.400,0.000
137812.500,137514.000,183092.500,188551.700,132906.900,141363.300,140976.500,126876.200,0.000
137810.000,137511.000,183088.400,188546.200,132901.500,141359.100,140969.200,126873.300,0.000
137810.700,137514.100,183087.400,188543.600,132900.800,141365.000,140970.800,126871.300,0.000
137815.000,137518.600,183089.200,188543.300,132902.200,141367.100,140969.400,126871.700,0.000
137807.700,137506.100,183076.300,188532.000,132888.700,141342.300,140955.100,126862.100,0.000
137812.700,137508.000,183077.700,188535.400,132891.200,141346.900,140960.700,126868.600,0.000
137812.500,137508.600,183075.100,188531.600,132893.000,141354.000,140966.700,126867.800,0.000
137809.000,137503.600,183069.000,188524.500,132889.100,141346.700,140959.600,126861.400,0.000
137813.400,137507.700,183072.500,188527.800,132895.300,141348.100,140962.000,126866.800,0.000
137816.500,137513.900,183075.300,188528.600,132900.800,141352.300,140969.400,126871.700,0.000
137811.900,137512.000,183068.800,188521.200,132895.500,141348.300,140962.100,126864.500,0.000
137810.500,137510.900,183066.900,188518.100,132892.500,141349.300,140956.300,126859.600,0.000
137814.700,137512.900,183069.400,188520.100,132893.900,141348.200,140959.300,126862.100,0.000
137826.000,137523.000,183075.900,188527.500,132903.300,141364.700,140973.900,126871.100,0.000
137818.600,137513.800,183064.700,188517.100,132895.100,141356.300,140965.700,126862.000,0.000
137813.600,137509.500,183058.100,188510.600,132888.500,141345.100,140956.600,126855.800,0.000
137813.700,137510.100,183057.100,188509.800,132887.300,141339.700,140953.100,126857.300,0.000
137818.000,137514.900,183059.200,188510.400,132892.100,141346.600,140960.300,126864.300,0.000
137831.400,137529.300,183068.700,188519.200,132904.100,141362.000,140972.800,126872.600,0.000
137826.900,137525.600,183061.900,188514.100,132900.800,141364.100,140971.500,126867.700,0.000
137818.500,137511.800,183050.300,188504.100,132886.300,141340.100,140953.100,126854.700,0.000
137820.200,137510.500,183049.800,188503.700,132884.000,141338.000,140950.200,126853.700,0.000
137823.600,137511.900,183051.400,188503.800,132887.800,141345.100,140952.900,126853.900,0.000
137824.300,137510.500,183049.900,188504.300,132890.800,141341.600,140954.200,126856.700,0.000
137821.000,137508.000,183046.100,188501.100,132891.200,141340.500,140955.300,126856.500,0.000
137827.200,137517.200,183051.500,188505.600,132898.400,141346.000,140959.000,126860.000,0.000
137829.600,137523.000,183053.900,188507.200,132904.000,141353.900,140966.600,126864.700,0.000
137825.000,137521.100,183049.000,188502.500,132900.700,141353.400,140965.800,126863.700,0.000
137820.800,137518.900,183042.600,188497.000,132896.100,141356.400,140965.500,126861.600,0.000
137809.700,137503.800,183029.000,188486.200,132881.000,141324.600,140948.900,126852.200,0.000
137812.200,137503.200,183028.700,188488.800,132881.500,141327.500,140952.600,126855.100,0.000
137829.000,137517.400,183042.400,188502.800,132895.500,141346.800,140963.800,126867.100,0.000
137817.500,137509.500,183030.800,188489.700,132885.700,141337.800,140950.500,126853.700,0.000
137809.300,137505.300,183022.400,188478.900,132880.500,141333.300,140945.700,126848.200,0.000
137809.300,137506.300,183019.900,188478.100,132881.000,141334.000,140949.000,126851.700,0.000
137802.700,137500.700,183012.300,188472.400,132875.400,141328.800,140944.400,126850.300,0.000
137806.200,137507.800,183017.100,188475.400,132881.200,141332.700,140949.800,126857.200,0.000
137800.800,137503.300,183012.100,188471.100,132878.500,141327.900,140946.800,126853.800,0.000
137804.400,137506.200,183014.100,188474.300,132882.700,141332.500,140950.800,126857.400,0.000
137816.800,137518.600,183023.200,188482.300,132895.800,141345.400,140964.200,126867.700,0.000
137821.100,137521.600,183023.800,188483.400,132900.800,141347.800,140965.800,126868.700,0.000
137815.700,137517.200,183018.100,188476.300,132897.800,141354.300,140967.800,126864.900,0.000
137813.100,137516.400,183016.100,188470.500,132894.800,141353.500,140965.600,126859.000,0.000
137815.300,137515.500,183013.800,188469.800,132889.900,141338.400,140955.300,126854.400,0.000
137813.200,137510.900,183007.100,188465.800,132883.100,141331.800,140948.100,126851.000,0.000
137815.300,137511.600,183005.300,188467.500,132884.000,141332.900,140949.500,126851.600,0.000
137822.700,137517.800,183011.300,188473.400,132891.600,141346.500,140963.000,126860.600,0.000
137822.000,137512.000,183008.200,188471.000,132886.800,141339.400,140956.000,126857.500,0.000
137821.100,137506.900,183003.900,188466.900,132883.300,141328.500,140948.600,126854.500,0.000
137821.200,137508.100,183001.500,188462.900,132885.200,141333.900,140953.800,126854.800,0.000
137828.200,137515.000,183005.200,188465.200,132892.300,141342.500,140962.100,126857.700,0.000
137821.100,137508.500,182997.400,188456.700,132886.800,141339.400,140957.700,126852.100,0.000
137829.300,137520.500,183006.200,188462.000,132896.900,141351.800,140967.600,126860.200,0.000
137827.100,137520.400,183003.800,188459.900,132896.100,141345.900,140964.100,126858.500,0.000
137828.000,137520.500,183003.000,188461.400,132898.700,141347.300,140965.800,126861.000,0.000
137826.500,137516.100,182999.500,188459.000,132897.100,141344.000,140967.000,126864.600,0.000
137833.300,137520.800,183004.800,188464.500,132902.700,141346.700,140969.600,126870.700,0.000
137825.700,137515.900,182998.100,188456.700,132898.700,141352.100,140966.700,126865.200,0.000
137817.600,137509.800,182989.500,188447.200,132892.000,141344.800,140958.900,126859.700,0.000
137810.400,137501.300,182978.600,188439.100,132882.300,141325.600,140944.800,126851.000,0.000
137812.700,137508.000,182978.700,188439.200,132886.900,141339.800,140956.200,126855.800,0.000
137829.800,137528.700,182996.300,188452.800,132905.300,141364.300,140976.300,126871.100,0.000
137821.200,137518.800,182987.600,188442.500,132892.800,141343.900,140960.800,126861.400,0.000
137817.800,137515.500,182982.200,188438.900,132891.100,141346.100,140963.300,126861.900,0.000
137816.800,137511.300,182977.500,188436.800,132890.000,141339.400,140958.300,126857.400,0.000
137812.300,137505.500,182973.100,188432.200,132889.100,141334.600,140955.300,126855.200,0.000
137810.800,137504.300,182972.300,188431.100,132890.000,141332.200,140955.300,126855.700,0.000
137821.200,137518.300,182982.800,188440.600,132902.900,141349.400,140968.400,126866.100,0.000
137818.000,137517.900,182978.400,188435.100,132902.000,141354.600,140970.400,126861.200,0.000
137819.700,137517.200,182976.400,188436.500,132900.300,141347.900,140967.700,126860.500,0.000
137826.900,137521.900,182979.300,188441.800,132902.100,141348.800,140967.600,126864.600,0.000
137823.900,137521.100,182974.600,188436.500,132899.700,141352.700,140969.100,126863.300,0.000
137819.800,137519.100,182970.800,188432.900,132899.800,141357.700,140970.000,126860.700,0.000
137819.300,137518.200,182968.500,188429.200,132897.900,141353.700,140965.200,126855.000,0.000
137818.900,137515.700,182965.000,188425.600,132897.300,141345.500,140961.200,126854.700,0.000
137820.300,137515.600,182964.500,188426.600,132901.100,141350.300,140963.600,126855.500,0.000
137819.900,137515.500,182964.100,188425.600,132902.700,141352.300,140964.100,126855.400,0.000
137826.900,137525.700,182970.900,188431.700,132912.100,141363.300,140974.700,126865.300,0.000
137821.100,137518.600,182963.200,188426.400,132904.600,141348.500,140963.300,126862.500,0.000
137819.200,137520.700,182960.000,188422.800,132904.200,141350.100,140965.300,126862.800,0.000
137813.100,137515.200,182951.300,188413.000,132898.900,141347.700,140962.600,126859.100,0.000
137826.100,137523.500,182961.400,188422.600,132907.800,141355.600,140971.800,126871.500,0.000
137830.400,137526.400,182964.700,188424.100,132912.100,141359.500,140976.500,126874.600,0.000
137819.400,137515.000,182951.600,188412.900,132902.500,141350.000,140967.700,126863.200,0.000
137821.800,137520.500,182951.600,188412.500,132906.300,141362.400,140975.600,126863.400,0.000
137825.600,137526.800,182954.100,188413.200,132908.000,141364.800,140975.200,126859.700,0.000
137820.100,137520.200,182946.200,188406.300,132897.200,141345.100,140956.500,126848.000,0.000
137832.000,137532.200,182956.400,188417.400,132908.200,141363.000,140968.500,126859.000,0.000
137825.200,137525.800,182948.400,188411.100,132900.600,141356.000,140963.800,126854.400,0.000
137825.400,137530.900,182949.600,188412.300,132904.700,141360.300,140967.800,126862.200,0.000
137824.200,137529.800,182946.900,188410.000,132906.300,141358.300,140970.000,126862.600,0.000
137812.100,137517.300,182934.600,188395.400,132897.500,141350.000,140961.500,126852.200,0.000
137816.200,137523.600,182937.300,188396.700,132905.200,141359.900,140968.600,126859.200,0.000
137818.500,137527.300,182936.600,188399.400,132909.600,141357.700,140970.600,126863.900,0.000
137819.000,137526.500,182934.500,188398.700,132909.900,141359.400,140970.900,126863.900,0.000
137823.900,137531.500,182938.000,188401.300,132913.700,141362.900,140973.500,126867.300,0.000
137821.100,137528.100,182933.400,188396.300,132909.700,141363.100,140973.400,126864.600,0.000
137808.700,137511.200,182917.700,188382.700,132894.700,141350.300,140960.900,126851.200,0.000
137798.900,137496.700,182905.900,188373.500,132884.300,141329.000,140949.300,126846.900,0.000
137787.500,137486.200,182894.300,188360.200,132874.500,141323.000,140941.300,126838.800,0.000
137790.100,137491.300,182894.900,188360.000,132876.700,141331.300,140945.100,126842.000,0.000
137798.400,137498.900,182900.400,188364.800,132883.500,141337.600,140951.300,126848.500,0.000
137785.400,137485.900,182887.400,188351.000,132872.300,141327.700,140941.000,126833.500,0.000
137793.500,137494.100,182893.900,188358.800,132877.700,141332.000,140944.700,126838.000,0.000
137813.600,137512.900,182911.000,188372.800,132894.500,141347.900,140958.300,126851.900,0.000
137819.600,137519.000,182914.600,188373.500,132897.900,141352.300,140960.000,126852.800,0.000
137815.800,137514.300,182909.500,188367.100,132892.800,141346.400,140953.900,126848.800,0.000
137824.300,137520.500,182916.800,188373.100,132900.000,141351.800,140962.100,126855.200,0.000
137821.400,137514.800,182911.900,188368.600,132898.200,141349.100,140962.000,126852.500,0.000
137814.200,137510.100,182905.800,188362.100,132897.100,141341.500,140958.600,126852.700,0.000
137813.800,137512.100,182904.400,188363.400,132899.300,141345.500,140962.400,126857.400,0.000
137810.500,137509.500,182899.300,188356.600,132894.500,141343.900,140954.000,126852.500,0.000
137811.400,137509.200,182897.100,188353.500,132892.900,141342.300,140949.000,126847.600,0.000
137805.800,137506.100,182889.000,188345.000,132887.600,141341.400,140948.600,126842.500,0.000
137799.700,137500.600,182880.000,188335.500,132880.600,141333.000,140941.400,126835.300,0.000
137800.100,137500.200,182878.000,188336.400,132882.700,141333.800,140944.100,126839.900,0.000
137818.500,137518.800,182895.700,188356.200,132903.100,141354.900,140963.300,126857.800,0.000
137812.900,137514.800,182891.000,188355.800,132902.400,141359.200,140962.900,126855.900,0.000
137793.100,137496.200,182869.900,188339.400,132883.000,141335.200,140944.800,126842.400,0.000
137790.500,137494.500,182864.800,188335.900,132880.000,141326.900,140939.500,126841.200,0.000
137787.700,137493.500,182861.000,188330.000,132877.800,141323.300,140937.200,126838.000,0.000
137775.200,137481.800,182846.800,188316.500,132867.100,141316.900,140929.300,126830.300,0.000
137768.200,137472.300,182837.700,188308.500,132857.900,141306.300,140919.600,126822.600,0.000
137775.200,137479.100,182842.800,188310.200,132864.600,141315.600,140926.600,126823.200,0.000
137790.400,137492.400,182854.800,188322.300,132879.900,141328.500,140940.800,126838.400,0.000
137790.300,137491.800,182853.600,188319.900,132879.300,141326.800,140938.600,126838.200,0.000
137778.800,137476.500,182840.900,188305.900,132864.500,141311.700,140924.000,126820.500,0.000
137771.700,137465.700,182829.500,188293.800,132848.800,141293.700,140904.200,126801.800,0.000
137763.500,137460.000,182819.900,188284.300,132839.900,141287.800,140896.500,126795.100,0.000
137766.700,137463.400,182822.000,188289.900,132843.900,141295.800,140903.300,126806.000,0.000
137773.600,137471.200,182827.800,188294.300,132851.900,141304.000,140916.100,126816.500,0.000
137764.700,137460.900,182815.700,188279.800,132839.600,141287.000,140899.000,126802.500,0.000
137766.500,137460.700,182814.800,188277.800,132839.400,141282.900,140894.400,126799.100,0.000
137781.800,137475.700,182830.500,188293.300,132858.100,141304.700,140916.800,126816.200,0.000
