EEG 1, EEG 2, EEG 3, EEG 4, EEG 5, EEG 6, EEG 7, EEG 8, TRIG
750000.100,750000.100,750000.100,750000.100,750000.100,750000.100,750000.100,750000.100,0.000
750000.100,750000.100,484454.900,750000.100,482589.700,623181.300,750000.100,750000.100,0.000
639424.300,750000.100,352032.700,594129.900,-173886.900,301964.700,750000.100,680253.800,0.000
611671.200,750000.100,333015.300,594857.100,-424466.200,275561.500,750000.100,612340.300,0.000
609819.200,750000.100,310155.800,691803.000,-649533.900,341205.500,750000.100,665689.900,0.000
604003.400,618099.600,485465.900,727261.100,-750000.100,441977.500,750000.100,750000.100,0.000
750000.100,532849.300,654819.500,750000.100,-338632.000,579015.100,750000.100,750000.100,0.000
750000.100,750000.100,685393.200,750000.100,750000.100,609052.800,750000.100,750000.100,0.000
750000.100,750000.100,750000.100,750000.100,750000.100,750000.100,750000.100,750000.100,0.000
750000.100,750000.100,750000.100,750000.100,750000.100,750000.100,750000.100,750000.100,0.000
750000.100,750000.100,750000.100,750000.100,750000.100,750000.100,750000.100,750000.100,0.000
750000.100,750000.100,750000.100,750000.100,750000.100,750000.100,750000.100,750000.100,0.000
750000.100,750000.100,750000.100,750000.100,730062.000,750000.100,750000.100,703568.900,0.000
638140.300,635747.100,750000.100,750000.100,608122.300,653270.300,651713.300,586086.400,0.000
541431.600,539298.300,750000.100,750000.100,516014.100,554073.500,553162.700,497354.000,0.000
464777.600,462825.300,662458.300,680354.900,442965.000,475371.500,475033.700,426926.600,0.000
401964.800,400038.200,572494.000,588224.100,383014.400,410825.900,410986.300,369151.900,0.000
349527.900,347636.800,497472.300,511322.800,332975.700,356976.900,357627.500,321127.100,0.000
305643.300,304009.500,434654.800,446890.600,291310.300,312230.700,312807.700,280852.300,0.000
271459.300,270048.900,385856.300,396938.200,258748.600,277427.300,277871.600,249365.400,0.000
255374.000,254000.400,362905.000,373374.200,243474.100,260956.500,261456.700,234611.400,0.000
247800.000,246463.000,352058.000,362269.300,236266.500,253194.000,253697.600,227649.300,0.000
241063.900,239748.200,342425.900,352423.600,229847.100,246302.700,246821.000,221453.700,0.000
234860.600,233573.000,333572.400,343353.300,223940.600,239975.400,240487.900,215755.100,0.000
229134.700,227883.700,325413.500,334977.800,218490.300,234142.400,234632.400,210497.800,0.000
223868.600,222650.300,317894.200,327255.100,213471.700,228773.400,229240.000,205656.700,0.000
218978.400,217785.900,310916.900,320065.500,208804.600,223781.300,224221.700,201159.500,0.000
214428.100,213259.000,304428.600,313380.900,204449.600,219124.700,219546.400,196974.900,0.000
210187.800,209044.100,298388.300,307162.300,200400.700,214801.200,215195.200,193083.900,0.000
206250.200,205130.100,292775.600,301379.900,196652.400,210795.600,211161.500,189472.300,0.000
202580.000,201479.800,287541.700,295988.000,193156.900,207057.500,207400.900,186103.800,0.000
199150.300,198070.900,282646.800,290945.900,189885.100,203553.600,203875.500,182948.900,0.000
195941.400,194881.100,278065.600,286226.400,186822.200,200272.400,200579.700,180000.300,0.000
192932.900,191891.300,273771.600,281801.300,183952.200,197199.900,197492.400,177237.200,0.000
190101.500,189074.600,269728.700,277635.600,181246.900,194306.100,194582.900,174630.100,0.000
187454.600,186442.400,265943.700,273736.000,178717.300,191601.000,191863.500,172194.700,0.000
184968.100,183972.500,262389.700,270075.500,176347.200,189063.700,189315.300,169913.000,0.000
182628.800,181647.800,259043.100,266632.300,174120.300,186672.900,186918.500,167769.900,0.000
180424.200,179456.000,255888.300,263387.000,172022.900,184422.300,184661.100,165750.400,0.000
178327.500,177373.000,252899.400,260310.500,170034.600,182288.200,182520.200,163832.200,0.000
176352.900,175413.300,250078.800,257410.600,168157.500,180274.000,180502.500,162026.700,0.000
174489.700,173562.700,247409.800,254666.700,166379.100,178369.100,178593.800,160311.700,0.000
172723.500,171805.700,244883.600,252067.500,164693.100,176561.800,176782.700,158685.100,0.000
171067.800,170162.000,242513.900,249627.300,163116.400,174873.300,175085.100,157165.700,0.000
169484.400,168591.800,240252.800,247300.500,161607.000,173261.700,173466.800,155711.100,0.000
167990.100,167106.300,238112.600,245101.500,160181.400,171738.100,171939.800,154342.500,0.000
166583.600,165705.700,236093.400,243024.400,158841.000,170299.600,170498.100,153049.500,0.000
165239.600,164367.900,234166.900,241041.300,157558.600,168922.700,169119.800,151811.900,0.000
163974.500,163109.700,232349.900,239171.400,156352.200,167628.800,167823.700,150649.300,0.000
162765.700,161909.400,230619.300,237391.300,155201.800,166396.100,166588.700,149539.300,0.000
161621.600,160772.800,228978.900,235703.900,154114.800,165230.500,165419.100,148489.900,0.000
160532.600,159690.300,227415.000,234094.800,153076.400,164116.200,164302.800,147486.900,0.000
159492.300,158657.300,225924.000,232562.300,152084.700,163053.700,163237.800,146531.900,0.000
158504.000,157674.700,224505.800,231105.600,151141.900,162046.200,162227.500,145627.600,0.000
157567.200,156746.800,223162.100,229725.700,150251.600,161101.600,161276.400,144772.100,0.000
156666.000,155850.000,221871.700,228400.800,149392.700,160173.900,160352.300,143945.900,0.000
155821.100,155008.600,220655.300,227150.200,148588.000,159314.000,159489.200,143170.200,0.000
155019.000,154209.000,219497.800,225964.700,147826.100,158485.700,158666.200,142436.800,0.000
154243.600,153437.500,218386.000,224824.000,147088.900,157689.600,157873.000,141727.800,0.000
153506.300,152705.000,217328.400,223736.600,146386.200,156947.500,157123.200,141052.400,0.000
152805.800,152008.800,216320.500,222698.100,145717.500,156239.900,156409.900,140407.300,0.000
152139.800,151345.700,215359.900,221710.300,145078.500,155554.900,155723.700,139793.600,0.000
151509.000,150718.300,214447.400,220773.700,144474.900,154908.900,155076.300,139212.100,0.000
150908.500,150119.200,213579.100,219881.800,143904.300,154295.100,154463.000,138659.000,0.000
150344.000,149556.100,212759.800,219039.000,143367.000,153717.800,153884.300,138140.400,0.000
149781.200,148996.300,211955.800,218213.300,142833.200,153147.700,153314.500,137629.200,0.000
149256.100,148476.600,211198.400,217435.600,142337.100,152611.200,152782.500,137150.800,0.000
148744.700,147969.700,210463.500,216682.300,141852.900,152092.700,152262.100,136684.800,0.000
148259.400,147490.100,209767.800,215969.200,141395.500,151599.700,151769.400,136245.600,0.000
147798.100,147032.500,209105.100,215289.600,140956.800,151131.200,151299.200,135825.200,0.000
147361.600,146599.600,208475.500,214642.700,140540.900,150694.800,150854.700,135424.500,0.000
146943.700,146183.600,207871.000,214022.700,140142.100,150269.100,150426.900,135042.100,0.000
146550.900,145794.400,207300.300,213436.300,139767.800,149867.700,150026.700,134683.900,0.000
146180.100,145426.400,206757.500,212880.100,139417.000,149492.000,149651.000,134347.800,0.000
145814.700,145058.100,206226.400,212337.400,139066.700,149105.500,149270.700,134015.000,0.000
145465.000,144709.000,205718.400,211815.300,138732.500,148757.000,148912.100,133692.800,0.000
145116.100,144363.500,205219.200,211301.200,138400.400,148404.300,148557.900,133371.500,0.000
144794.900,144048.500,204755.900,210826.100,138098.500,148080.200,148233.500,133077.700,0.000
144499.500,143758.200,204325.000,210383.300,137820.500,147780.000,147929.500,132809.500,0.000
144210.300,143472.500,203905.000,209949.000,137543.200,147483.400,147631.300,132538.600,0.000
143934.800,143197.500,203502.200,209535.600,137278.300,147198.700,147345.000,132283.300,0.000
143673.800,142935.000,203117.800,209142.300,137028.200,146925.900,147073.200,132043.200,0.000
143421.000,142685.400,202748.800,208763.000,136790.000,146666.500,146818.700,131811.400,0.000
143179.200,142446.300,202396.000,208403.300,136562.200,146418.500,146573.900,131591.900,0.000
142943.400,142213.200,202053.800,208053.100,136340.300,146181.300,146334.000,131376.900,0.000
142720.500,141992.200,201727.400,207718.500,136128.700,145952.100,146104.700,131170.300,0.000
142509.000,141781.900,201414.600,207397.900,135926.400,145736.800,145889.000,130975.600,0.000
142300.000,141570.100,201105.500,207081.700,135721.700,145507.700,145665.500,130781.000,0.000
142110.100,141380.800,200822.500,206789.400,135539.900,145311.700,145471.700,130605.500,0.000
141928.800,141198.600,200552.600,206511.300,135364.800,145131.500,145286.500,130436.600,0.000
141749.300,141015.600,200284.900,206235.900,135187.100,144946.500,145098.600,130265.000,0.000
141581.200,140847.600,200033.700,205978.100,135025.800,144768.700,144923.300,130109.500,0.000
141426.100,140691.800,199798.300,205738.700,134879.700,144604.100,144763.700,129967.900,0.000
141276.400,140542.800,199571.800,205509.000,134738.000,144453.800,144612.000,129833.400,0.000
141113.100,140382.700,199337.900,205268.100,134582.400,144298.700,144451.300,129686.100,0.000
140968.100,140238.700,199122.600,205044.100,134439.400,144151.100,144300.200,129551.600,0.000
140834.700,140101.000,198916.200,204832.900,134304.600,143999.500,144150.800,129422.200,0.000
140711.800,139974.600,198723.400,204634.900,134182.700,143871.200,144021.300,129303.400,0.000
140593.000,139855.200,198540.300,204448.600,134071.000,143752.400,143902.400,129197.300,0.000
140465.600,139731.100,198354.500,204257.900,133953.700,143627.800,143775.300,129081.400,0.000
140343.300,139612.900,198176.300,204078.300,133841.500,143506.100,143653.200,128970.400,0.000
140228.800,139498.400,198005.800,203905.400,133734.800,143393.000,143538.100,128866.100,0.000
140124.800,139394.800,197847.600,203744.200,133636.000,143288.800,143433.500,128770.000,0.000
140029.200,139300.800,197699.300,203592.900,133544.900,143188.300,143334.000,128682.800,0.000
139928.000,139200.800,197548.400,203438.100,133446.600,143079.200,143228.700,128589.900,0.000
139838.400,139110.900,197408.200,203294.600,133357.900,142984.700,143133.900,128505.600,0.000
139759.800,139029.600,197278.700,203160.000,133276.600,142901.200,143046.400,128427.700,0.000
139676.200,138943.900,197148.000,203025.100,133195.000,142814.100,142960.000,128348.100,0.000
139579.800,138845.600,197007.700,202882.000,133102.900,142718.400,142864.200,128260.800,0.000
139496.400,138763.000,196884.300,202757.300,133025.200,142636.200,142780.200,128184.800,0.000
139417.100,138685.200,196764.300,202635.400,132949.000,142555.200,142699.000,128111.200,0.000
139352.900,138619.600,196657.500,202526.200,132885.500,142487.800,142632.200,128050.300,0.000
139292.200,138559.000,196556.400,202422.100,132826.200,142422.000,142567.400,127993.500,0.000
139228.900,138498.700,196456.700,202318.100,132764.100,142360.200,142501.300,127935.000,0.000
139161.300,138431.300,196352.800,202210.300,132697.000,142292.400,142432.400,127870.700,0.000
139084.900,138355.500,196241.900,202096.500,132623.100,142211.500,142353.100,127796.900,0.000
139028.000,138299.500,196153.500,202006.900,132574.200,142155.300,142298.900,127746.000,0.000
138971.400,138243.800,196065.800,201920.600,132525.600,142100.200,142245.000,127697.200,0.000
138917.000,138190.700,195981.800,201836.500,132476.100,142050.500,142191.700,127650.100,0.000
138865.900,138137.100,195900.000,201751.100,132423.600,141989.600,142135.700,127602.600,0.000
138808.900,138079.900,195812.100,201660.800,132366.400,141927.700,142076.000,127549.300,0.000
138761.300,138035.800,195736.200,201584.200,132321.700,141882.900,142029.500,127507.900,0.000
138716.700,137996.100,195664.600,201510.300,132282.000,141842.500,141987.400,127471.900,0.000
138668.000,137950.300,195589.800,201432.800,132237.800,141794.600,141939.000,127425.400,0.000
138629.600,137911.500,195525.700,201367.500,132202.600,141756.400,141899.300,127391.100,0.000
138585.800,137865.400,195455.400,201296.100,132160.300,141706.500,141851.100,127348.100,0.000
138549.000,137827.400,195394.100,201235.700,132125.900,141668.300,141814.400,127315.900,0.000
138510.900,137789.400,195332.300,201174.000,132091.800,141629.100,141775.900,127282.900,0.000
138477.500,137756.100,195274.100,201116.900,132061.100,141591.600,141740.400,127253.000,0.000
138429.400,137710.800,195204.300,201044.800,132016.000,141549.300,141694.700,127207.200,0.000
138397.200,137682.200,195150.600,200988.500,131987.900,141526.400,141668.000,127180.400,0.000
138373.000,137658.600,195101.600,200939.200,131961.400,141497.600,141637.600,127153.400,0.000
138341.100,137626.100,195045.400,200882.200,131928.300,141461.200,141602.200,127119.100,0.000
138305.600,137589.600,194988.300,200823.500,131894.400,141424.600,141566.800,127084.800,0.000
138281.500,137564.500,194945.600,200778.900,131873.400,141402.900,141543.600,127064.600,0.000
138251.900,137534.700,194897.600,200731.800,131847.700,141378.900,141517.300,127038.200,0.000
138225.500,137506.000,194851.100,200685.400,131822.800,141345.000,141487.300,127010.000,0.000
138205.000,137485.200,194810.500,200644.900,131805.200,141319.500,141463.400,126993.600,0.000
138180.600,137463.300,194768.000,200601.900,131782.600,141295.100,141440.600,126974.000,0.000
138153.100,137438.900,194724.900,200556.000,131757.100,141269.300,141415.400,126950.100,0.000
138122.100,137410.100,194677.900,200507.600,131728.000,141239.300,141385.000,126921.300,0.000
138097.800,137385.800,194635.800,200464.900,131705.500,141217.300,141361.400,126898.700,0.000
138080.000,137366.000,194599.600,200430.000,131688.300,141193.300,141341.100,126882.500,0.000
138057.300,137341.400,194560.000,200390.900,131664.800,141165.300,141315.900,126860.300,0.000
138037.200,137321.200,194525.700,200356.500,131645.900,141148.500,141297.300,126843.600,0.000
138016.100,137299.300,194488.000,200320.400,131624.000,141124.400,141273.700,126825.200,0.000
138003.400,137288.300,194457.900,200291.700,131611.600,141114.200,141262.400,126813.300,0.000
138000.200,137285.800,194438.500,200272.000,131608.700,141103.500,141253.300,126810.500,0.000
137970.800,137259.000,194394.600,200226.200,131580.300,141073.300,141221.600,126781.200,0.000
137958.400,137248.800,194368.500,200198.800,131567.700,141063.200,141208.900,126769.500,0.000
137936.900,137228.600,194332.100,200160.500,131545.700,141049.400,141188.500,126747.200,0.000
137919.900,137209.800,194298.300,200125.700,131528.000,141029.500,141169.000,126728.400,0.000
137911.300,137196.800,194273.300,200101.500,131519.500,141012.600,141155.600,126721.200,0.000
137900.900,137185.500,194249.700,200079.100,131511.200,141002.700,141146.800,126710.400,0.000
137881.600,137166.800,194218.600,200046.600,131493.800,140983.200,141127.100,126690.500,0.000
137866.100,137152.400,194191.200,200017.500,131478.600,140960.900,141107.400,126676.200,0.000
137861.000,137148.300,194173.000,199997.500,131474.700,140955.800,141100.400,126670.800,0.000
137855.300,137143.100,194153.400,199976.500,131466.200,140948.700,141091.500,126661.200,0.000
137842.100,137129.800,194127.200,199950.500,131449.600,140934.500,141077.400,126646.700,0.000
137830.400,137116.600,194101.500,199927.200,131435.800,140923.600,141066.400,126636.000,0.000
137810.200,137097.100,194070.600,199896.100,131419.200,140906.900,141047.700,126620.500,0.000
137794.200,137080.000,194043.800,199870.700,131407.100,140893.200,141036.200,126611.000,0.000
137788.600,137073.000,194025.000,199854.200,131402.400,140888.400,141031.900,126607.500,0.000
137778.700,137065.700,194003.600,199833.500,131395.500,140880.300,141023.300,126597.700,0.000
137761.300,137050.800,193978.500,199805.200,131381.900,140860.900,141008.600,126582.900,0.000
137755.500,137044.900,193963.300,199786.700,131376.200,140854.900,141001.400,126578.000,0.000
137746.000,137035.300,193942.000,199764.300,131366.400,140847.100,140991.300,126568.900,0.000
137738.900,137029.200,193923.400,199747.600,131361.600,140837.900,140984.200,126563.800,0.000
137734.900,137026.500,193908.900,199735.900,131360.100,140834.100,140981.600,126561.300,0.000
137729.200,137019.000,193892.800,199720.100,131354.600,140830.200,140977.200,126556.700,0.000
137712.000,136998.600,193864.100,199692.500,131334.900,140811.100,140955.600,126543.200,0.000
137701.000,136983.800,193840.100,199670.300,131320.400,140795.800,140941.300,126527.800,0.000
137695.800,136977.000,193822.000,199653.000,131312.800,140787.800,140932.600,126518.900,0.000
137697.800,136978.600,193813.000,199642.500,131314.500,140788.100,140933.800,126519.600,0.000
137694.000,136974.500,193798.500,199625.900,131306.400,140779.300,140924.900,126513.400,0.000
137681.500,136962.200,193774.200,199601.400,131291.500,140767.800,140911.400,126499.800,0.000
137665.100,136947.900,193747.300,199577.000,131279.000,140758.800,140899.300,126487.900,0.000
137666.000,136950.100,193738.900,199572.400,131284.700,140763.500,140904.200,126493.400,0.000
137655.300,136940.400,193719.400,199554.100,131278.000,140756.000,140896.800,126486.100,0.000
137647.100,136932.400,193703.400,199535.600,131269.200,140749.300,140887.900,126477.800,0.000
137642.300,136929.000,193691.800,199520.700,131265.100,140745.100,140882.300,126473.400,0.000
137641.500,136927.400,193681.800,199509.700,131264.500,140734.500,140877.200,126473.600,0.000
137642.900,136930.900,193674.200,199503.000,131268.600,140736.600,140881.600,126475.600,0.000
137633.000,136923.000,193656.300,199488.700,131261.200,140730.000,140873.900,126470.300,0.000
137612.800,136904.400,193628.600,199463.200,131240.900,140712.600,140856.000,126452.900,0.000
137603.200,136895.400,193611.500,199446.800,131230.400,140704.200,140845.200,126443.200,0.000
137603.900,136894.100,193603.400,199437.200,131231.900,140704.300,140845.800,126441.600,0.000
137599.400,136890.800,193590.300,199423.900,131231.800,140700.900,140845.400,126440.800,0.000
137592.300,136887.100,193575.500,199408.800,131229.600,140695.600,140840.600,126438.900,0.000
137596.500,136892.500,193572.300,199403.100,131234.400,140701.000,140843.600,126444.500,0.000
137583.200,136879.500,193550.500,199377.200,131219.900,140686.200,140828.500,126429.600,0.000
137580.600,136878.000,193538.800,199361.200,131217.600,140685.100,140825.300,126423.800,0.000
137578.600,136874.200,193526.300,199348.800,131213.600,140676.300,140820.200,126419.800,0.000
137582.300,136878.500,193522.000,199345.200,131217.500,140682.700,140823.200,126420.300,0.000
137576.900,136872.500,193510.500,199334.100,131211.500,140676.900,140816.500,126413.300,0.000
137567.200,136861.300,193493.300,199318.900,131203.000,140667.000,140806.900,126402.800,0.000
137566.000,136858.200,193483.300,199311.300,131201.400,140662.300,140803.900,126405.600,0.000
137559.600,136852.000,193468.800,199298.900,131196.400,140660.300,140802.400,126402.200,0.000
137558.400,136850.000,193460.700,199290.200,131195.300,140652.700,140800.200,126401.700,0.000
137557.100,136847.800,193451.600,199279.500,131191.000,140641.200,140792.600,126398.100,0.000
137556.800,136848.200,193442.300,199269.300,131190.100,140647.800,140793.300,126395.900,0.000
137544.600,136835.200,193420.500,199249.400,131179.400,140636.900,140782.600,126383.600,0.000
137544.900,136835.200,193412.300,199241.800,131180.500,140634.600,140780.300,126383.400,0.000
137544.800,136834.600,193404.800,199234.400,131180.100,140637.200,140781.200,126385.400,0.000
137546.300,136834.200,193396.600,199228.100,131179.600,140636.000,140780.600,126388.000,0.000
137537.100,136825.200,193378.600,199211.700,131170.400,140627.000,140774.300,126380.500,0.000
137531.500,136822.100,193366.600,199199.900,131167.500,140628.000,140772.700,126378.200,0.000
137526.900,136820.000,193354.900,199187.500,131164.400,140622.400,140766.900,126371.900,0.000
137529.600,136823.600,193348.400,199179.900,131164.100,140621.100,140765.600,126367.600,0.000
137531.500,136826.300,193343.900,199171.000,131165.100,140625.700,140766.900,126366.400,0.000
137532.000,136827.500,193338.800,199164.000,131166.400,140630.300,140767.500,126367.600,0.000
137521.900,136816.800,193323.800,199150.500,131158.200,140619.100,140757.500,126362.000,0.000
137517.200,136808.800,193310.700,199139.000,131152.400,140608.800,140750.100,126358.000,0.000
137518.900,136805.800,193302.100,199131.500,131151.600,140610.500,140749.700,126356.400,0.000
137524.100,136807.500,193298.600,199127.500,131154.800,140617.700,140752.600,126357.500,0.000
137523.900,136805.800,193290.800,199118.600,131153.000,140606.900,140748.900,126354.500,0.000
137524.600,136808.200,193283.900,199112.200,131156.600,140609.600,140752.700,126357.900,0.000
137520.500,136804.000,193272.300,199102.100,131154.500,140600.900,140748.300,126358.200,0.000
137512.900,136795.700,193258.900,199089.000,131145.600,140586.600,140737.200,126350.500,0.000
137517.400,136802.700,193259.100,199086.000,131150.100,140598.500,140742.100,126352.200,0.000
137513.800,136798.300,193248.800,199075.000,131144.000,140589.200,140736.400,126343.700,0.000
137516.800,136800.400,193244.800,199070.800,131145.600,140593.900,140737.800,126341.300,0.000
137510.200,136791.300,193229.000,199056.300,131137.600,140584.400,140729.800,126334.800,0.000
137499.800,136781.200,193211.100,199039.300,131126.100,140569.900,140718.500,126324.300,0.000
137504.200,136787.000,193209.500,199032.700,131130.800,140580.000,140724.600,126328.800,0.000
137503.300,136788.000,193201.700,199021.700,131128.800,140578.800,140722.200,126326.100,0.000
137500.300,136785.100,193189.500,199010.800,131123.800,140572.600,140716.600,126322.500,0.000
137499.700,136783.300,193179.100,199003.500,131120.300,140571.200,140716.100,126324.200,0.000
137499.400,136781.500,193171.000,198997.500,131120.200,140574.200,140718.900,126326.800,0.000
137489.700,136772.700,193155.300,198983.600,131113.200,140570.400,140713.300,126319.800,0.000
137480.700,136764.300,193141.900,198972.700,131109.200,140566.200,140709.100,126316.300,0.000
137471.800,136755.000,193127.700,198960.300,131102.700,140551.400,140700.700,126309.800,0.000
137472.400,136758.800,193123.500,198957.100,131107.700,140556.200,140705.000,126311.900,0.000
137470.700,136760.300,193117.300,198952.000,131110.800,140556.600,140704.500,126312.200,0.000
137466.100,136760.000,193107.600,198941.500,131109.300,140559.800,140703.700,126310.100,0.000
137470.700,136765.400,193104.600,198936.700,131112.600,140568.700,140707.300,126312.700,0.000
137464.700,136760.000,193091.300,198922.800,131104.300,140563.500,140700.500,126305.100,0.000
137469.300,136762.700,193088.300,198921.600,131105.200,140560.500,140699.700,126309.600,0.000
137476.000,136769.100,193088.600,198925.500,131113.000,140569.100,140711.200,126319.900,0.000
137451.100,136745.500,193057.500,198893.100,131090.100,140551.800,140690.200,126298.200,0.000
137449.500,136742.500,193051.000,198885.800,131089.200,140549.800,140689.200,126301.300,0.000
137449.600,136740.900,193044.900,198881.200,131088.800,140547.700,140689.300,126303.600,0.000
137449.600,136739.800,193038.100,198875.500,131089.000,140546.300,140688.000,126300.900,0.000
137453.300,136743.300,193036.300,198873.800,131093.100,140545.600,140688.800,126302.600,0.000
137459.700,136749.800,193037.100,198873.100,131098.300,140551.000,140692.600,126306.000,0.000
137460.400,136748.100,193030.200,198866.600,131095.800,140546.100,140688.500,126300.400,0.000
137458.600,136742.900,193019.900,198857.800,131090.400,140537.200,140680.800,126291.500,0.000
137460.400,136742.900,193013.200,198853.600,131091.500,140544.000,140683.100,126290.800,0.000
137454.100,136735.500,192998.700,198841.700,131084.800,140537.900,140678.000,126285.800,0.000
137447.100,136729.300,192986.800,198828.500,131079.800,140536.300,140678.100,126282.000,0.000
137433.100,136717.500,192969.000,198807.400,131067.700,140529.200,140667.400,126272.000,0.000
137430.400,136717.500,192961.100,198797.900,131066.600,140531.700,140665.300,126275.100,0.000
137435.200,136722.900,192957.300,198796.500,131070.600,140530.400,140670.100,126282.800,0.000
137442.800,136733.300,192958.700,198795.500,131078.400,140540.400,140678.100,126291.500,0.000
137429.200,136722.000,192942.000,198778.300,131066.700,140529.800,140666.600,126281.500,0.000
137428.300,136723.100,192939.100,198777.400,131069.300,140532.800,140670.400,126284.100,0.000
137426.000,136723.000,192932.900,198773.900,131070.100,140533.300,140670.200,126283.300,0.000
137431.900,136727.700,192931.700,198774.700,131078.600,140537.800,140677.600,126291.600,0.000
137428.900,136725.100,192922.300,198765.900,131077.900,140539.100,140676.600,126288.000,0.000
137427.200,136723.600,192915.800,198759.200,131076.700,140534.600,140671.300,126284.900,0.000
137433.200,136730.300,192917.800,198757.500,131083.500,140539.600,140674.600,126288.000,0.000
137425.300,136723.200,192904.300,198744.200,131076.700,140531.100,140666.500,126279.500,0.000
137425.100,136722.400,192896.800,198737.100,131076.700,140530.400,140666.800,126279.200,0.000
137427.900,136725.500,192894.400,198733.300,131077.300,140531.100,140669.000,126281.100,0.000
137422.500,136721.500,192884.900,198722.900,131072.200,140532.500,140666.200,126277.200,0.000
137421.800,136722.100,192879.800,198717.800,131072.600,140537.000,140667.000,126279.200,0.000
137421.300,136717.900,192871.600,198712.700,131071.000,140528.400,140665.000,126281.500,0.000
137425.500,136721.900,192869.200,198709.300,131074.700,140532.300,140670.200,126283.600,0.000
137423.600,136720.100,192862.300,198701.000,131072.200,140530.200,140668.800,126281.100,0.000
137420.700,136715.200,192852.600,198693.000,131067.100,140526.000,140663.200,126277.000,0.000
137426.800,136718.200,192849.800,198689.200,131068.100,140526.000,140661.300,126276.500,0.000
137439.400,136726.900,192852.500,198692.100,131075.900,140531.800,140667.700,126283.700,0.000
137432.800,136717.800,192838.000,198679.800,131068.000,140529.100,140661.500,126274.700,0.000
137423.100,136707.000,192821.400,198665.000,131056.400,140515.400,140650.100,126264.700,0.000
137420.100,136704.300,192812.800,198655.700,131054.900,140517.200,140650.100,126263.500,0.000
137432.500,136714.700,192817.600,198659.500,131066.900,140527.900,140659.700,126274.800,0.000
137436.300,136716.500,192813.900,198657.000,131068.800,140527.100,140662.500,126277.300,0.000
137427.700,136709.800,192800.400,198643.700,131058.800,140517.200,140653.800,126267.000,0.000
137425.500,136710.900,192795.600,198638.300,131058.300,140517.300,140654.000,126266.600,0.000
137416.000,136700.000,192780.500,198622.300,131046.600,140496.600,140639.600,126257.700,0.000
137415.900,136698.500,192774.000,198614.700,131044.400,140495.900,140636.600,126255.100,0.000
137425.400,136706.700,192775.800,198616.700,131051.800,140508.700,140644.300,126260.600,0.000
137430.400,136712.500,192774.400,198618.000,131058.400,140516.800,140651.000,126268.000,0.000
137422.800,136707.600,192762.600,198608.300,131053.600,140508.700,140646.400,126265.200,0.000
137421.100,136708.700,192758.400,198605.000,131054.200,140514.500,140647.600,126269.200,0.000
137418.600,136707.500,192753.400,198600.700,131054.900,140518.200,140648.000,126268.500,0.000
137422.400,136711.600,192752.400,198601.500,131061.100,140517.200,140650.500,126272.400,0.000
137417.000,136706.000,192741.400,198593.800,131057.000,140505.800,140645.900,126271.800,0.000
137410.400,136699.600,192728.600,198581.200,131048.600,140499.700,140641.900,126266.600,0.000
137414.800,136704.400,192727.800,198578.700,131051.100,140506.500,140646.700,126268.400,0.000
137407.400,136697.200,192716.200,198565.000,131043.500,140500.300,140636.800,126257.300,0.000
137408.100,136697.100,192711.900,198558.900,131043.700,140494.800,140633.500,126253.700,0.000
137403.400,136694.300,192702.100,198549.000,131041.500,140489.600,140630.800,126250.200,0.000
137400.400,136693.100,192693.600,198543.300,131040.100,140491.900,140632.700,126250.800,0.000
137401.700,136693.600,192690.500,198539.300,131041.100,140495.700,140635.000,126249.900,0.000
137403.000,136695.200,192686.900,198534.900,131042.400,140501.600,140638.000,126252.000,0.000
137399.600,136692.800,192678.200,198526.800,131037.400,140494.000,140631.500,126249.900,0.000
137401.400,136695.000,192674.800,198522.900,131037.900,140492.400,140631.000,126249.600,0.000
137406.200,136698.500,192674.500,198521.100,131041.700,140497.600,140635.200,126252.900,0.000
137418.400,136706.900,192680.200,198525.900,131048.600,140502.800,140641.300,126262.900,0.000
137417.900,136702.500,192671.500,198516.400,131043.700,140494.400,140635.000,126261.700,0.000
137408.500,136693.300,192656.300,198500.300,131036.500,140493.100,140630.000,126254.100,0.000
137406.500,136693.100,192650.000,198495.100,131038.400,140493.800,140629.500,126253.700,0.000
137404.900,136692.000,192644.100,198491.800,131039.200,140483.500,140625.600,126250.900,0.000
137406.500,136694.300,192641.800,198489.300,131041.000,140486.700,140626.700,126252.900,0.000
137407.100,136695.400,192637.400,198484.500,131041.100,140490.800,140628.800,126255.200,0.000
137411.200,136700.400,192635.700,198481.600,131044.100,140493.600,140633.700,126259.600,0.000
137412.800,136702.600,192631.500,198475.200,131044.600,140494.000,140634.300,126259.600,0.000
137409.200,136698.200,192622.900,198464.200,131039.000,140488.500,140628.500,126252.000,0.000
137412.300,136698.400,192621.300,198462.800,131040.300,140488.100,140628.200,126253.200,0.000
137417.900,136701.400,192620.900,198463.000,131044.000,140494.800,140633.300,126258.400,0.000
137414.200,136694.800,192609.600,198454.100,131037.200,140487.700,140626.500,126251.900,0.000
137408.300,136687.500,192597.800,198443.200,131030.600,140477.200,140618.000,126243.000,0.000
137411.400,136690.100,192596.000,198441.200,131032.500,140479.000,140618.500,126243.000,0.000
137408.600,136687.900,192589.700,198433.700,131029.100,140476.300,140615.400,126236.900,0.000
137404.300,136686.200,192582.000,198426.500,131028.100,140478.800,140615.500,126234.900,0.000
137409.900,136695.500,192583.200,198428.400,131037.600,140492.700,140626.700,126245.200,0.000
137409.600,136697.200,192578.400,198424.400,131039.400,140488.000,140625.400,126245.900,0.000
137398.800,136686.900,192563.200,198409.800,131029.800,140477.400,140615.600,126236.000,0.000
137405.400,136691.700,192565.200,198410.500,131033.300,140481.000,140619.200,126240.800,0.000
137406.400,136690.100,192561.000,198407.000,131032.300,140481.100,140618.200,126241.600,0.000
137398.400,136682.300,192547.100,198396.200,131025.800,140477.700,140612.400,126237.800,0.000
137396.300,136681.500,192540.300,198391.000,131024.700,140480.400,140616.300,126240.500,0.000
137399.000,136684.700,192538.400,198390.600,131026.600,140483.600,140620.300,126245.200,0.000
137396.200,136682.200,192531.200,198383.600,131023.200,140479.100,140616.200,126242.600,0.000
137396.100,136685.000,192527.200,198377.900,131024.000,140482.800,140617.800,126241.200,0.000
137393.600,136684.600,192520.000,198369.600,131024.700,140483.700,140617.300,126238.500,0.000
137389.300,136680.600,192511.300,198360.400,131022.200,140475.700,140611.700,126235.500,0.000
137386.200,136676.800,192504.700,198353.500,131021.200,140468.300,140607.800,126233.200,0.000
137388.200,136677.800,192503.000,198351.500,131025.000,140471.200,140610.800,126237.900,0.000
137400.500,136688.900,192509.900,198358.800,131036.800,140484.400,140623.000,126250.700,0.000
137399.800,136689.100,192504.100,198353.000,131036.900,140486.400,140622.800,126247.900,0.000
137389.800,136679.200,192487.500,198336.300,131024.900,140478.000,140612.400,126236.200,0.000
137388.600,136677.000,192479.900,198327.600,131019.000,140472.100,140608.000,126230.200,0.000
137387.500,136675.800,192472.400,198318.100,131015.600,140475.300,140607.400,126229.300,0.000
137390.800,136675.900,192469.200,198315.500,131016.900,140476.300,140610.700,126233.000,0.000
137392.000,136674.800,192464.700,198311.800,131016.600,140476.300,140611.400,126234.100,0.000
137396.400,136678.000,192465.000,198312.700,131022.800,140480.000,140616.300,126237.600,0.000
137396.800,136678.000,192461.800,198310.900,131023.900,140477.200,140616.500,126238.300,0.000
137390.800,136674.500,192452.400,198303.700,131019.200,140474.500,140612.400,126237.000,0.000
137385.800,136673.200,192443.400,198294.100,131016.900,140472.000,140608.700,126235.800,0.000
137385.800,136676.300,192438.500,198287.900,131018.700,140474.200,140608.600,126236.000,0.000
137382.000,136675.900,192430.100,198279.700,131017.800,140475.300,140609.300,126233.200,0.000
137383.800,136679.000,192425.500,198276.900,131020.200,140481.500,140614.000,126235.400,0.000
137390.300,136682.600,192425.300,198277.200,131023.100,140485.200,140615.100,126239.700,0.000
137397.100,136686.700,192427.300,198278.900,131026.900,140486.800,140617.900,126247.500,0.000
137388.500,136676.200,192413.900,198264.500,131017.700,140476.900,140607.000,126237.200,0.000
137397.700,136684.400,192416.900,198265.400,131024.500,140485.500,140614.100,126240.300,0.000
137404.400,136692.500,192420.200,198269.800,131033.800,140494.800,140624.800,126247.700,0.000
137390.900,136678.700,192403.600,198254.200,131021.300,140476.200,140610.400,126236.000,0.000
137380.000,136670.600,192390.700,198240.600,131014.700,140469.600,140604.000,126230.000,0.000
137375.200,136668.100,192382.700,198233.300,131013.100,140468.400,140603.000,126228.300,0.000
137383.400,136679.000,192386.400,198239.000,131025.300,140482.600,140615.900,126239.300,0.000
137378.300,136676.700,192379.300,198232.100,131026.400,140484.700,140617.300,126238.600,0.000
137373.300,136672.100,192373.100,198223.700,131023.000,140480.200,140613.800,126235.300,0.000
137371.600,136669.900,192365.900,198215.900,131017.600,140476.300,140610.500,126230.900,0.000
137367.900,136666.500,192356.700,198208.800,131012.300,140472.600,140604.600,126225.000,0.000
137370.300,136669.000,192355.400,198208.200,131018.100,140477.700,140610.900,126229.500,0.000
137373.600,136673.500,192355.100,198206.600,131020.900,140479.600,140612.500,126232.200,0.000
137374.500,136675.200,192351.800,198201.100,131019.300,140476.300,140608.400,126230.000,0.000
137372.400,136675.000,192344.300,198191.900,131017.800,140479.500,140608.000,126226.500,0.000
137370.300,136676.400,192337.600,198182.700,131017.500,140485.400,140608.600,126223.500,0.000
137373.500,136678.300,192331.900,198176.800,131018.100,140487.300,140609.000,126222.800,0.000
137379.600,136681.300,192331.400,198177.000,131022.600,140491.800,140615.600,126228.000,0.000
137377.100,136677.900,192325.700,198171.600,131018.300,140485.500,140611.100,126225.300,0.000
137374.000,136675.900,192320.000,198166.200,131017.200,140479.800,140609.600,126225.300,0.000
137372.100,136676.100,192315.000,198162.200,131019.100,140481.000,140610.900,126227.800,0.000
137378.000,136682.700,192315.400,198164.200,131024.900,140488.600,140617.200,126232.700,0.000
137383.800,136691.800,192318.600,198166.700,131032.500,140503.400,140627.200,126240.000,0.000
137378.600,136690.800,192310.900,198157.800,131031.300,140503.900,140626.400,126240.100,0.000
137380.300,136692.600,192306.700,198153.400,131032.300,140500.500,140624.800,126241.500,0.000
137378.900,136690.000,192298.400,198144.100,131026.300,140496.800,140619.500,126234.600,0.000
137386.800,136695.100,192299.800,198146.300,131030.700,140496.500,140621.200,126238.100,0.000
137383.200,136689.200,192291.300,198137.000,131025.800,140488.900,140616.000,126232.000,0.000
137384.500,136690.400,192289.600,198133.900,131027.100,140491.300,140618.500,126229.800,0.000
137386.000,136693.300,192286.800,198130.400,131028.400,140488.500,140616.400,126230.100,0.000
137390.600,136697.400,192287.000,198131.100,131031.700,140486.800,140618.800,126236.000,0.000
137393.000,136700.600,192284.800,198131.700,131034.500,140486.300,140620.100,126240.400,0.000
137395.600,136704.700,192284.200,198129.600,131034.300,140486.600,140621.400,126242.400,0.000
137398.700,136708.700,192283.200,198128.200,131034.300,140488.900,140622.300,126244.400,0.000
137401.200,136712.100,192282.200,198126.700,131035.600,140490.900,140622.300,126242.800,0.000
137400.700,136711.200,192276.800,198121.000,131034.600,140487.900,140617.200,126235.400,0.000
137399.100,136708.700,192270.000,198114.400,131033.600,140487.700,140614.100,126226.700,0.000
137403.500,136711.200,192269.400,198110.300,131035.400,140490.700,140614.400,126220.200,0.000
137412.200,136716.600,192274.400,198112.500,131042.700,140495.600,140619.600,126221.600,0.000
137415.400,136718.700,192271.800,198110.300,131046.400,140499.800,140621.600,126222.400,0.000
137411.900,136716.900,192263.200,198102.700,131045.100,140503.000,140622.300,126222.500,0.000
137411.500,136720.800,192260.100,198101.300,131051.100,140510.100,140630.100,126233.600,0.000
137405.700,136718.800,192252.400,198094.000,131048.600,140506.100,140629.000,126236.800,0.000
137401.400,136720.200,192248.100,198091.400,131050.200,140511.500,140633.200,126243.800,0.000
137400.700,136720.400,192244.300,198089.300,131052.500,140507.800,140635.100,126250.700,0.000
137397.800,136714.700,192236.700,198084.200,131050.200,140498.900,140631.000,126250.400,0.000
137399.500,136716.800,192235.700,198085.500,131055.600,140499.400,140635.400,126258.400,0.000
137400.500,136718.000,192233.500,198083.800,131058.500,140498.500,140638.600,126260.500,0.000
137401.500,136717.400,192230.000,198079.800,131057.200,140495.500,140637.500,126259.000,0.000
137404.200,136718.100,192227.800,198077.200,131057.500,140494.600,140636.900,126258.800,0.000
137411.100,136723.500,192228.900,198078.700,131061.400,140495.500,140638.200,126259.600,0.000
137407.900,136721.100,192221.000,198070.900,131057.700,140493.800,140633.500,126252.500,0.000
137408.400,136722.900,192216.400,198065.600,131056.000,140499.000,140634.800,126250.200,0.000
137412.600,136726.300,192214.800,198062.200,131054.900,140501.100,140634.100,126248.800,0.000
137409.800,136723.900,192207.300,198050.400,131049.300,140498.400,140629.800,126241.400,0.000
137408.800,136722.000,192201.000,198042.600,131046.200,140499.300,140626.400,126234.100,0.000
137415.000,136728.600,192201.900,198042.700,131051.500,140505.000,140629.200,126233.600,0.000
137409.900,136726.300,192193.200,198033.500,131047.200,140504.200,140624.600,126227.500,0.000
137407.400,136727.100,192187.500,198028.100,131046.100,140509.500,140624.400,126227.100,0.000
137412.000,136732.100,192186.400,198028.200,131049.400,140517.600,140628.700,126232.500,0.000
137411.600,136731.300,192180.600,198023.900,131049.300,140518.600,140629.200,126235.600,0.000
137408.500,136729.700,192172.400,198018.900,131049.100,140520.100,140631.400,126241.200,0.000
137405.800,136726.800,192167.000,198014.200,131049.600,140520.900,140632.700,126249.200,0.000
137403.400,136723.500,192162.300,198009.500,131049.300,140518.400,140631.600,126254.400,0.000
137397.500,136719.500,192152.600,198001.000,131046.800,140519.400,140633.900,126257.000,0.000
137387.600,136710.500,192138.300,197988.200,131040.800,140512.100,140629.000,126253.500,0.000
137389.300,136711.400,192135.400,197986.400,131043.200,140511.400,140633.500,126256.000,0.000
137394.200,136715.500,192137.200,197987.800,131047.000,140515.800,140636.600,126257.000,0.000
137391.000,136711.700,192130.000,197980.000,131042.500,140514.100,140631.100,126247.700,0.000
137394.500,136712.800,192128.500,197977.800,131042.700,140510.000,140631.000,126247.100,0.000
137399.400,136716.300,192128.500,197977.400,131045.600,140500.800,140629.800,126248.600,0.000
137395.800,136715.300,192121.500,197969.600,131045.500,140501.100,140630.200,126242.900,0.000
137394.900,136716.300,192117.200,197965.200,131048.600,140504.000,140631.700,126242.100,0.000
137398.000,136721.600,192117.500,197964.800,131054.200,140511.200,140636.600,126245.300,0.000
137399.400,136726.200,192117.100,197964.300,131057.200,140515.300,140638.800,126245.200,0.000
137395.400,136723.000,192109.900,197957.400,131055.000,140512.100,140636.600,126239.800,0.000
137398.800,136725.500,192107.900,197956.100,131057.800,140514.300,140636.300,126242.800,0.000
137398.800,136721.000,192102.300,197951.200,131054.600,140505.500,140629.500,126239.800,0.000
137405.200,136722.900,192103.400,197951.900,131055.700,140507.900,140629.000,126241.300,0.000
137411.600,136727.900,192104.800,197951.200,131058.200,140516.500,140633.700,126243.200,0.000
137416.500,136732.600,192105.300,197950.800,131063.500,140520.200,140637.100,126247.000,0.000
137414.800,136732.000,192100.200,197945.300,131063.800,140521.800,140640.600,126249.900,0.000
137412.900,136733.600,192097.400,197940.900,131064.800,140527.600,140644.300,126253.700,0.000
137408.700,136732.700,192093.300,197937.100,131066.100,140529.200,140644.700,126258.100,0.000
137402.000,136728.000,192084.500,197928.100,131063.200,140524.400,140640.200,126257.700,0.000
137392.200,136717.900,192070.400,197915.200,131055.900,140514.600,140633.500,126250.100,0.000
137395.900,136724.000,192071.600,197915.500,131062.500,140522.600,140640.400,126254.600,0.000
137398.200,136726.200,192071.800,197915.700,131064.500,140515.400,140639.300,126260.500,0.000
137393.400,136722.000,192064.900,197909.600,131060.000,140514.100,140637.300,126261.000,0.000
137394.500,136722.800,192061.800,197906.700,131060.300,140517.300,140640.200,126261.300,0.000
137392.100,136719.200,192053.400,197899.300,131057.900,140516.600,140638.900,126259.300,0.000
137393.100,136719.100,192049.600,197894.900,131060.400,140519.500,140641.100,126261.700,0.000
137396.000,136721.200,192050.100,197893.800,131064.400,140516.500,140639.500,126264.900,0.000
137396.000,136722.400,192049.300,197891.800,131067.900,140521.600,140641.800,126269.500,0.000
137396.300,136724.600,192046.300,197889.500,131069.600,140526.600,140643.300,126272.100,0.000
137392.900,136720.600,192037.500,197882.300,131062.600,140515.400,140635.800,126266.700,0.000
137397.200,136724.200,192036.700,197882.200,131065.100,140517.600,140638.900,126269.300,0.000
137401.400,136728.300,192037.800,197884.200,131070.700,140526.300,140643.800,126274.500,0.000
137392.600,136721.800,192027.100,197873.800,131064.200,140521.200,140636.600,126267.700,0.000
137388.000,136721.100,192019.500,197866.200,131063.300,140524.700,140638.400,126266.800,0.000
137391.300,136723.400,192016.300,197863.700,131065.900,140525.000,140640.200,126272.100,0.000
137391.700,136723.300,192011.700,197859.300,131064.800,140519.500,140637.700,126272.000,0.000
137396.200,136729.700,192013.400,197859.800,131070.300,140526.300,140644.200,126275.000,0.000
137396.500,136727.600,192009.400,197855.300,131068.500,140521.300,140642.200,126274.300,0.000
137396.300,136724.600,192002.500,197848.500,131063.700,140516.800,140637.500,126268.000,0.000
137400.000,136726.000,191999.200,197844.300,131063.800,140514.700,140635.300,126266.400,0.000
137394.700,136722.400,191990.600,197837.300,131062.500,140512.100,140633.300,126264.400,0.000
137389.200,136720.300,191983.500,197830.900,131061.600,140518.000,140635.100,126265.000,0.000
137382.600,136716.800,191975.800,197824.800,131059.700,140523.500,140637.900,126265.700,0.000
137384.700,136718.900,191973.500,197824.000,131060.700,140521.100,140636.400,126267.400,0.000
137384.500,136718.800,191969.100,197821.600,131060.300,140523.100,140639.000,126268.400,0.000
137385.100,136719.500,191964.700,197817.200,131060.400,140522.400,140637.500,126265.900,0.000
137383.600,136717.200,191959.800,197812.100,131057.300,140518.100,140636.700,126263.100,0.000
137380.700,136714.900,191955.400,197808.100,131055.500,140519.400,140635.200,126264.900,0.000
137378.800,136713.400,191949.700,197801.800,131053.600,140521.400,140634.900,126261.300,0.000
137378.600,136711.200,191944.100,197795.400,131051.800,140520.800,140633.700,126258.700,0.000
137382.500,136714.300,191943.900,197795.300,131057.000,140521.900,140639.200,126264.400,0.000
137379.400,136709.200,191936.900,197789.300,131054.400,140515.200,140636.400,126263.800,0.000
137377.900,136708.700,191931.700,197784.700,131053.900,140517.200,140635.500,126261.700,0.000
137380.900,136711.700,191930.400,197783.700,131054.600,140517.900,140635.000,126262.100,0.000
137379.500,136709.400,191926.000,197778.600,131050.600,140513.300,140631.200,126260.400,0.000
137384.800,136716.200,191926.100,197779.900,131054.700,140516.900,140635.000,126264.300,0.000
137383.000,136716.600,191919.300,197775.300,131054.200,140522.500,140637.300,126262.800,0.000
137377.200,136710.000,191907.600,197764.800,131043.100,140508.900,140625.000,126254.500,0.000
137382.000,136711.700,191905.900,197763.100,131042.400,140507.200,140623.300,126255.300,0.000
137388.800,136716.800,191907.300,197764.600,131047.100,140511.700,140627.600,126261.400,0.000
137379.900,136709.300,191895.000,197751.900,131039.300,140504.500,140620.000,126250.400,0.000
137378.400,136706.900,191889.600,197745.500,131035.100,140503.300,140617.500,126245.300,0.000
137384.200,136710.800,191890.700,197745.500,131036.800,140505.900,140618.700,126247.800,0.000
137391.400,136719.100,191894.600,197748.500,131044.400,140515.700,140624.800,126252.800,0.000
137388.900,136717.200,191888.000,197743.600,131042.000,140514.400,140623.100,126248.700,0.000
137380.400,136709.200,191875.100,197732.400,131035.600,140503.900,140616.500,126242.500,0.000
137377.900,136707.700,191868.500,197725.900,131035.600,140507.800,140618.000,126243.000,0.000
137381.200,136707.700,191867.900,197724.000,131039.000,140512.500,140621.400,126247.500,0.000
137385.300,136710.100,191869.400,197725.700,131044.000,140515.500,140625.000,126251.300,0.000
137385.400,136710.300,191867.300,197724.800,131047.700,140517.500,140627.900,126253.900,0.000
137381.300,136706.700,191858.700,197717.500,131043.900,140508.900,140622.700,126251.200,0.000
137378.600,136703.200,191852.000,197708.000,131038.300,140505.100,140617.100,126244.500,0.000
137383.100,136707.100,191853.100,197706.500,131040.300,140507.400,140619.800,126246.800,0.000
137387.200,136712.300,191853.700,197707.500,131044.500,140514.200,140622.800,126248.700,0.000
137389.400,136716.000,191852.500,197708.000,131046.900,140519.300,140626.700,126251.800,0.000
137383.700,136710.500,191840.500,197698.200,131041.300,140510.400,140620.900,126245.300,0.000
137384.100,136710.300,191835.400,197691.900,131042.100,140512.100,140623.300,126245.700,0.000
137385.800,136712.200,191835.600,197688.800,131044.400,140517.800,140626.500,126249.000,0.000
137388.000,136718.200,191837.500,197688.600,131052.000,140529.800,140635.300,126255.100,0.000
137382.100,136713.900,191828.000,197680.900,131048.800,140524.800,140634.600,126253.300,0.000
137378.100,136709.100,191819.300,197673.400,131042.900,140512.400,140626.100,126249.200,0.000
137380.000,136711.200,191818.300,197671.800,131045.200,140513.500,140628.100,126249.500,0.000
137378.800,136712.500,191817.200,197668.400,131047.800,140518.600,140629.000,126250.600,0.000
137375.100,136712.300,191812.900,197663.500,131047.900,140522.600,140631.600,126248.800,0.000
137374.100,136711.100,191807.400,197659.300,131046.900,140517.300,140629.100,126252.100,0.000
137372.300,136708.500,191801.100,197655.900,131046.600,140513.300,140628.100,126253.100,0.000
137375.300,136712.000,191802.800,197658.500,131050.900,140518.000,140632.900,126257.000,0.000
137372.400,136708.900,191798.400,197653.700,131047.800,140516.100,140629.700,126255.500,0.000
137368.300,136703.900,191789.700,197646.000,131042.400,140511.800,140625.500,126251.200,0.000
137367.100,136703.600,191784.800,197641.100,131042.400,140515.000,140627.900,126249.400,0.000
137366.000,136703.000,191779.300,197636.700,131042.800,140519.700,140630.200,126249.000,0.000
137365.000,136702.100,191774.000,197634.300,131042.400,140517.600,140628.800,126249.400,0.000
137365.500,136702.100,191771.500,197632.600,131042.100,140511.900,140627.400,126251.100,0.000
137359.800,136697.300,191762.600,197622.300,131036.400,140504.100,140620.500,126246.100,0.000
137364.400,136703.500,191762.800,197620.200,131039.000,140508.800,140625.000,126246.100,0.000
137368.700,136705.900,191761.500,197617.900,131040.100,140511.100,140624.300,126244.300,0.000
137366.700,136701.100,191756.300,197612.000,131036.300,140503.900,140618.200,126239.500,0.000
137365.800,136700.400,191753.500,197606.300,131034.300,140503.200,140616.000,126237.800,0.000
137372.300,136707.500,191755.700,197607.800,131040.300,140514.200,140621.800,126242.600,0.000
137369.100,136700.400,191745.300,197597.100,131031.400,140505.200,140615.500,126234.900,0.000
137371.700,136699.900,191741.200,197593.200,131027.800,140500.100,140612.200,126232.200,0.000
137377.200,136705.800,191743.800,197595.200,131032.600,140507.500,140616.500,126235.100,0.000
137375.000,136707.700,191741.100,197592.700,131032.900,140514.200,140618.200,126233.600,0.000
137374.100,136708.500,191736.700,197588.600,131032.200,140515.700,140616.700,126230.900,0.000
137376.200,136708.300,191734.400,197587.900,131033.200,140513.200,140616.300,126236.000,0.000
137373.000,136702.000,191726.300,197581.000,131028.300,140505.200,140611.300,126233.200,0.000
137377.100,136705.300,191726.700,197582.300,131031.600,140508.700,140615.000,126236.000,0.000
137379.100,136706.700,191725.900,197581.700,131031.100,140506.600,140614.000,126238.500,0.000
137389.100,136714.500,191731.600,197587.100,131038.500,140517.500,140620.700,126243.900,0.000
137391.600,136715.000,191728.700,197585.000,131039.400,140516.800,140621.100,126245.700,0.000
137388.000,136712.700,191722.500,197580.100,131040.500,140515.200,140620.800,126246.300,0.000
137385.800,136714.300,191719.900,197577.800,131044.900,140518.000,140624.600,126246.600,0.000
137385.000,136712.800,191715.500,197573.700,131045.200,140516.300,140623.700,126246.300,0.000
137385.900,136713.500,191712.000,197570.100,131046.000,140521.000,140626.500,126246.200,0.000
137393.400,136718.800,191714.000,197573.400,131050.300,140521.300,140629.400,126253.900,0.000
137392.400,136717.900,191708.200,197569.000,131047.600,140520.100,140627.900,126253.800,0.000
137385.700,136713.300,191698.900,197560.000,131042.100,140516.800,140622.200,126248.400,0.000
137383.000,136710.700,191695.200,197553.300,131041.200,140511.200,140621.500,126244.900,0.000
137385.400,136711.300,191693.300,197551.100,131041.000,140509.700,140621.400,126245.600,0.000
137389.800,136712.900,191690.900,197548.100,131039.100,140512.000,140621.600,126243.000,0.000
137385.200,136707.400,191681.200,197538.700,131031.700,140505.400,140613.400,126233.400,0.000
137388.200,136712.200,191682.000,197539.300,131035.600,140510.100,140617.800,126236.900,0.000
137385.100,136707.800,191674.400,197532.600,131029.100,140504.800,140614.100,126233.500,0.000
137382.100,136705.800,191667.400,197524.900,131024.700,140506.000,140613.800,126230.700,0.000
137379.400,136702.900,191659.400,197518.900,131021.300,140505.900,140612.800,126229.300,0.000
137372.000,136698.200,191649.500,197513.300,131018.000,140506.700,140613.600,126228.500,0.000
137367.200,136696.300,191642.400,197507.500,131015.000,140508.100,140611.300,126227.100,0.000
137365.500,136696.000,191639.000,197503.900,131016.500,140507.900,140612.700,126227.500,0.000
137364.700,136693.600,191634.300,197498.100,131015.500,140504.800,140610.100,126228.000,0.000
137365.700,136692.500,191632.600,197493.400,131015.100,140497.600,140604.600,126226.400,0.000
137370.300,136695.900,191635.000,197493.100,131020.600,140498.600,140608.000,126226.700,0.000
137370.400,136696.400,191633.000,197488.000,131021.600,140499.800,140610.600,126228.600,0.000
137370.900,136695.800,191629.400,197485.500,131022.300,140501.200,140611.500,126230.800,0.000
137372.000,136696.300,191626.800,197483.800,131022.400,140497.100,140610.400,126232.100,0.000
137369.600,136696.100,191622.800,197479.300,131021.600,140498.400,140609.700,126228.800,0.000
137373.300,136700.000,191621.300,197480.900,131025.200,140503.200,140614.000,126230.500,0.000
137372.800,136698.400,191615.500,197477.100,131023.300,140502.500,140613.000,126230.100,0.000
137364.300,136688.200,191603.300,197463.700,131013.200,140492.000,140602.400,126222.000,0.000
137369.600,136691.900,191603.500,197465.900,131015.600,140496.300,140607.100,126226.000,0.000
137371.800,136696.100,191602.700,197465.900,131019.900,140508.600,140614.900,126231.900,0.000
137372.000,136696.900,191599.900,197463.200,131023.500,140507.000,140615.400,126232.000,0.000
137368.300,136689.300,191591.400,197454.100,131016.800,140492.500,140605.500,126225.000,0.000
137372.400,136689.600,191589.200,197450.700,131016.400,140494.000,140604.800,126225.200,0.000
137374.500,136691.300,191585.600,197444.700,131015.600,140496.400,140605.300,126224.100,0.000
137379.900,136696.800,191588.000,197447.000,131020.900,140502.700,140611.100,126231.800,0.000
137387.900,136704.100,191591.900,197453.300,131031.000,140511.500,140620.900,126242.800,0.000
137388.000,136703.000,191588.900,197451.100,131032.400,140506.300,140619.600,126244.300,0.000
137378.500,136694.800,191578.700,197438.700,131025.200,140499.700,140610.300,126236.000,0.000
137377.300,136697.300,191578.100,197434.800,131026.100,140504.800,140609.200,126234.900,0.000
137379.200,136704.500,191581.400,197436.800,131033.900,140511.200,140613.700,126238.400,0.000
137376.000,136708.500,191578.000,197434.100,131037.600,140514.200,140616.000,126239.000,0.000
137375.000,136706.800,191574.000,197431.600,131036.000,140511.100,140614.200,126237.600,0.000
137382.000,136713.400,191578.000,197434.900,131042.100,140520.400,140620.700,126243.200,0.000
137382.600,136714.700,191576.300,197432.600,131043.100,140518.900,140620.600,126243.000,0.000
137369.100,136701.300,191560.500,197416.800,131031.400,140502.400,140608.200,126230.000,0.000
137374.200,136705.300,191560.200,197417.000,131036.100,140505.600,140612.500,126232.000,0.000
137376.700,136706.000,191557.400,197412.800,131036.300,140506.200,140613.000,126231.100,0.000
137380.300,136707.800,191558.100,197412.500,131039.000,140509.400,140616.600,126234.600,0.000
137377.300,136705.800,191554.500,197408.500,131036.800,140504.700,140613.400,126232.400,0.000
137373.900,136705.900,191549.800,197403.500,131034.300,140502.700,140611.500,126226.900,0.000
137372.000,136701.000,191542.200,197396.400,131028.300,140495.700,140607.800,126220.400,0.000
137376.400,136702.800,191542.300,197395.300,131028.500,140494.400,140608.200,126223.800,0.000
137380.400,136705.400,191543.100,197395.300,131029.100,140497.600,140611.000,126226.700,0.000
137377.500,136703.800,191538.600,197390.100,131025.600,140494.800,140606.000,126223.500,0.000
137377.300,136704.400,191533.400,197384.500,131024.100,140495.600,140603.800,126222.800,0.000
137374.700,136701.200,191525.100,197377.600,131021.800,140491.200,140601.200,126221.500,0.000
137378.800,136705.200,191527.000,197377.800,131026.000,140493.800,140603.800,126225.300,0.000
137381.300,136711.000,191527.500,197377.500,131030.000,140500.200,140608.500,126228.400,0.000
137384.000,136714.400,191527.000,197377.000,131032.400,140500.900,140610.300,126231.200,0.000
137387.200,136713.900,191523.100,197373.600,131033.300,140499.600,140610.400,126231.800,0.000
137387.100,136712.100,191516.700,197366.700,131031.500,140497.300,140607.500,126225.600,0.000
137387.700,136711.200,191513.300,197363.100,131030.700,140497.600,140607.400,126224.700,0.000
137384.900,136708.500,191508.300,197358.200,131027.100,140498.900,140605.400,126223.300,0.000
137384.700,136707.700,191504.100,197355.700,131025.100,140500.800,140605.100,126224.400,0.000
137382.600,136703.300,191496.800,197351.700,131022.300,140501.200,140603.900,126220.900,0.000
137383.500,136703.100,191494.200,197350.200,131023.800,140499.300,140606.400,126222.700,0.000
137384.100,136706.900,191493.500,197348.800,131027.100,140505.400,140608.800,126223.600,0.000
137387.200,136711.100,191494.600,197349.300,131030.300,140506.700,140610.700,126226.800,0.000
137387.200,136710.900,191490.200,197344.200,131026.700,140508.200,140610.000,126226.100,0.000
137390.700,136711.300,191486.300,197341.700,131025.200,140507.900,140609.200,126226.500,0.000
137396.800,136716.900,191487.200,197342.500,131029.300,140512.300,140613.700,126228.900,0.000
137389.200,136711.500,191477.200,197331.400,131022.600,140505.700,140606.900,126222.400,0.000
137383.100,136704.900,191467.800,197322.500,131014.200,140499.600,140598.600,126217.300,0.000
137387.100,136708.600,191465.800,197320.400,131016.900,140506.300,140604.500,126221.400,0.000
137383.300,136704.100,191456.500,197312.100,131012.100,140502.600,140602.200,126219.900,0.000
137384.900,136707.200,191456.600,197311.700,131014.600,140501.500,140603.100,126221.600,0.000
137380.600,136707.600,191452.500,197307.000,131015.700,140503.800,140604.100,126220.800,0.000
137376.000,136704.900,191447.300,197303.600,131015.100,140500.900,140602.500,126221.300,0.000
137377.800,136708.400,191448.200,197307.100,131021.300,140505.000,140607.300,126228.100,0.000
137376.900,136705.400,191444.100,197302.700,131019.800,140503.600,140607.500,126226.500,0.000
137374.900,136702.900,191438.400,197296.900,131017.900,140510.300,140609.000,126225.700,0.000
137372.800,136699.900,191432.600,197292.100,131013.800,140501.400,140603.500,126224.000,0.000
137370.200,136696.100,191428.500,197288.200,131011.500,140496.300,140599.500,126222.900,0.000
137370.600,136697.300,191427.800,197286.800,131013.400,140497.600,140599.600,126221.700,0.000
137366.600,136695.800,191422.700,197281.800,131012.900,140495.700,140597.700,126217.700,0.000
137369.800,136702.200,191423.600,197282.900,131020.400,140503.100,140604.400,126221.700,0.000
137371.500,136705.000,191422.900,197282.000,131023.900,140504.900,140607.800,126225.900,0.000
137377.000,136707.700,191425.200,197282.600,131027.100,140506.000,140611.100,126230.500,0.000
137374.900,136703.700,191419.400,197274.500,131022.300,140505.100,140607.300,126224.400,0.000
137373.900,136701.100,191414.400,197269.100,131018.600,140500.900,140603.600,126217.700,0.000
137376.500,136703.500,191413.600,197269.200,131021.300,140499.200,140603.000,126220.400,0.000
137374.600,136698.800,191405.800,197262.100,131015.700,140489.900,140597.500,126216.600,0.000
137379.500,136700.100,191404.400,197261.000,131018.200,140493.600,140601.200,126220.000,0.000
137378.300,136698.700,191401.400,197258.100,131017.000,140493.500,140600.100,126220.000,0.000
137378.400,136701.100,191398.400,197255.200,131018.000,140494.800,140600.400,126218.100,0.000
137381.100,136706.100,191397.600,197256.100,131022.400,140503.400,140606.700,126222.200,0.000
137383.900,136706.100,191396.600,197254.100,131021.300,140499.200,140604.900,126220.800,0.000
137387.000,136705.900,191395.300,197251.000,131020.000,140494.100,140604.500,126220.100,0.000
137387.300,136706.500,191392.100,197247.100,131020.400,140495.900,140604.600,126218.900,0.000
137390.200,136711.000,191391.700,197247.200,131025.300,140500.100,140608.500,126222.500,0.000
137387.500,136708.500,191384.400,197242.100,131025.500,140496.400,140605.500,126221.700,0.000
137386.000,136707.400,191380.700,197239.700,131026.600,140497.600,140607.100,126223.100,0.000
137389.300,136712.900,191385.200,197241.100,131032.000,140505.500,140612.400,126228.600,0.000
137390.500,136716.400,191385.700,197240.700,131034.500,140507.600,140614.700,126234.900,0.000
137389.400,136716.100,191382.900,197238.500,131034.600,140507.400,140615.500,126236.100,0.000
137395.600,136721.400,191384.900,197242.300,131041.300,140516.400,140624.800,126241.900,0.000
137387.400,136711.700,191372.500,197231.600,131032.800,140505.100,140614.700,126235.400,0.000
137385.100,136709.900,191368.900,197227.200,131031.200,140504.200,140611.600,126232.600,0.000
137388.500,136716.700,191371.500,197228.600,131037.200,140512.300,140618.200,126238.000,0.000
137386.500,136715.200,191364.800,197223.200,131034.300,140512.900,140616.500,126236.000,0.000
137390.200,136714.900,191360.800,197221.200,131035.100,140508.300,140614.700,126235.800,0.000
137393.600,136717.400,191361.300,197220.700,131036.200,140508.300,140612.600,126233.600,0.000
137385.400,136712.600,191354.900,197211.800,131029.300,140503.300,140606.600,126226.200,0.000
137387.600,136718.300,191357.200,197211.800,131033.900,140507.900,140611.600,126231.300,0.000
137390.900,136721.900,191358.500,197211.300,131036.000,140510.800,140614.900,126235.800,0.000
137389.800,136720.800,191353.800,197207.600,131035.200,140509.200,140613.000,126233.400,0.000
137384.000,136716.700,191345.700,197200.000,131030.400,140503.800,140610.500,126229.300,0.000
137383.800,136717.900,191343.700,197197.700,131030.100,140505.900,140611.300,126228.700,0.000
137388.500,136722.400,191345.600,197199.800,131035.700,140509.900,140613.900,126232.000,0.000
137393.900,136726.800,191346.000,197200.600,131040.600,140512.700,140616.900,126233.600,0.000
137392.100,136724.200,191339.400,197195.200,131036.500,140507.700,140613.000,126230.900,0.000
137396.300,136729.200,191341.300,197198.400,131041.200,140514.800,140617.900,126237.400,0.000
137399.200,136730.400,191340.200,197195.700,131042.100,140518.400,140619.500,126237.100,0.000
137392.100,136720.100,191326.700,197183.900,131032.800,140510.500,140611.500,126231.700,0.000
137395.400,136721.800,191323.900,197184.200,131034.600,140513.200,140614.500,126235.100,0.000
137389.100,136715.000,191314.300,197176.300,131029.700,140505.000,140609.400,126230.100,0.000
137392.100,136717.700,191315.100,197174.800,131032.700,140507.200,140613.100,126233.500,0.000
137391.500,136716.800,191312.000,197169.600,131031.200,140505.000,140612.200,126231.800,0.000
137391.800,136717.000,191310.800,197167.700,131032.700,140504.700,140614.200,126232.600,0.000
137394.300,136717.800,191310.300,197166.500,131034.500,140504.400,140614.000,126236.000,0.000
137390.800,136715.200,191303.600,197158.800,131030.700,140498.200,140609.700,126230.400,0.000
137392.700,136718.300,191301.800,197157.200,131033.500,140499.900,140612.200,126232.200,0.000
137390.500,136716.200,191296.200,197152.000,131032.000,140501.200,140609.800,126231.300,0.000
137401.100,136725.000,191302.700,197157.200,131041.000,140510.300,140617.900,126238.800,0.000
137399.300,136722.900,191298.100,197153.700,131038.400,140505.100,140613.600,126235.100,0.000
137397.700,136721.700,191292.900,197149.400,131035.100,140503.300,140610.200,126231.500,0.000
137396.300,136720.400,191287.900,197144.500,131033.400,140501.400,140609.500,126230.300,0.000
137396.100,136719.700,191285.600,197141.400,131030.700,140498.500,140606.300,126229.000,0.000
137393.900,136718.200,191281.800,197136.100,131026.700,140496.900,140601.400,126224.300,0.000
137392.700,136717.900,191278.300,197133.500,131026.300,140497.400,140601.200,126223.700,0.000
137393.700,136720.400,191276.800,197133.400,131028.300,140498.400,140604.200,126224.200,0.000
137396.500,136724.500,191277.800,197133.700,131030.800,140500.700,140606.800,126226.800,0.000
137395.600,136722.000,191272.700,197128.600,131026.900,140499.400,140604.500,126223.100,0.000
137387.100,136713.500,191258.900,197115.000,131015.900,140492.700,140596.000,126212.500,0.000
137394.600,136721.000,191261.100,197117.700,131023.900,140502.300,140603.800,126219.600,0.000
137396.300,136720.600,191258.200,197117.200,131025.400,140498.900,140604.700,126223.400,0.000
137385.800,136708.300,191243.700,197102.100,131012.300,140485.400,140592.800,126211.200,0.000
137390.200,136712.100,191245.900,197102.800,131015.900,140490.900,140596.300,126214.300,0.000
137392.100,136716.700,191246.700,197102.900,131020.000,140498.300,140600.900,126217.400,0.000
137393.600,136718.800,191245.500,197102.300,131023.300,140499.600,140605.100,126220.000,0.000
137394.300,136717.500,191242.700,197099.800,131021.000,140489.600,140601.800,126219.700,0.000
137397.300,136718.900,191242.300,197098.900,131022.000,140489.400,140601.800,126220.600,0.000
137401.200,136719.900,191242.600,197098.000,131023.800,140496.600,140604.600,126220.800,0.000
137400.500,136719.900,191242.300,197096.900,131025.500,140493.900,140604.200,126221.100,0.000
137401.900,136723.800,191241.900,197096.700,131029.900,140496.300,140607.300,126225.900,0.000
137396.000,136717.900,191231.800,197087.300,131025.400,140494.400,140603.400,126220.800,0.000
137398.200,136720.300,191231.200,197086.500,131029.600,140505.400,140609.800,126223.600,0.000
137402.900,136723.900,191233.900,197087.100,131031.800,140505.200,140610.300,126227.900,0.000
137405.700,136728.100,191235.000,197085.400,131032.700,140507.400,140611.100,126230.000,0.000
137400.500,136721.300,191225.400,197077.200,131024.400,140496.100,140602.400,126223.300,0.000
137399.100,136719.400,191221.000,197073.700,131023.000,140496.700,140603.800,126223.300,0.000
137397.600,136718.600,191218.000,197069.900,131024.100,140501.500,140606.100,126222.800,0.000
137401.100,136721.300,191217.900,197069.000,131027.500,140510.800,140610.600,126223.300,0.000
137394.800,136715.900,191208.500,197060.000,131021.900,140509.200,140606.200,126217.000,0.000
137390.900,136711.100,191200.200,197054.100,131018.000,140504.600,140603.100,126214.300,0.000
137394.000,136712.800,191197.800,197052.700,131020.700,140505.800,140606.800,126217.900,0.000
137388.500,136708.300,191188.900,197044.900,131016.600,140497.600,140602.100,126215.700,0.000
137382.900,136705.300,191182.500,197037.600,131014.800,140497.800,140601.000,126214.100,0.000
137385.600,136709.900,191184.200,197038.500,131020.200,140505.900,140605.800,126219.200,0.000
137385.500,136709.000,191180.900,197033.600,131019.300,140502.600,140605.400,126214.900,0.000
137383.800,136706.700,191176.400,197027.400,131015.700,140497.100,140601.100,126209.400,0.000
137385.400,136708.500,191175.700,197027.400,131018.200,140502.100,140605.100,126212.800,0.000
137382.600,136703.100,191170.100,197022.900,131014.700,140494.400,140600.700,126209.900,0.000
137384.900,136704.400,191169.200,197022.000,131015.100,140493.600,140598.600,126210.100,0.000
137381.900,136703.800,191163.700,197016.000,131013.100,140495.700,140597.700,126208.200,0.000
137381.400,136703.300,191160.500,197013.900,131012.000,140493.600,140599.000,126209.200,0.000
137381.800,136703.800,191158.900,197012.100,131012.000,140494.200,140600.900,126212.400,0.000
137385.700,136708.700,191160.900,197012.700,131016.100,140498.900,140606.100,126217.100,0.000
137384.600,136706.800,191155.800,197008.600,131012.800,140495.900,140603.200,126213.400,0.000
137375.700,136697.200,191142.200,196998.100,131001.700,140488.100,140593.800,126204.300,0.000
137378.700,136699.600,191140.400,196996.600,131003.100,140490.000,140594.800,126205.200,0.000
137379.500,136700.400,191137.000,196991.400,131004.700,140491.700,140595.600,126204.500,0.000
137380.800,136703.900,191137.500,196991.400,131010.100,140498.900,140600.800,126205.600,0.000
137377.300,136701.300,191132.000,196986.800,131010.600,140498.100,140600.600,126204.000,0.000
137378.900,136702.500,191129.200,196984.400,131013.700,140498.400,140604.500,126204.800,0.000
137384.000,136707.800,191130.000,196985.600,131019.100,140504.800,140611.500,126209.700,0.000
137379.600,136704.100,191123.000,196979.100,131014.700,140504.100,140609.600,126207.500,0.000
137376.000,136699.900,191118.300,196975.300,131011.400,140495.900,140604.600,126206.500,0.000
137377.100,136700.500,191117.500,196974.700,131012.900,140496.700,140607.100,126209.800,0.000
137376.500,136698.200,191113.600,196971.700,131011.400,140497.300,140607.000,126213.400,0.000
137377.100,136698.700,191109.800,196968.700,131012.100,140496.500,140608.000,126215.700,0.000
137374.800,136698.400,191106.200,196965.400,131014.200,140496.500,140610.000,126218.100,0.000
137377.700,136702.300,191108.800,196967.900,131019.900,140502.700,140615.500,126227.100,0.000
137375.900,136702.000,191105.300,196962.500,131018.200,140502.800,140612.700,126227.100,0.000
137376.400,136705.200,191103.000,196959.100,131019.000,140505.100,140613.000,126227.400,0.000
137381.500,136712.200,191105.100,196960.800,131024.700,140511.000,140616.500,126230.600,0.000
137376.300,136709.700,191099.000,196954.000,131021.400,140510.700,140612.500,126223.800,0.000
137378.600,136713.900,191099.500,196954.400,131024.200,140518.100,140614.300,126225.900,0.000
137392.300,136727.800,191110.500,196965.000,131036.900,140528.600,140622.500,126240.500,0.000
137382.000,136718.800,191098.000,196951.600,131026.500,140516.000,140609.300,126230.200,0.000
137379.600,136716.500,191093.000,196945.500,131024.700,140508.300,140607.000,126225.900,0.000
137382.500,136717.200,191093.600,196944.500,131026.800,140508.100,140607.900,126227.400,0.000
137382.200,136714.300,191090.100,196942.300,131025.800,140507.700,140606.500,126227.500,0.000
137383.300,136714.200,191087.300,196941.600,131026.600,140508.400,140608.200,126230.300,0.000
137386.300,136717.500,191088.600,196944.000,131029.300,140508.200,140609.200,126235.400,0.000
137383.200,136713.000,191081.600,196939.400,131026.000,140501.500,140604.900,126233.800,0.000
137381.300,136712.300,191077.600,196936.400,131026.300,140503.800,140605.200,126235.000,0.000
137385.500,136717.100,191080.700,196938.800,131031.500,140509.000,140609.900,126237.800,0.000
137383.900,136716.900,191076.300,196933.500,131030.200,140505.700,140607.800,126233.900,0.000
137381.300,136714.500,191070.300,196927.200,131026.900,140499.900,140603.300,126227.700,0.000
137377.100,136709.000,191061.600,196917.800,131020.900,140491.400,140596.500,126219.700,0.000
137382.800,136712.600,191062.500,196915.800,131021.800,140492.300,140596.900,126218.400,0.000
137386.900,136714.900,191063.200,196913.300,131022.000,140493.200,140595.800,126216.700,0.000
137392.200,136719.400,191064.900,196915.100,131025.000,140500.300,140599.500,126219.300,0.000
137393.600,136719.500,191062.300,196914.300,131025.600,140502.600,140602.500,126222.600,0.000
137394.200,136718.900,191059.100,196912.100,131025.800,140499.000,140603.800,126223.900,0.000
137395.500,136719.300,191058.200,196911.400,131024.700,140489.800,140599.300,126224.900,0.000
137390.900,136713.800,191049.700,196904.400,131018.000,140485.700,140593.400,126220.200,0.000
137387.200,136711.600,191043.900,196900.100,131017.000,140487.900,140594.900,126219.300,0.000
137385.400,136712.900,191041.600,196898.600,131021.800,140494.000,140601.500,126221.300,0.000
137381.500,136709.500,191035.400,196892.500,131019.600,140491.500,140599.700,126220.100,0.000
137383.100,136709.900,191034.300,196892.100,131020.800,140493.600,140602.200,126224.000,0.000
137380.400,136704.600,191027.900,196885.300,131014.800,140492.000,140597.800,126216.000,0.000
137383.100,136706.600,191027.300,196882.600,131015.300,140494.900,140597.000,126217.400,0.000
137384.500,136704.400,191023.000,196877.200,131014.100,140491.500,140592.400,126214.500,0.000
137389.100,136705.000,191022.400,196878.000,131016.400,140494.500,140595.300,126219.100,0.000
137391.500,136707.800,191021.900,196877.000,131018.900,140496.400,140600.300,126223.400,0.000
137388.800,136706.900,191018.200,196871.800,131017.800,140494.500,140599.700,126222.500,0.000
137384.900,136702.300,191012.200,196866.200,131014.800,140486.100,140593.700,126218.300,0.000
137389.200,136707.000,191014.600,196868.500,131021.600,140491.100,140599.300,126224.000,0.000
137392.700,136712.800,191015.300,196868.600,131026.700,140495.400,140603.100,126226.300,0.000
137385.200,136708.900,191006.400,196860.000,131022.600,140494.000,140598.600,126221.600,0.000
137387.100,136715.300,191007.200,196859.600,131027.300,140509.200,140607.100,126225.100,0.000
137385.300,136712.900,191002.200,196854.500,131024.100,140505.700,140602.200,126225.000,0.000
137384.800,136712.800,190998.000,196852.500,131024.100,140503.300,140601.200,126226.800,0.000
137377.300,136704.400,190986.900,196842.300,131017.400,140490.100,140594.100,126217.900,0.000
137389.600,136717.000,190997.100,196849.500,131029.600,140503.400,140604.500,126224.100,0.000
137394.900,136721.200,190999.300,196850.500,131032.700,140510.100,140608.700,126223.800,0.000
137391.400,136715.400,190991.800,196843.000,131025.400,140496.400,140598.200,126220.800,0.000
137393.100,136717.900,190991.300,196844.100,131028.900,140498.700,140600.400,126224.600,0.000
137392.900,136719.500,190989.500,196842.400,131032.400,140505.000,140603.800,126226.200,0.000
137390.900,136717.900,190984.600,196837.300,131032.100,140504.200,140602.400,126225.100,0.000
137389.800,136717.000,190980.000,196833.100,131031.100,140501.200,140601.100,126224.600,0.000
137393.400,136721.900,190982.400,196835.300,131035.900,140509.100,140607.000,126229.200,0.000
137397.100,136727.400,190985.900,196836.900,131039.000,140513.300,140610.500,126229.300,0.000
137392.800,136725.500,190981.400,196832.300,131036.900,140509.700,140606.900,126224.600,0.000
137396.300,136728.400,190981.500,196832.700,131039.100,140512.500,140607.500,126226.700,0.000
137396.700,136727.800,190977.900,196828.700,131035.000,140510.500,140603.200,126222.900,0.000
137395.500,136724.500,190972.100,196823.100,131030.900,140508.500,140601.100,126221.000,0.000
137393.900,136722.300,190966.500,196819.500,131029.400,140506.700,140602.000,126218.000,0.000
137391.100,136722.000,190960.800,196814.400,131029.800,140507.700,140602.800,126218.800,0.000
137386.000,136718.500,190955.300,196807.200,131027.600,140502.500,140600.000,126215.300,0.000
137389.500,136720.900,190956.400,196808.400,131030.100,140499.400,140599.900,126217.200,0.000
137390.500,136721.100,190954.400,196807.300,131029.300,140501.100,140601.000,126218.200,0.000
137389.600,136720.300,190950.500,196804.700,131028.900,140501.100,140602.000,126217.700,0.000
137386.600,136716.600,190945.100,196802.400,131026.500,140496.100,140599.600,126217.100,0.000
137383.000,136713.800,190939.700,196797.400,131023.100,140493.500,140597.000,126215.900,0.000
137381.800,136713.900,190936.500,196792.100,131021.400,140493.100,140595.100,126212.400,0.000
137382.900,136717.000,190935.000,196790.800,131024.200,140498.900,140599.500,126215.800,0.000
137384.600,136721.500,190935.200,196791.500,131027.000,140500.700,140602.000,126219.700,0.000
137380.800,136718.800,190929.900,196785.500,131022.900,140498.900,140599.000,126215.200,0.000
137385.500,136721.400,190932.300,196788.900,131026.600,140504.600,140603.800,126220.000,0.000
137384.800,136717.000,190928.300,196785.000,131022.600,140493.500,140597.900,126217.900,0.000
137391.800,136722.900,190932.000,196789.700,131029.100,140500.400,140606.200,126228.800,0.000
137382.300,136712.900,190918.000,196778.400,131019.600,140491.200,140596.400,126217.400,0.000
137378.000,136709.100,190910.300,196771.000,131016.600,140488.900,140593.800,126213.200,0.000
137378.000,136710.300,190909.500,196769.200,131017.900,140494.800,140594.600,126216.100,0.000
137379.300,136712.300,190908.000,196766.000,131016.400,140495.300,140593.600,126215.800,0.000
137379.000,136712.400,190905.500,196762.200,131013.400,140487.500,140588.600,126213.800,0.000
137374.400,136709.600,190900.400,196757.800,131011.800,140483.800,140588.000,126211.700,0.000
137373.300,136709.600,190896.900,196754.700,131013.800,140486.400,140592.300,126213.400,0.000
137371.900,136708.800,190894.000,196751.800,131014.100,140486.700,140592.400,126213.000,0.000
137373.100,136713.000,190895.600,196752.200,131018.300,140496.500,140596.300,126215.400,0.000
137375.600,136717.800,190897.200,196753.800,131022.600,140501.100,140600.400,126220.000,0.000
137375.900,136718.000,190895.900,196750.900,131023.500,140501.200,140600.500,126219.800,0.000
137370.900,136713.600,190887.800,196740.800,131017.800,140499.000,140596.000,126214.100,0.000
137365.400,136708.500,190877.500,196731.600,131011.200,140492.700,140590.300,126207.900,0.000
137365.800,136709.800,190876.100,196731.000,131012.200,140498.000,140592.500,126208.600,0.000
137368.900,136712.700,190877.000,196732.100,131015.900,140503.700,140596.700,126212.400,0.000
137364.800,136707.700,190868.500,196726.000,131012.500,140495.700,140593.600,126210.100,0.000
137358.000,136701.600,190857.900,196715.800,131007.000,140492.300,140590.200,126205.700,0.000
137359.600,136703.600,190857.200,196713.700,131008.400,140494.300,140592.400,126206.300,0.000
137358.700,136700.100,190854.300,196710.400,131006.900,140494.200,140590.600,126206.300,0.000
137361.800,136703.100,190855.000,196708.500,131010.200,140499.400,140593.300,126207.300,0.000
137363.500,136703.500,190852.900,196704.600,131011.300,140497.600,140594.000,126206.300,0.000
137369.200,136706.600,190854.900,196706.900,131016.100,140497.500,140597.400,126213.900,0.000
137365.600,136701.600,190848.700,196700.200,131011.300,140488.700,140593.700,126211.300,0.000
137362.900,136700.000,190845.700,196695.700,131009.100,140491.200,140594.400,126211.500,0.000
137367.400,136703.500,190847.600,196697.500,131012.300,140496.100,140595.400,126213.400,0.000
137375.000,136709.600,190851.600,196702.900,131018.200,140500.800,140599.500,126217.400,0.000
137379.000,136713.100,190853.100,196705.000,131022.400,140503.000,140602.800,126221.800,0.000
137375.500,136711.100,190848.900,196699.200,131019.000,140496.900,140598.400,126217.500,0.000
137375.300,136713.500,190848.500,196697.100,131019.900,140500.100,140598.100,126216.600,0.000
137377.800,136714.500,190848.000,196696.800,131019.100,140497.500,140596.300,126214.000,0.000
137379.100,136714.000,190844.600,196694.000,131015.900,140496.500,140594.100,126210.100,0.000
137384.900,136717.000,190844.200,196694.300,131017.300,140494.800,140593.700,126212.500,0.000
137384.400,136715.300,190837.800,196688.600,131013.500,140493.600,140590.200,126207.000,0.000
137388.900,136718.000,190838.000,196687.300,131015.000,140495.800,140590.000,126207.300,0.000
137388.500,136717.900,190836.400,196683.600,131015.900,140499.900,140590.600,126206.400,0.000
137382.600,136713.500,190828.600,196676.700,131012.800,140498.300,140588.700,126203.100,0.000
137389.100,136721.900,190832.000,196679.300,131019.200,140507.200,140596.400,126207.600,0.000
137387.400,136720.500,190828.100,196675.400,131018.600,140509.200,140598.000,126212.800,0.000
137387.700,136720.400,190828.000,196674.300,131020.900,140507.600,140599.500,126215.500,0.000
137387.600,136718.300,190826.200,196672.800,131020.200,140498.100,140595.400,126213.900,0.000
137384.400,136714.600,190819.000,196667.500,131018.900,140491.700,140592.000,126211.200,0.000
137382.200,136715.300,190812.800,196661.900,131020.000,140496.200,140594.200,126209.100,0.000
137383.000,136719.900,190813.200,196661.800,131022.700,140502.500,140598.200,126212.200,0.000
137384.900,136719.100,190811.800,196660.800,131020.100,140493.900,140594.600,126212.800,0.000
137384.600,136716.600,190807.500,196657.300,131017.100,140493.100,140592.800,126212.600,0.000
137386.500,136717.300,190805.500,196656.400,131016.900,140496.200,140591.200,126213.100,0.000
137386.600,136717.500,190803.700,196655.300,131017.000,140495.100,140591.200,126212.800,0.000
137389.800,136721.800,190805.700,196657.800,131022.600,140504.300,140598.900,126218.300,0.000
137387.200,136718.500,190800.400,196652.200,131018.900,140502.100,140596.600,126213.900,0.000
137383.000,136713.800,190792.300,196644.000,131011.700,140490.000,140588.700,126209.300,0.000
137380.800,136712.700,190785.900,196639.100,131011.400,140491.200,140589.000,126207.000,0.000
137378.600,136711.100,190781.700,196637.000,131012.200,140490.700,140592.100,126208.500,0.000
137377.100,136712.000,190780.900,196636.500,131014.400,140493.300,140595.300,126210.800,0.000
137378.700,136713.600,190781.600,196635.400,131017.900,140495.700,140599.700,126213.500,0.000
137379.800,136714.800,190779.500,196632.900,131017.800,140495.600,140598.600,126216.300,0.000
137383.900,136719.300,190779.800,196634.400,131022.000,140501.400,140603.600,126221.500,0.000
137381.900,136716.900,190774.700,196631.000,131019.600,140500.800,140601.600,126219.700,0.000
137378.600,136711.900,190768.800,196625.900,131014.600,140491.500,140595.100,126215.200,0.000
137383.500,136716.100,190773.800,196629.900,131019.500,140499.900,140599.900,126220.300,0.000
137379.500,136712.100,190768.500,196624.100,131015.100,140498.300,140596.100,126219.000,0.000
137378.600,136711.900,190764.400,196619.800,131013.700,140499.700,140596.000,126217.300,0.000
137381.100,136712.800,190762.600,196619.300,131012.900,140498.100,140595.300,126216.400,0.000
137379.400,136708.700,190757.000,196614.000,131006.800,140489.300,140587.700,126211.100,0.000
137386.300,136716.200,190761.700,196615.500,131014.600,140497.600,140593.900,126213.900,0.000
137387.600,136718.100,190759.500,196614.000,131016.500,140500.400,140595.800,126214.500,0.000
137385.800,136716.000,190753.500,196608.500,131015.500,140502.300,140596.000,126212.700,0.000
137385.700,136716.600,190750.300,196606.000,131018.000,140503.200,140597.700,126212.700,0.000
137387.800,136718.500,190750.100,196606.600,131020.900,140502.100,140597.200,126215.400,0.000
137390.600,136720.400,190751.000,196607.400,131021.800,140500.200,140596.800,126217.700,0.000
137390.600,136719.500,190749.400,196604.400,131021.700,140500.400,140597.500,126218.600,0.000
137390.500,136720.300,190746.500,196600.900,131023.600,140508.200,140603.100,126217.400,0.000
137385.800,136713.200,190737.300,196591.500,131014.700,140495.800,140592.800,126210.500,0.000
137384.100,136710.700,190732.600,196587.100,131010.800,140488.300,140589.200,126209.400,0.000
137385.100,136712.300,190730.600,196585.800,131012.200,140494.000,140592.500,126212.300,0.000
137386.600,136714.500,190728.900,196584.600,131015.100,140503.100,140597.500,126217.300,0.000
137385.700,136713.300,190724.700,196581.900,131015.000,140502.900,140598.500,126219.200,0.000
137382.300,136709.000,190719.900,196577.100,131011.100,140491.900,140592.800,126216.600,0.000
137380.900,136707.300,190717.100,196572.700,131009.900,140491.800,140592.700,126215.400,0.000
137382.700,136707.800,190716.200,196570.100,131009.100,140495.400,140593.300,126215.800,0.000
137383.900,136708.300,190714.300,196567.700,131010.000,140501.500,140596.000,126218.400,0.000
137391.200,136714.500,190718.100,196570.000,131015.300,140503.100,140600.300,126221.700,0.000
137385.000,136708.900,190708.800,196560.700,131008.300,140492.200,140591.700,126212.900,0.000
137386.700,136712.100,190709.300,196561.300,131009.800,140495.500,140594.300,126215.100,0.000
137385.400,136711.800,190706.200,196558.500,131007.700,140496.500,140593.500,126212.400,0.000
137383.600,136712.000,190703.400,196554.800,131008.600,140498.500,140593.900,126210.700,0.000
137378.600,136709.400,190698.500,196548.500,131009.000,140497.400,140593.000,126207.900,0.000
137380.200,136713.500,190698.700,196547.600,131014.200,140504.100,140599.000,126209.800,0.000
137379.200,136713.500,190695.900,196544.900,131012.600,140505.200,140599.400,126211.000,0.000
137375.500,136708.000,190689.100,196537.500,131008.000,140499.600,140596.500,126209.800,0.000
137375.500,136708.500,190686.400,196533.800,131008.100,140498.300,140596.100,126211.000,0.000
137379.300,136711.200,190686.500,196533.000,131010.600,140503.400,140600.800,126212.500,0.000
137381.300,136711.400,190684.900,196531.600,131010.700,140503.300,140601.700,126213.200,0.000
137382.500,136712.000,190685.300,196529.400,131010.600,140498.500,140601.100,126214.600,0.000
137384.200,136715.000,190687.800,196530.000,131014.600,140503.900,140605.900,126220.000,0.000
137382.800,136712.300,190684.000,196526.800,131014.100,140506.200,140605.800,126221.000,0.000
137381.700,136710.800,190680.300,196524.000,131014.200,140512.700,140608.500,126223.400,0.000
137381.200,136712.300,190678.600,196522.500,131016.600,140514.800,140611.700,126227.400,0.000
137378.000,136708.900,190672.500,196519.200,131013.200,140498.700,140606.100,126230.500,0.000
137376.900,136709.000,190670.800,196520.400,131014.500,140502.600,140607.100,126236.800,0.000
137374.800,136707.600,190668.800,196520.200,131016.000,140505.200,140607.100,126238.400,0.000
137373.800,136706.900,190666.300,196517.200,131016.200,140506.400,140606.300,126235.000,0.000
137379.300,136712.300,190667.800,196517.400,131019.900,140511.900,140607.800,126235.800,0.000
137379.000,136712.100,190663.200,196510.400,131015.600,140509.400,140603.800,126228.600,0.000
137384.000,136716.100,190665.100,196510.100,131018.400,140509.500,140604.900,126229.800,0.000
137383.800,136716.700,190663.700,196508.400,131020.200,140510.100,140606.100,126232.800,0.000
137390.100,136724.500,190668.300,196513.300,131029.400,140517.800,140612.200,126241.900,0.000
137393.000,136728.400,190669.000,196513.500,131033.700,140518.800,140613.800,126241.000,0.000
137394.500,136729.500,190667.600,196512.000,131032.800,140515.600,140611.700,126238.300,0.000
137397.700,136732.500,190669.200,196511.600,131033.600,140518.500,140611.700,126237.600,0.000
137402.300,136736.400,190672.400,196516.100,131039.800,140522.900,140615.000,126241.500,0.000
137399.900,136732.900,190668.000,196514.800,131037.600,140518.000,140611.200,126238.500,0.000
137400.800,136732.000,190662.900,196512.300,131034.500,140517.500,140610.800,126234.900,0.000
137400.000,136729.200,190655.600,196505.700,131029.100,140515.000,140607.400,126231.300,0.000
137403.000,136731.300,190653.800,196502.300,131027.900,140518.200,140605.900,126229.600,0.000
137406.700,136734.600,190654.800,196501.600,131030.500,140522.900,140608.400,126229.800,0.000
137402.800,136733.000,190649.500,196497.700,131030.100,140520.800,140608.200,126228.400,0.000
137396.100,136728.600,190642.700,196491.200,131027.100,140512.900,140603.300,126224.300,0.000
137396.500,136731.700,190643.800,196492.500,131032.400,140524.300,140611.500,126226.800,0.000
137395.500,136730.300,190641.400,196490.300,131031.400,140525.000,140612.100,126225.100,0.000
137397.300,136731.600,190641.000,196488.700,131032.100,140521.400,140610.000,126227.500,0.000
137398.100,136735.100,190641.100,196490.100,131036.100,140523.400,140612.900,126234.900,0.000
137393.300,136732.900,190636.900,196488.200,131036.300,140521.000,140613.900,126238.600,0.000
137389.800,136730.600,190631.700,196483.000,131034.300,140516.100,140609.300,126237.500,0.000
137390.200,136733.400,190630.100,196481.400,131035.600,140522.600,140612.100,126239.400,0.000
137390.200,136735.900,190628.600,196480.300,131037.000,140525.100,140615.700,126243.300,0.000
137390.900,136738.500,190627.800,196480.000,131039.000,140526.000,140617.400,126244.400,0.000
137386.800,136732.300,190619.700,196473.600,131034.700,140517.300,140611.600,126238.500,0.000
137390.000,136732.200,190619.800,196472.200,131035.400,140517.000,140610.800,126235.300,0.000
137390.000,136728.100,190615.800,196468.000,131032.700,140517.000,140608.800,126232.000,0.000
137393.800,136730.000,190615.800,196467.800,131035.100,140524.600,140612.900,126232.600,0.000
137392.900,136728.300,190611.900,196464.000,131033.400,140522.700,140611.300,126230.400,0.000
137395.100,136729.000,190611.900,196465.900,131034.500,140518.500,140609.200,126234.700,0.000
137396.800,136731.600,190611.200,196465.000,131033.800,140522.200,140612.700,126235.100,0.000
137402.700,136737.100,190614.400,196466.300,131036.100,140524.500,140616.500,126240.800,0.000
137390.500,136724.900,190599.700,196448.800,131023.200,140511.200,140604.400,126227.800,0.000
137390.600,136726.200,190595.400,196444.800,131023.300,140510.700,140606.700,126229.000,0.000
137394.200,136730.700,190595.400,196445.700,131028.300,140514.500,140612.200,126232.300,0.000
137389.400,136730.100,190590.500,196440.600,131029.600,140519.100,140614.200,126230.200,0.000
137388.800,136731.700,190589.200,196439.100,131032.400,140523.300,140617.400,126233.000,0.000
137389.200,136730.400,190585.700,196436.400,131032.100,140519.400,140615.500,126232.900,0.000
137391.600,136730.600,190585.200,196436.400,131035.600,140523.700,140620.500,126236.700,0.000
137388.400,136729.500,190581.200,196434.000,131037.000,140523.500,140621.400,126239.900,0.000
137387.500,136729.900,190578.800,196431.400,131037.900,140525.500,140622.400,126241.400,0.000
137388.000,136731.400,190578.200,196430.100,131039.200,140528.500,140624.400,126243.800,0.000
137389.800,136733.500,190577.800,196432.100,131042.600,140526.900,140624.400,126249.100,0.000
137395.000,136739.000,190581.100,196436.600,131048.200,140525.800,140626.100,126257.000,0.000
137391.400,136738.100,190577.900,196433.700,131047.500,140525.600,140625.100,126255.700,0.000
137393.000,136740.200,190579.300,196435.500,131050.000,140531.300,140625.100,126258.400,0.000
137395.500,136740.400,190578.000,196436.700,131050.000,140526.500,140621.900,126261.500,0.000
137398.600,136743.300,190576.900,196435.300,131050.400,140528.900,140623.600,126261.900,0.000
137404.900,136750.900,190579.900,196438.100,131056.400,140537.400,140630.400,126266.700,0.000
137403.300,136752.800,190576.300,196434.700,131056.400,140539.000,140630.000,126262.600,0.000
137402.100,136753.200,190573.900,196429.900,131054.500,140535.100,140628.300,126261.100,0.000
137395.600,136746.300,190567.100,196419.500,131048.500,140529.300,140621.500,126252.700,0.000
137398.300,136749.200,190568.400,196418.700,131051.100,140537.000,140625.700,126252.900,0.000
137402.300,136753.400,190569.300,196419.000,131054.800,140544.400,140630.100,126254.100,0.000
137404.500,136750.600,190564.800,196415.700,131049.700,140529.600,140620.100,126249.200,0.000
137407.400,136750.900,190563.700,196413.200,131049.400,140532.500,140620.400,126249.000,0.000
137403.000,136745.100,190555.100,196406.100,131044.200,140529.400,140616.400,126244.400,0.000
137406.800,136747.000,190553.800,196406.800,131044.800,140531.900,140618.100,126246.000,0.000
137410.900,136750.900,190555.200,196408.300,131050.200,140541.500,140624.300,126247.500,0.000
137413.900,136753.400,190556.800,196409.600,131054.900,140541.800,140625.900,126248.700,0.000
137416.100,136754.400,190559.600,196411.200,131056.500,140532.200,140624.200,126251.300,0.000
137418.200,136755.000,190559.900,196412.800,131058.100,140531.100,140624.800,126251.500,0.000
137410.000,136745.800,190547.300,196402.000,131046.900,140524.000,140616.700,126242.800,0.000
137410.800,136745.200,190544.400,196399.600,131046.400,140526.200,140618.300,126246.300,0.000
137410.000,136740.900,190538.600,196395.300,131043.200,140519.100,140614.700,126244.700,0.000
137407.500,136738.100,190533.100,196389.800,131040.000,140519.000,140613.000,126241.900,0.000
137405.400,136737.200,190529.900,196386.500,131038.900,140525.300,140615.800,126240.900,0.000
137407.400,136741.100,190532.400,196389.000,131043.600,140530.500,140619.600,126243.800,0.000
137405.000,136739.800,190529.400,196385.400,131043.900,140524.000,140615.100,126241.200,0.000
137406.400,136741.100,190527.500,196383.300,131046.300,140523.000,140616.000,126241.800,0.000
137404.300,136739.700,190523.400,196377.900,131045.100,140527.000,140617.900,126239.400,0.000
137406.100,136740.700,190523.400,196378.500,131047.200,140533.400,140621.900,126244.400,0.000
137404.000,136736.100,190516.500,196375.200,131042.400,140523.000,140615.600,126243.200,0.000
137400.600,136734.300,190510.100,196371.200,131040.400,140518.600,140614.500,126243.900,0.000
137397.200,136733.000,190505.200,196364.900,131038.800,140516.400,140612.400,126241.200,0.000
137396.300,136733.800,190501.900,196359.700,131040.500,140519.500,140614.200,126240.000,0.000
137393.800,136733.500,190498.800,196355.300,131041.600,140524.300,140616.600,126238.800,0.000
137394.800,136733.000,190498.500,196354.500,131041.000,140515.700,140611.500,126236.400,0.000
137393.100,136731.100,190495.000,196350.400,131038.100,140510.500,140607.100,126230.200,0.000
137395.900,136732.400,190494.000,196348.500,131037.200,140511.900,140606.700,126227.500,0.000
137395.000,136729.700,190490.400,196344.300,131032.700,140509.200,140603.400,126222.300,0.000
137394.700,136731.500,190489.400,196341.600,131031.400,140512.100,140603.000,126221.700,0.000
137398.800,136738.800,190492.400,196344.300,131037.700,140516.800,140607.600,126229.200,0.000
137392.400,136733.400,190482.800,196335.300,131032.700,140507.100,140603.700,126223.400,0.000
137388.700,136731.800,190476.800,196330.800,131031.600,140508.800,140603.900,126221.700,0.000
137388.200,136734.800,190475.100,196330.000,131035.800,140517.600,140610.300,126224.600,0.000
137388.000,136734.000,190473.100,196328.500,131036.600,140519.400,140612.400,126225.600,0.000
137389.600,136732.100,190472.100,196329.300,131035.500,140514.300,140611.100,126228.800,0.000
137390.600,136731.100,190469.300,196330.000,131036.000,140511.200,140610.900,126230.900,0.000
137387.300,136727.500,190463.600,196323.000,131032.300,140503.800,140603.800,126225.900,0.000
137394.300,136737.000,190470.200,196327.000,131040.000,140512.100,140611.500,126233.200,0.000
137401.500,136744.800,190474.800,196330.400,131047.300,140525.300,140620.600,126240.200,0.000
137398.100,136739.000,190467.900,196324.900,131041.700,140515.900,140613.100,126234.300,0.000
137398.100,136737.900,190464.000,196323.800,131041.700,140516.000,140611.500,126233.000,0.000
137392.800,136733.900,190456.400,196318.900,131039.900,140516.400,140611.200,126233.400,0.000
137392.400,136737.100,190455.500,196319.100,131043.600,140522.700,140618.000,126238.700,0.000
137390.800,136734.900,190452.600,196314.800,131041.000,140519.500,140612.300,126234.700,0.000
137391.400,136733.300,190451.500,196309.400,131039.100,140516.300,140610.600,126233.500,0.000
137390.300,136731.000,190446.300,196302.800,131034.800,140513.600,140608.100,126231.200,0.000
137392.500,136734.500,190445.500,196301.100,131036.200,140519.800,140611.200,126234.300,0.000
137392.900,136736.600,190444.800,196298.800,131035.900,140521.300,140612.100,126235.600,0.000
137388.500,136732.600,190439.900,196292.200,131031.500,140520.400,140610.300,126231.500,0.000
137388.800,136731.600,190438.300,196290.600,131031.600,140521.000,140608.100,126232.300,0.000
137393.400,136733.900,190437.100,196289.700,131032.300,140521.000,140608.900,126233.500,0.000
137395.200,136735.200,190433.100,196287.300,131032.300,140522.800,140610.900,126232.700,0.000
137397.300,136737.300,190432.200,196287.500,131034.500,140525.100,140614.100,126237.200,0.000
137395.200,136736.100,190428.300,196283.500,131033.900,140524.500,140613.900,126241.700,0.000
137390.500,136732.400,190422.000,196276.600,131032.300,140523.900,140613.000,126239.000,0.000
137391.400,136733.000,190422.800,196277.100,131033.800,140520.900,140614.300,126239.200,0.000
137390.100,136730.900,190420.400,196275.000,131031.400,140514.900,140611.000,126238.800,0.000
137388.200,136728.800,190419.300,196272.900,131030.800,140514.300,140608.800,126237.300,0.000
137389.700,136730.000,190420.000,196273.800,131031.600,140517.700,140609.400,126239.400,0.000
137388.300,136727.200,190415.000,196269.300,131029.800,140514.300,140607.600,126238.300,0.000
137388.300,136725.500,190409.900,196264.000,131028.300,140508.000,140605.500,126237.200,0.000
137392.300,136730.900,190408.600,196264.200,131030.800,140513.700,140609.600,126240.300,0.000
137390.500,136729.900,190403.700,196259.100,131027.500,140505.100,140602.700,126233.800,0.000
137385.500,136727.500,190398.000,196250.000,131025.300,140507.900,140602.100,126229.400,0.000
137386.100,136729.000,190397.500,196247.700,131026.100,140513.500,140605.100,126231.100,0.000
137391.900,136731.700,190398.800,196250.000,131029.000,140515.200,140607.100,126233.400,0.000
137385.800,136723.300,190390.200,196241.300,131022.600,140504.300,140599.900,126224.700,0.000
137387.000,136725.400,190393.000,196244.900,131026.900,140508.300,140604.900,126229.600,0.000
137387.800,136726.600,190393.800,196246.000,131030.300,140512.100,140608.800,126233.800,0.000
137387.100,136729.300,190392.100,196242.700,131030.900,140519.200,140611.800,126233.100,0.000
137386.400,136730.800,190389.800,196239.800,131028.400,140518.400,140611.300,126231.600,0.000
137394.800,136736.500,190392.900,196242.300,131029.700,140513.700,140609.300,126230.400,0.000
137401.200,136739.400,190391.800,196240.200,131028.500,140512.800,140606.900,126228.400,0.000
137400.700,136736.000,190384.800,196231.800,131022.700,140509.800,140600.900,126219.200,0.000
137404.000,136740.100,190385.500,196230.900,131026.600,140516.000,140602.600,126218.900,0.000
137406.500,136742.700,190385.300,196231.000,131031.400,140519.800,140605.100,126221.100,0.000
137411.200,136746.900,190389.300,196236.500,131038.800,140523.800,140612.000,126229.100,0.000
137408.900,136746.500,190388.000,196236.300,131040.000,140528.600,140613.200,126230.000,0.000
137405.800,136745.800,190384.400,196232.400,131037.600,140525.300,140609.600,126227.500,0.000
137408.000,136751.200,190385.300,196231.400,131040.000,140533.300,140612.700,126228.300,0.000
137408.700,136753.200,190383.000,196231.700,131040.200,140534.500,140613.200,126230.100,0.000
137408.100,136751.000,190379.100,196231.600,131038.400,140525.800,140608.900,126228.800,0.000
137409.400,136750.800,190378.000,196232.700,131040.000,140525.500,140610.100,126229.500,0.000
137408.500,136748.100,190375.500,196228.300,131039.400,140525.700,140610.200,126229.400,0.000
137408.500,136748.100,190373.200,196225.500,131040.600,140530.100,140612.900,126229.700,0.000
137413.500,136754.100,190375.900,196228.600,131046.900,140538.200,140619.600,126233.800,0.000
137421.800,136761.600,190380.500,196235.600,131054.500,140541.000,140625.900,126243.200,0.000
137412.200,136753.600,190369.300,196224.000,131046.400,140535.300,140619.300,126237.000,0.000
137404.900,136747.300,190360.700,196212.900,131038.700,140534.900,140613.800,126232.000,0.000
137409.200,136749.400,190361.900,196211.800,131040.000,140536.600,140615.500,126231.600,0.000
137405.900,136743.600,190355.200,196206.400,131036.900,140525.900,140610.600,126226.700,0.000
137405.500,136742.300,190352.700,196205.800,131037.400,140522.400,140610.900,126227.900,0.000
137410.000,136746.700,190355.400,196208.400,131041.600,140526.500,140613.600,126234.500,0.000
137411.600,136751.000,190356.200,196207.900,131044.500,140531.800,140618.300,126238.900,0.000
137415.800,136758.100,190358.700,196210.100,131049.500,140537.400,140622.500,126244.400,0.000
137415.700,136759.500,190356.500,196206.300,131050.500,140539.400,140623.400,126243.600,0.000
137410.800,136754.300,190347.100,196199.200,131043.300,140534.200,140619.400,126238.100,0.000
137404.900,136744.200,190334.800,196188.700,131031.800,140524.000,140610.000,126228.700,0.000
137404.900,136740.200,190332.000,196186.900,131029.900,140521.600,140606.700,126229.200,0.000
137406.500,136742.400,190333.500,196188.900,131034.100,140527.900,140609.100,126232.000,0.000
137413.400,136747.800,190337.600,196193.000,131041.400,140531.300,140613.700,126237.100,0.000
137417.100,136751.800,190338.800,196194.800,131045.400,140532.800,140617.100,126238.200,0.000
137414.900,136749.000,190334.400,196188.600,131041.500,140526.900,140611.600,126232.900,0.000
137413.600,136746.500,190332.400,196184.800,131042.200,140529.800,140612.500,126231.800,0.000
137417.900,136749.700,190333.600,196185.700,131048.200,140537.800,140618.800,126237.200,0.000
137413.400,136741.500,190322.700,196178.000,131041.800,140525.800,140612.900,126233.300,0.000
137416.200,136742.100,190320.900,196180.900,131042.900,140521.800,140614.700,126238.900,0.000
137422.900,136746.300,190326.300,196187.300,131048.600,140527.800,140621.800,126245.900,0.000
137412.200,136732.600,190314.700,196175.700,131035.900,140515.600,140609.100,126234.000,0.000
137410.600,136729.700,190310.600,196173.000,131034.300,140514.100,140608.000,126234.000,0.000
137418.200,136735.000,190314.900,196175.000,131040.700,140521.200,140614.500,126238.600,0.000
137420.400,136736.200,190314.600,196173.800,131042.200,140522.700,140613.800,126240.800,0.000
137422.600,136739.500,190314.900,196173.900,131044.300,140528.300,140616.500,126244.100,0.000
137422.900,136738.100,190311.700,196171.300,131040.700,140521.400,140610.200,126240.500,0.000
137431.400,136744.500,190314.700,196173.800,131043.500,140525.800,140612.800,126242.400,0.000
137432.300,136745.200,190310.500,196168.300,131040.900,140526.300,140611.200,126237.600,0.000
137438.300,136747.100,190310.600,196170.500,131042.200,140523.700,140612.100,126240.100,0.000
137444.700,136752.100,190317.200,196173.800,131048.600,140530.900,140616.700,126247.000,0.000
137440.800,136748.400,190313.800,196166.600,131043.600,140528.500,140613.000,126242.400,0.000
137443.700,136749.000,190312.700,196165.000,131041.100,140516.600,140608.300,126241.700,0.000
137441.800,136746.000,190307.700,196160.500,131039.500,140512.100,140605.500,126241.900,0.000
137433.100,136739.800,190297.900,196152.100,131035.100,140509.600,140601.500,126233.500,0.000
137432.900,136739.000,190296.600,196152.600,131035.900,140510.100,140602.700,126230.900,0.000
137434.300,136740.200,190297.000,196154.500,131041.800,140519.300,140609.600,126234.700,0.000
137430.700,136736.600,190290.600,196151.000,131040.200,140517.900,140607.900,126237.400,0.000
137427.800,136733.000,190284.000,196147.200,131036.600,140515.200,140607.500,126237.600,0.000
137426.000,136732.200,190281.300,196145.800,131038.200,140515.400,140611.500,126238.400,0.000
137423.900,136733.800,190281.600,196145.800,131040.500,140513.800,140611.400,126238.800,0.000
137423.400,136736.000,190283.200,196144.300,131042.700,140519.300,140612.900,126238.500,0.000
137428.700,136739.000,190286.600,196146.300,131048.600,140520.900,140614.900,126244.700,0.000
137435.300,136743.600,190290.800,196152.400,131056.900,140525.700,140623.200,126253.500,0.000
137432.800,136741.900,190285.500,196149.000,131056.900,140531.600,140625.400,126251.500,0.000
137421.500,136728.800,190270.500,196136.100,131045.200,140516.700,140613.000,126241.700,0.000
137413.300,136720.000,190261.900,196128.600,131037.600,140505.800,140606.000,126239.500,0.000
137410.000,136718.000,190257.000,196122.700,131033.800,140507.500,140602.800,126236.700,0.000
137411.100,136718.800,190254.500,196120.300,131033.200,140507.700,140601.200,126234.800,0.000
137408.400,136718.800,190252.300,196116.800,131033.300,140506.000,140601.200,126233.800,0.000
137410.900,136725.300,190255.500,196118.200,131038.700,140512.500,140607.000,126236.800,0.000
137404.400,136718.300,190247.600,196108.800,131028.700,140498.100,140596.200,126228.500,0.000
137404.400,136716.000,190244.100,196107.200,131026.000,140499.500,140597.400,126227.600,0.000
137406.100,136715.300,190241.400,196104.800,131027.600,140501.300,140598.200,126227.500,0.000
137411.500,136718.700,190242.600,196105.400,131031.400,140505.200,140602.200,126228.500,0.000
137412.600,136716.100,190240.000,196100.900,131028.900,140503.300,140598.600,126227.800,0.000
137414.300,136716.700,190240.400,196098.800,131028.900,140505.300,140598.400,126225.900,0.000
137417.300,136719.900,190241.800,196097.300,131030.500,140511.300,140600.000,126223.500,0.000
137425.600,136729.000,190246.600,196100.100,131035.600,140519.300,140607.000,126228.600,0.000
137425.500,136728.700,190243.000,196096.800,131034.500,140510.300,140603.900,126226.900,0.000
137424.000,136728.200,190242.000,196094.600,131034.800,140508.100,140602.700,126225.900,0.000
137417.500,136722.800,190235.500,196087.300,131029.900,140501.900,140597.600,126221.900,0.000
137415.700,136721.400,190231.300,196085.000,131029.400,140499.400,140595.700,126221.600,0.000
137427.700,136733.800,190241.800,196096.500,131043.500,140509.600,140606.000,126232.700,0.000
137427.300,136733.000,190240.400,196096.400,131046.000,140512.300,140608.600,126232.600,0.000
137418.400,136724.300,190230.600,196087.200,131039.000,140508.400,140603.300,126225.900,0.000
137415.300,136721.800,190227.800,196084.700,131036.500,140504.100,140600.500,126224.900,0.000
137409.700,136715.600,190219.100,196078.100,131028.800,140494.800,140594.700,126219.800,0.000
137411.300,136715.700,190215.900,196076.800,131028.300,140493.400,140594.400,126219.300,0.000
137415.700,136718.300,190215.000,196076.600,131030.700,140493.800,140594.600,126215.800,0.000
137421.800,136726.000,190218.800,196080.300,131038.400,140509.700,140606.300,126220.800,0.000
137421.500,136726.400,190217.600,196081.400,131041.900,140515.200,140609.600,126227.800,0.000
137416.600,136720.200,190210.500,196076.300,131039.300,140507.600,140607.000,126229.400,0.000
137412.400,136715.700,190202.900,196071.000,131038.000,140505.700,140607.800,126233.700,0.000
137408.600,136714.200,190197.900,196069.300,131039.600,140508.800,140613.600,126242.800,0.000
137401.100,136709.000,190189.800,196064.100,131036.200,140501.800,140613.000,126245.300,0.000
137405.400,136714.200,190193.800,196065.800,131042.600,140506.800,140618.500,126250.200,0.000
137415.500,136724.600,190202.700,196072.300,131050.300,140516.000,140624.800,126253.900,0.000
137401.000,136711.000,190185.100,196053.200,131034.600,140505.100,140610.700,126235.100,0.000
137399.700,136708.900,190178.500,196047.500,131029.700,140509.000,140607.200,126234.600,0.000
137398.100,136704.100,190173.800,196043.700,131025.700,140502.700,140603.000,126235.000,0.000
137406.900,136711.400,190182.000,196052.000,131032.300,140506.500,140608.000,126244.800,0.000
137402.300,136707.800,190175.600,196044.100,131027.500,140502.100,140604.400,126240.200,0.000
137397.800,136703.600,190165.800,196034.100,131021.000,140498.300,140598.800,126231.600,0.000
137397.300,136702.700,190162.200,196031.100,131019.400,140495.200,140599.100,126231.200,0.000
137395.800,136701.900,190159.600,196027.600,131019.500,140496.800,140600.300,126235.700,0.000
137397.700,136703.500,190160.000,196027.200,131021.100,140501.600,140601.800,126241.100,0.000
137398.800,136704.500,190159.900,196027.000,131024.000,140501.400,140601.700,126242.500,0.000
137400.300,136708.100,190159.700,196024.500,131028.200,140508.600,140604.700,126243.300,0.000
137402.500,136712.600,190162.400,196026.000,131034.700,140514.700,140611.000,126246.000,0.000
137402.900,136715.800,190164.000,196026.400,131039.300,140520.000,140616.400,126246.500,0.000
137405.100,136718.300,190165.000,196025.200,131042.200,140523.900,140620.000,126247.600,0.000
137403.100,136716.200,190160.100,196019.800,131040.100,140517.500,140615.400,126245.400,0.000
137403.500,136719.200,190158.300,196018.900,131041.800,140521.000,140616.100,126245.200,0.000
137400.900,136716.800,190152.900,196013.800,131037.600,140512.000,140612.100,126241.200,0.000
137398.000,136714.000,190147.300,196008.300,131034.100,140509.200,140608.800,126238.000,0.000
137400.100,136716.300,190149.600,196010.600,131036.800,140515.200,140610.900,126240.100,0.000
137401.200,136716.700,190150.300,196014.100,131038.700,140523.100,140615.200,126241.900,0.000
137396.700,136709.300,190144.300,196008.500,131033.200,140516.500,140609.900,126238.300,0.000
137397.200,136708.900,190143.100,196006.800,131033.600,140516.800,140612.400,126241.500,0.000
137396.500,136708.900,190139.700,196003.700,131033.300,140514.200,140611.100,126245.100,0.000
137395.500,136706.700,190135.500,195999.500,131030.800,140499.500,140603.500,126245.700,0.000
137402.700,136717.000,190140.100,196004.800,131040.300,140512.400,140614.700,126253.700,0.000
137401.700,136717.200,190138.500,196002.800,131041.000,140514.100,140615.800,126250.600,0.000
137395.400,136712.800,190130.500,195994.500,131035.600,140515.000,140612.800,126239.600,0.000
137399.200,136717.200,190133.300,195995.700,131040.100,140521.500,140615.500,126243.000,0.000
137387.800,136705.400,190121.800,195984.000,131029.300,140514.100,140606.300,126235.700,0.000
137397.100,136715.500,190129.400,195993.000,131041.800,140530.300,140619.800,126247.900,0.000
137390.800,136710.500,190121.100,195983.900,131038.100,140522.300,140614.200,126246.900,0.000
137389.600,136709.900,190116.400,195980.200,131036.500,140519.100,140613.800,126248.400,0.000
137393.900,136715.000,190116.400,195982.000,131039.600,140526.700,140621.000,126251.000,0.000
137393.800,136714.200,190112.000,195979.800,131037.900,140526.600,140620.400,126249.500,0.000
137384.300,136703.700,190100.100,195968.500,131025.400,140513.500,140606.400,126237.600,0.000
137390.000,136708.500,190103.700,195973.300,131028.400,140517.200,140610.300,126240.500,0.000
137389.600,136706.000,190099.900,195968.400,131025.100,140511.900,140606.900,126233.800,0.000
137391.800,136706.000,190100.700,195967.200,131027.700,140513.200,140610.500,126238.300,0.000
137391.200,136703.500,190098.700,195962.900,131025.700,140507.800,140608.000,126237.400,0.000
137397.600,136708.500,190103.500,195966.100,131031.000,140509.300,140612.200,126241.400,0.000
137397.700,136710.100,190100.600,195963.200,131031.800,140512.500,140614.300,126242.800,0.000
137396.800,136712.700,190096.100,195959.200,131031.300,140518.200,140615.000,126239.400,0.000
137399.900,136717.000,190095.900,195959.000,131031.800,140521.800,140616.700,126240.100,0.000
137395.500,136710.500,190087.900,195951.500,131022.000,140503.600,140605.500,126234.300,0.000
137404.900,136716.600,190094.600,195958.700,131030.000,140513.600,140615.700,126244.700,0.000
137401.100,136708.500,190089.000,195954.100,131024.900,140508.400,140611.000,126240.000,0.000
137401.800,136706.700,190088.000,195953.900,131025.400,140507.200,140609.600,126239.800,0.000
137403.300,136710.700,190089.300,195955.200,131029.400,140516.500,140614.200,126243.800,0.000
137399.800,136708.800,190086.100,195948.500,131027.000,140518.500,140612.800,126242.500,0.000
137396.100,136707.400,190081.200,195942.600,131023.400,140517.400,140609.600,126241.800,0.000
137392.600,136706.300,190074.300,195937.800,131019.900,140514.500,140606.000,126240.500,0.000
137394.300,136710.100,190072.500,195937.500,131021.500,140515.000,140608.200,126240.600,0.000
137395.800,136712.000,190072.400,195937.700,131022.700,140515.800,140611.300,126240.200,0.000
137394.400,136710.100,190068.300,195931.900,131020.100,140516.600,140609.300,126233.300,0.000
137407.200,136720.000,190078.200,195938.900,131028.800,140522.400,140614.400,126238.900,0.000
137404.000,136716.100,190073.300,195933.200,131025.200,140514.100,140610.100,126234.300,0.000
137403.600,136716.200,190070.700,195929.700,131026.400,140513.800,140611.200,126233.200,0.000
137404.900,136720.500,190071.700,195929.600,131031.700,140525.100,140618.300,126238.900,0.000
137394.400,136710.700,190059.100,195919.000,131022.200,140510.700,140608.400,126233.500,0.000
137393.300,136710.300,190054.600,195916.700,131020.500,140506.500,140608.200,126236.500,0.000
137397.600,136716.100,190055.000,195921.200,131025.600,140513.700,140615.400,126244.300,0.000
137393.000,136710.700,190048.000,195917.400,131020.800,140508.700,140609.300,126242.800,0.000
137395.100,136711.400,190049.600,195918.300,131022.700,140510.900,140610.500,126242.300,0.000
137396.500,136712.800,190050.700,195916.800,131024.200,140513.400,140610.200,126239.300,0.000
137404.800,136720.600,190058.500,195922.400,131035.000,140521.600,140618.500,126247.200,0.000
137399.500,136714.700,190051.700,195914.300,131029.900,140512.300,140610.300,126240.600,0.000
137403.200,136718.800,190052.900,195915.300,131031.700,140515.300,140612.800,126246.000,0.000
137402.200,136721.300,190053.100,195914.200,131032.900,140520.700,140616.100,126249.900,0.000
137396.500,136718.800,190047.000,195908.800,131028.300,140520.200,140613.200,126247.000,0.000
137391.400,136715.100,190039.100,195903.700,131024.200,140523.300,140615.100,126243.600,0.000
137392.800,136715.300,190037.100,195902.400,131026.700,140523.900,140616.300,126242.800,0.000
137391.700,136712.400,190032.700,195898.600,131026.100,140512.800,140611.000,126240.300,0.000
137382.000,136702.800,190021.600,195887.300,131019.400,140504.500,140603.900,126233.300,0.000
137381.500,136702.700,190020.800,195886.500,131021.000,140505.700,140604.800,126235.600,0.000
137386.400,136707.700,190024.100,195888.700,131024.900,140510.500,140609.400,126239.300,0.000
137384.000,136707.100,190019.600,195883.100,131022.400,140512.100,140607.300,126236.200,0.000
137390.500,136712.900,190023.500,195886.600,131026.300,140513.200,140611.300,126240.500,0.000
137395.200,136716.900,190026.000,195889.300,131028.400,140512.500,140615.100,126243.700,0.000
137388.800,136709.400,190016.500,195879.600,131018.900,140506.500,140605.800,126236.000,0.000
137386.900,136709.400,190012.000,195875.600,131018.200,140510.000,140606.400,126235.900,0.000
137380.400,136703.400,190003.000,195869.600,131013.500,140503.300,140602.000,126235.000,0.000
137382.500,136705.600,190003.000,195871.400,131018.600,140509.500,140608.700,126242.500,0.000
137391.100,136714.400,190010.900,195879.500,131029.400,140515.600,140616.100,126253.300,0.000
137382.800,136707.600,190003.500,195870.500,131024.400,140508.300,140608.000,126246.900,0.000
137381.600,136707.200,190001.500,195866.000,131025.200,140510.600,140606.800,126242.900,0.000
137383.500,136712.100,190003.400,195865.400,131031.100,140518.200,140611.000,126244.300,0.000
137385.800,136713.500,190002.600,195865.600,131033.800,140518.400,140612.500,126245.800,0.000
137380.600,136705.900,189994.300,195859.000,131025.800,140510.700,140606.600,126241.900,0.000
137381.100,136704.400,189991.300,195857.300,131025.200,140513.400,140609.300,126245.600,0.000
137380.400,136704.400,189988.200,195855.600,131026.900,140516.800,140613.100,126250.400,0.000
137373.000,136700.400,189979.500,195847.300,131023.200,140513.900,140611.900,126245.600,0.000
137376.800,136705.900,189982.500,195851.600,131029.300,140516.100,140617.000,126252.900,0.000
137369.100,136700.100,189975.000,195843.500,131022.900,140509.600,140611.700,126246.800,0.000
137371.300,136702.200,189977.200,195844.300,131023.800,140507.600,140610.800,126246.900,0.000
137373.700,136706.700,189977.700,195842.800,131026.700,140514.500,140614.000,126246.800,0.000
137373.700,136707.500,189975.000,195837.400,131026.200,140517.000,140611.800,126245.700,0.000
137385.500,136716.200,189981.200,195843.800,131031.800,140523.100,140615.500,126251.200,0.000
137380.400,136704.100,189969.500,195835.400,131019.600,140507.000,140605.100,126243.200,0.000
137382.000,136701.100,189965.500,195832.400,131017.400,140506.000,140602.800,126241.600,0.000
137383.500,136701.900,189966.500,195832.000,131020.200,140509.900,140604.500,126242.300,0.000
137389.200,136709.300,189972.200,195835.200,131026.300,140522.700,140614.200,126244.600,0.000
137390.200,136708.000,189969.500,195832.200,131022.700,140516.500,140608.900,126238.500,0.000
137390.000,136704.500,189966.000,195828.400,131017.400,140507.100,140601.200,126234.000,0.000
137390.300,136703.500,189964.300,195826.900,131014.400,140508.100,140600.600,126235.500,0.000
137388.200,136699.300,189958.300,195822.600,131011.000,140504.800,140598.600,126236.700,0.000
137385.300,136696.500,189951.500,195817.400,131007.900,140501.500,140598.300,126236.400,0.000
137387.800,136698.900,189951.300,195818.800,131011.200,140503.000,140602.300,126244.500,0.000
137388.800,136702.500,189951.900,195820.400,131016.600,140509.900,140609.300,126256.000,0.000
137376.400,136691.800,189938.900,195807.400,131007.000,140501.700,140602.100,126251.900,0.000
137377.800,136694.600,189940.700,195809.700,131009.800,140507.300,140605.600,126257.500,0.000
137373.100,136692.800,189936.500,195807.800,131009.800,140507.500,140604.600,126255.800,0.000
137372.200,136694.100,189936.700,195808.800,131013.100,140506.300,140604.900,126255.000,0.000
137376.900,136697.100,189940.200,195813.100,131017.400,140503.300,140604.100,126255.200,0.000
137384.700,136705.000,189947.100,195819.100,131029.100,140518.500,140611.200,126256.400,0.000
137382.700,136703.100,189943.200,195814.800,131030.800,140520.500,140610.300,126249.500,0.000
137384.600,136703.900,189942.000,195816.100,131032.500,140514.300,140609.400,126250.500,0.000
137381.300,136702.300,189937.500,195811.800,131030.000,140510.000,140608.000,126248.700,0.000
137375.900,136699.700,189931.800,195805.300,131026.300,140508.300,140607.500,126247.200,0.000
137377.800,136703.400,189933.900,195806.900,131030.200,140515.200,140612.800,126254.000,0.000
137373.700,136699.200,189927.800,195800.900,131027.600,140515.500,140610.600,126251.300,0.000
137368.800,136694.700,189919.600,195793.300,131023.200,140516.300,140608.800,126247.100,0.000
137369.400,136692.900,189915.500,195789.600,131019.800,140507.000,140604.600,126243.800,0.000
137369.200,136694.400,189914.000,195785.300,131019.500,140512.000,140607.500,126242.200,0.000
137378.800,136702.300,189920.600,195790.000,131027.700,140520.900,140616.300,126253.700,0.000
137380.800,136701.600,189919.100,195789.000,131027.500,140519.100,140616.300,126260.500,0.000
137373.400,136692.800,189908.700,195779.600,131019.800,140509.500,140610.900,126260.400,0.000
137374.300,136692.500,189907.900,195780.500,131019.300,140502.000,140610.300,126267.600,0.000
137380.500,136698.600,189914.800,195786.600,131025.400,140508.400,140618.900,126277.400,0.000
137376.200,136692.600,189909.500,195781.300,131019.700,140502.900,140613.800,126274.800,0.000
137378.200,136693.300,189908.700,195780.600,131019.200,140503.300,140614.200,126272.100,0.000
137381.100,136697.500,189909.300,195780.400,131022.700,140508.500,140617.800,126268.900,0.000
137379.900,136696.800,189904.900,195776.400,131023.600,140508.100,140616.300,126264.500,0.000
137379.700,136697.800,189902.400,195773.800,131025.800,140509.200,140617.200,126265.800,0.000
137375.400,136695.600,189897.700,195768.600,131024.200,140510.800,140616.000,126264.700,0.000
137381.600,136703.500,189903.700,195774.800,131033.400,140520.000,140623.400,126272.300,0.000
137378.800,136701.000,189900.300,195770.500,131031.800,140517.500,140620.900,126270.800,0.000
137373.600,136695.000,189892.800,195762.200,131025.300,140512.600,140614.000,126263.800,0.000
137375.100,136696.200,189892.400,195760.400,131024.100,140511.800,140612.000,126262.200,0.000
137381.100,136705.600,189899.600,195765.200,131031.900,140521.900,140621.000,126271.100,0.000
137373.900,136703.100,189894.700,195759.400,131027.500,140520.100,140619.100,126268.500,0.000
137365.400,136695.900,189884.600,195751.300,131020.400,140512.400,140612.100,126263.500,0.000
137365.900,136696.000,189881.600,195751.400,131021.700,140509.700,140613.100,126267.500,0.000
137369.300,136699.200,189881.800,195752.200,131024.500,140513.400,140615.200,126270.300,0.000
137367.500,136697.500,189878.200,195748.300,131023.300,140517.500,140614.700,126268.500,0.000
137366.600,136697.000,189875.300,195744.800,131024.000,140520.700,140618.000,126268.100,0.000
137375.500,136701.100,189879.100,195749.300,131027.700,140510.500,140616.300,126272.900,0.000
137382.400,136706.300,189882.500,195751.600,131031.000,140509.500,140616.700,126274.900,0.000
137376.400,136700.000,189875.200,195741.900,131024.100,140505.700,140609.800,126268.100,0.000
137371.400,136695.300,189868.900,195733.100,131018.900,140506.900,140606.900,126262.100,0.000
137374.200,136697.100,189870.200,195733.000,131021.100,140511.900,140610.000,126263.600,0.000
137383.300,136705.100,189877.600,195741.800,131029.400,140519.100,140618.100,126275.200,0.000
137382.000,136702.900,189873.500,195740.200,131030.000,140519.400,140618.300,126274.000,0.000
137378.700,136699.600,189869.300,195737.400,131028.500,140512.900,140614.200,126270.900,0.000
137379.700,136701.300,189869.000,195737.000,131029.800,140513.400,140615.500,126269.700,0.000
137378.700,136701.000,189865.000,195733.000,131028.400,140515.200,140614.600,126266.400,0.000
137383.400,136704.400,189866.500,195734.300,131030.900,140515.500,140613.800,126267.100,0.000
137388.500,136708.200,189868.600,195735.400,131035.000,140517.000,140616.600,126270.600,0.000
137397.500,136714.700,189874.600,195741.500,131042.500,140524.900,140624.500,126279.800,0.000
137396.000,136711.200,189871.500,195740.300,131041.100,140524.900,140625.800,126281.800,0.000
137380.400,136694.900,189853.800,195724.600,131027.800,140509.700,140613.200,126270.500,0.000
137382.400,136697.400,189853.300,195725.500,131032.000,140517.000,140619.700,126276.400,0.000
137381.700,136696.500,189849.300,195723.600,131031.100,140516.100,140620.100,126277.800,0.000
137375.800,136692.100,189841.600,195716.200,131022.900,140500.000,140609.700,126271.500,0.000
137370.400,136690.400,189836.000,195710.500,131019.400,140501.400,140608.700,126268.800,0.000
137371.500,136691.800,189835.700,195708.700,131020.000,140505.800,140610.700,126269.800,0.000
137375.000,136693.300,189836.300,195706.800,131020.200,140506.200,140610.200,126269.500,0.000
137386.200,136704.700,189845.500,195714.600,131031.400,140520.000,140621.100,126279.900,0.000
137373.300,136694.100,189833.600,195700.100,131021.100,140515.200,140613.200,126268.200,0.000
137375.900,136695.600,189836.500,195702.000,131024.700,140513.700,140614.500,126270.500,0.000
