EEG 1, EEG 2, EEG 3, EEG 4, EEG 5, EEG 6, EEG 7, EEG 8, TRIG
65004.340,65004.340,65004.340,65004.340,65004.340,65004.340,65004.340,65004.340,0.000
256133.600,256133.600,229868.900,256133.600,226894.800,240731.900,256133.600,256133.600,0.000
477520.000,488262.500,374871.400,474825.100,320109.400,401213.500,488262.500,480233.400,0.000
624869.100,668836.700,432952.600,615258.800,218854.200,447010.600,668836.700,632070.300,0.000
696687.600,782161.100,439114.200,687658.800,-14993.790,424662.600,783576.600,707929.700,0.000
704472.600,808321.800,417756.000,716829.600,-303126.000,389212.200,825724.900,732071.200,0.000
674019.700,739368.400,415677.500,712450.900,-546263.900,374733.100,804636.900,724325.400,0.000
657806.100,647772.300,478975.700,702565.700,-533467.600,413668.300,761561.300,710113.700,0.000
683279.300,626039.800,596172.700,719355.600,-183878.000,518171.800,741316.600,720765.200,0.000
733714.800,667427.000,713521.600,756482.800,282195.800,652077.900,750834.600,755051.900,0.000
768992.500,715311.000,779383.100,775331.600,640218.900,743114.100,761001.600,774909.700,0.000
763629.300,740999.800,780362.600,756986.000,825260.800,760824.100,749565.100,757977.800,0.000
735792.500,743965.100,751372.300,727660.100,855916.800,744933.800,728439.100,722125.300,0.000
711830.700,728036.900,737817.600,722845.800,794080.500,733915.000,712935.200,688849.100,0.000
683767.500,686069.900,746120.600,740697.800,704994.400,713343.200,688194.800,650819.400,0.000
626827.400,616495.300,738345.800,739578.000,623379.200,651248.300,631189.100,584717.500,0.000
533441.400,527827.600,682477.900,687202.400,542061.300,547668.600,539812.400,485067.100,0.000
426804.200,433966.300,594048.900,601617.600,445950.000,438568.800,437498.200,380675.300,0.000
343736.300,352851.100,510042.100,520858.200,350491.900,361323.600,355808.100,308381.700,0.000
297719.200,295607.700,444928.900,456463.000,287645.200,318733.700,305706.100,273318.200,0.000
270285.500,259375.600,389797.300,397837.600,265009.400,286073.600,272988.500,249406.500,0.000
239701.000,233588.700,338405.600,341861.100,256519.900,247771.200,241389.700,216555.100,0.000
207221.000,211912.900,299432.100,301559.000,235853.800,214279.100,211856.100,183458.600,0.000
189813.700,196734.900,283202.000,287377.200,207327.000,202368.400,196345.800,170138.500,0.000
192809.300,191531.800,284413.400,290160.800,193957.000,209028.400,197426.700,177444.900,0.000
200283.700,192238.000,285128.500,289469.600,202037.700,213571.300,201847.900,184562.700,0.000
194905.200,190120.000,274490.200,276323.500,211777.000,203123.500,196186.400,175657.800,0.000
178523.700,181616.600,258701.100,260147.000,203890.300,186185.800,182180.800,158003.100,0.000
166650.100,171540.700,249522.100,252789.500,183736.200,178192.900,171822.500,149014.800,0.000
166871.500,165976.100,248407.300,252834.100,171720.900,180957.600,170718.200,152597.200,0.000
170565.900,164731.400,246536.500,249746.300,175689.600,182647.300,172146.700,156282.000,0.000
166324.700,162593.700,237833.000,239060.100,182540.900,174952.800,167538.700,149628.100,0.000
154771.700,156520.400,226224.500,227165.700,177449.300,162959.400,157555.200,137164.000,0.000
145884.100,149066.500,219003.900,221319.800,162867.600,156546.800,149768.700,130287.400,0.000
145042.000,144444.600,217179.400,220322.600,153235.000,157331.600,148120.000,131831.300,0.000
147152.700,143156.000,215450.500,217658.900,155227.800,158214.400,148701.500,134018.300,0.000
144734.800,141911.700,209913.000,210686.500,160388.100,153674.600,145929.300,129996.700,0.000
137420.500,138098.600,202380.500,202994.100,157716.400,146029.400,139560.400,122036.900,0.000
130966.100,132740.600,196836.600,198451.000,147669.000,140932.400,133863.900,116879.600,0.000
129123.200,128720.700,194227.400,196390.700,139924.200,139986.400,131618.600,116640.500,0.000
129672.800,127131.600,192222.000,193688.700,140106.300,139919.300,131231.900,117357.800,0.000
128350.500,126271.400,188763.400,189244.800,143518.300,137523.200,129579.100,115117.700,0.000
124133.100,123983.400,184124.400,184537.400,142440.200,133070.000,125819.800,110505.800,0.000
119502.400,120155.200,179747.000,180842.100,135894.900,128940.100,121669.300,106629.300,0.000
116857.900,116576.100,176463.900,177874.600,129698.700,126629.500,118929.600,104972.700,0.000
116116.200,114697.500,174145.800,175050.500,128438.000,125724.800,117713.900,104458.700,0.000
115498.000,114021.400,172141.400,172416.500,130302.600,124814.900,116787.900,103446.500,0.000
113569.700,112817.100,169621.900,169886.500,130279.400,122719.000,114932.500,101310.800,0.000
110375.400,110172.100,166158.000,166837.200,126434.700,119384.500,111976.400,98443.180,0.000
107221.100,106999.900,162441.400,163253.800,121557.600,116136.500,108929.400,95794.500,0.000
105509.000,104912.600,159878.800,160349.200,119248.600,114576.500,107083.900,94354.140,0.000
105301.400,104286.700,158845.400,158971.800,119819.700,114641.500,106604.400,94166.380,0.000
104966.300,103794.400,157796.900,157955.300,120433.300,114212.900,106083.300,93797.520,0.000
102839.800,102012.600,155016.200,155379.800,118590.300,111527.300,104029.000,91706.610,0.000
99398.060,99198.660,151063.700,151421.300,114812.500,107709.800,100839.400,88417.220,0.000
97014.350,96995.780,148354.700,148495.400,111818.700,105692.100,98567.840,86321.850,0.000
97031.450,96363.680,147957.700,147967.800,111378.800,106353.100,98342.000,86642.450,0.000
97773.030,96332.410,147913.000,147980.200,112336.700,107036.900,98706.460,87464.440,0.000
96471.860,95206.460,145695.500,145807.000,111945.800,104891.700,97343.320,85986.450,0.000
92969.750,92750.700,141720.000,141726.200,109095.500,100826.400,94179.230,82383.000,0.000
90181.600,90532.220,138968.700,138856.300,105725.900,98533.850,91673.330,79885.440,0.000
90300.090,89884.410,138960.400,138871.900,104548.400,99527.320,91590.120,80495.770,0.000
91704.930,90130.280,139545.900,139529.500,105642.500,100906.100,92509.170,82062.880,0.000
90984.180,89455.410,137750.400,137663.300,106219.900,99177.160,91628.050,81029.270,0.000
87559.590,87309.700,133878.900,133617.400,104101.400,95066.760,88567.520,77328.130,0.000
84584.180,85138.020,131167.600,130856.600,100590.400,92633.020,85964.340,74623.770,0.000
84713.300,84455.210,131360.300,131175.000,98901.610,93749.590,85926.910,75352.570,0.000
86452.080,84829.400,132288.400,132174.300,99980.350,95501.540,87139.480,77317.760,0.000
86135.700,84471.410,130830.300,130562.100,101172.400,94138.980,86618.730,76629.810,0.000
82913.480,82630.550,127188.900,126707.700,99656.970,90203.780,83775.050,73041.000,0.000
79921.420,80573.620,124593.900,124119.500,96203.270,87773.490,81211.950,70308.970,0.000
80004.520,79857.200,124856.200,124580.100,94200.960,88870.420,81162.210,71044.190,0.000
81844.650,80250.410,125915.900,125713.900,95159.550,90735.300,82460.390,73139.140,0.000
81795.230,80089.270,124719.000,124314.500,96674.770,89655.080,82173.310,72687.190,0.000
78859.840,78526.600,121386.500,120749.900,95629.950,86012.750,79598.840,69330.740,0.000
75989.570,76631.850,118965.600,118366.800,92368.230,83671.650,77166.300,66688.380,0.000
76007.720,75909.840,119218.700,118845.600,90222.270,84662.370,77083.130,67360.560,0.000
77798.210,76282.550,120279.200,119968.000,91024.200,86489.380,78358.670,69422.890,0.000
77916.190,76246.080,119292.300,118756.500,92661.630,85638.180,78228.380,69148.010,0.000
75302.310,74922.790,116302.900,115539.700,91965.700,82349.500,75935.660,66102.730,0.000
72626.500,73197.320,114077.200,113377.200,88971.860,80151.610,73676.910,63624.150,0.000
72557.290,72464.580,114259.700,113799.700,86800.100,80979.190,73533.050,64177.410,0.000
74180.490,72761.300,115216.000,114811.300,87409.310,82647.250,74684.550,66068.610,0.000
74377.210,72782.750,114384.900,113748.600,89013.090,81974.540,74641.350,65900.350,0.000
72097.120,71672.460,111754.000,110899.200,88575.680,79089.340,72650.280,63212.000,0.000
69665.620,70130.560,109740.100,108959.700,85903.750,77086.090,70614.310,60958.740,0.000
69508.860,69404.580,109823.400,109279.800,83802.730,77731.200,70414.260,61380.050,0.000
70908.260,69610.220,110623.100,110127.600,84220.130,79175.110,71395.980,63034.750,0.000
71131.480,69647.230,109912.400,109194.700,85689.470,78631.780,71387.370,62930.770,0.000
69185.940,68722.100,107636.900,106718.900,85430.160,76146.120,69679.950,60610.850,0.000
67031.190,67366.660,105840.500,104998.200,83096.970,74346.550,67872.450,58605.350,0.000
66791.310,66652.500,105807.000,105185.300,81119.970,74785.610,67602.090,58876.260,0.000
67926.160,66750.410,106411.600,105832.300,81343.400,75960.300,68377.180,60246.680,0.000
68124.810,66767.460,105784.700,105004.400,82611.840,75516.750,68371.640,60172.040,0.000
66487.220,65991.950,103841.200,102886.300,82465.750,73423.900,66933.010,58212.220,0.000
64616.400,64814.600,102258.100,101375.300,80472.060,71842.410,65360.700,56466.890,0.000
64314.450,64131.740,102117.400,101427.800,78670.550,72100.050,65039.530,56602.660,0.000
65188.380,64135.170,102526.500,101866.900,78727.300,73008.920,65609.870,57682.770,0.000
65344.800,64122.930,101965.000,101123.300,79767.170,72640.390,65585.510,57613.810,0.000
63998.880,63481.660,100334.800,99341.560,79691.430,70916.820,64393.340,55995.890,0.000
62409.140,62472.760,98958.520,98034.760,78020.630,69550.350,63047.720,54508.410,0.000
62049.570,61816.390,98713.090,97961.640,76409.020,69638.070,62683.610,54523.410,0.000
62656.420,61715.300,98919.660,98192.900,76314.300,70280.130,63056.210,55324.480,0.000
62733.430,61642.860,98384.900,97498.590,77104.540,69947.020,62989.480,55236.350,0.000
61626.960,61096.860,97015.720,95997.520,77052.840,68540.370,62004.240,53913.710,0.000
60300.070,60246.400,95830.230,94866.340,75683.950,67380.220,60876.440,52666.980,0.000
59918.000,59645.080,95513.320,94687.340,74287.340,67337.560,60495.270,52582.210,0.000
60313.140,59480.390,95562.340,94751.050,74086.010,67748.380,60694.590,53125.360,0.000
60339.330,59370.160,95070.000,94125.050,74650.970,67443.020,60583.570,53009.210,0.000
59453.930,58905.390,93937.880,92886.840,74599.850,66311.100,59772.960,51943.180,0.000
58349.020,58172.410,92904.510,91899.980,73475.320,65320.110,58819.660,50900.070,0.000
57922.660,57592.000,92495.790,91602.200,72254.950,65145.920,58405.810,50719.610,0.000
58103.800,57351.270,92379.970,91496.880,71952.970,65343.490,58451.200,51043.890,0.000
58059.610,57194.720,91904.530,90915.920,72308.750,65060.020,58310.030,50923.810,0.000
57354.060,56797.610,90971.480,89902.590,72249.600,64173.890,57663.390,50108.610,0.000
56452.860,56180.850,90083.800,89055.800,71351.290,63348.460,56879.100,49273.080,0.000
56012.540,55641.760,89620.630,88680.480,70312.740,63082.760,56452.410,49029.720,0.000
56022.970,55348.950,89377.350,88441.970,69940.160,63105.500,56362.840,49155.570,0.000
55912.630,55148.130,88912.460,87891.110,70105.200,62829.630,56172.860,48991.980,0.000
55349.480,54796.590,88138.950,87052.910,70016.140,62135.740,55637.820,48341.860,0.000
54621.500,54275.360,87373.540,86315.220,69302.310,61446.550,54983.720,47650.430,0.000
54180.760,53779.730,86872.540,85875.940,68431.700,61111.750,54552.400,47346.980,0.000
54057.980,53452.480,86529.300,85532.520,68018.290,60991.880,54361.900,47313.840,0.000
53892.890,53216.460,86072.270,85010.230,68029.940,60716.530,54139.360,47125.500,0.000
53439.270,52895.370,85422.590,84313.480,67908.950,60173.290,53702.080,46625.270,0.000
52844.800,52441.670,84748.700,83660.980,67339.290,59593.680,53162.310,46067.670,0.000
52400.520,51974.970,84213.160,83170.770,66606.070,59207.870,52736.380,45730.600,0.000
52166.230,51614.540,83785.070,82743.190,66156.720,58973.660,52466.090,45576.130,0.000
51950.780,51342.950,83327.840,82241.050,66030.550,58690.310,52209.720,45366.700,0.000
51585.380,51045.300,82777.550,81659.240,65870.570,58261.160,51844.130,44988.880,0.000
51106.760,50652.390,82185.630,81081.800,65413.310,57768.010,51392.410,44547.430,0.000
50670.710,50217.100,81633.270,80556.950,64795.010,57341.340,50966.440,44190.380,0.000
50356.040,49838.410,81146.440,80065.480,64326.760,57018.080,50629.910,43938.830,0.000
50100.520,49541.700,80690.270,79576.130,64095.880,56729.950,50342.890,43702.140,0.000
49798.150,49259.050,80213.050,79076.560,63900.730,56391.910,50025.730,43401.200,0.000
49412.320,48916.550,79687.980,78558.160,63533.780,55979.810,49643.950,43036.840,0.000
48996.360,48519.090,79136.340,78019.390,63020.710,55544.950,49232.300,42664.690,0.000
48630.460,48138.160,78614.880,77490.520,62551.760,55165.790,48855.870,42340.900,0.000
48343.360,47824.980,78159.340,77012.220,62241.100,54869.000,48546.120,42079.780,0.000
48080.900,47550.450,77732.180,76570.350,62011.400,54589.290,48263.900,41834.540,0.000
47756.700,47240.550,77253.220,76092.410,61707.050,54232.660,47936.920,41533.610,0.000
47351.530,46867.560,76701.840,75543.710,61277.070,53793.980,47546.070,41164.870,0.000
46948.570,46485.690,76158.560,74992.930,60821.180,53380.770,47158.020,40808.490,0.000
46640.050,46163.120,75707.770,74530.130,60464.680,53084.170,46847.820,40547.260,0.000
46406.370,45894.630,75318.530,74135.130,60213.560,52847.720,46597.090,40350.610,0.000
46128.680,45606.500,74873.340,73689.610,59950.570,52524.890,46303.950,40094.680,0.000
45737.620,45249.750,74323.050,73135.670,59572.870,52072.550,45910.530,39718.560,0.000
45312.140,44864.550,73761.780,72565.840,59115.660,51622.760,45490.290,39320.260,0.000
44985.260,44529.730,73306.940,72104.480,58712.300,51313.460,45158.880,39038.580,0.000
44765.040,44259.390,72936.740,71732.520,58431.460,51098.460,44917.930,38862.020,0.000
44516.270,43985.340,72514.770,71307.380,58191.850,50805.700,44651.260,38636.660,0.000
44139.450,43648.100,71975.580,70759.630,57861.950,50368.860,44279.380,38272.360,0.000
43707.520,43273.960,71416.090,70191.970,57425.210,49918.960,43866.140,37868.550,0.000
43372.940,42940.430,70966.180,69740.800,57005.660,49610.450,43535.500,37585.000,0.000
43162.200,42673.690,70611.090,69387.040,56711.090,49410.750,43304.150,37423.300,0.000
42934.990,42412.070,70208.160,68978.550,56489.090,49140.010,43055.110,37218.820,0.000
42572.260,42088.130,69681.030,68439.190,56191.260,48715.030,42695.260,36864.170,0.000
42141.280,41720.900,69126.630,67876.380,55769.210,48264.890,42283.970,36458.460,0.000
41806.010,41389.640,68682.630,67433.400,55340.490,47954.070,41952.250,36172.480,0.000
41604.030,41127.160,68339.260,67091.890,55034.600,47758.560,41724.920,36016.200,0.000
41397.130,40878.240,67955.100,66699.120,54821.750,47501.320,41488.130,35825.180,0.000
41057.920,40572.710,67448.750,66176.780,54549.510,47091.920,41142.380,35483.290,0.000
40639.040,40216.920,66905.790,65625.040,54144.440,46646.830,40735.950,35080.000,0.000
40297.810,39882.330,66458.500,65181.670,53709.510,46327.820,40397.030,34786.020,0.000
40084.000,39610.570,66107.650,64835.410,53387.220,46124.150,40161.000,34622.140,0.000
39877.830,39361.820,65727.820,64447.900,53171.340,45874.350,39928.100,34437.200,0.000
39554.380,39068.900,65239.530,63944.120,52915.950,45486.270,39600.580,34115.980,0.000
39151.200,38726.750,64714.030,63410.980,52532.150,45057.330,39213.080,33732.750,0.000
38813.380,38397.630,64272.010,62974.120,52106.090,44737.280,38881.600,33444.890,0.000
38594.090,38124.820,63918.660,62625.880,51779.210,44524.660,38643.750,33277.000,0.000
38385.880,37875.770,63541.480,62240.820,51557.910,44275.500,38410.950,33091.960,0.000
38072.270,37590.320,63067.640,61750.870,51309.950,43904.910,38093.670,32782.410,0.000
37684.580,37261.620,62559.460,61234.160,50944.640,43497.500,37720.460,32413.390,0.000
37353.290,36941.860,62123.640,60802.240,50531.630,43184.490,37393.500,32126.770,0.000
37128.610,36669.860,61765.930,60448.270,50202.220,42966.000,37149.110,31947.120,0.000
36917.190,36419.570,61388.490,60062.370,49971.330,42716.200,36911.910,31754.010,0.000
36615.630,36139.290,60927.820,59586.280,49723.390,42358.480,36602.630,31452.350,0.000
36248.450,35821.600,60437.580,59088.540,49372.110,41965.660,36244.870,31099.090,0.000
35927.090,35510.180,60009.620,58664.660,48974.050,41654.250,35927.580,30818.740,0.000
35696.380,35239.160,59649.350,58307.820,48647.160,41427.530,35683.010,30634.190,0.000
35479.250,34988.900,59274.480,57924.880,48411.550,41178.900,35448.010,30443.390,0.000
35186.590,34715.080,58830.070,57466.220,48167.910,40839.850,35153.280,30162.860,0.000
34834.380,34406.790,58357.470,56986.800,47833.280,40465.370,34812.710,29834.610,0.000
34516.590,34099.570,57933.590,56566.510,47450.540,40153.110,34499.950,29562.090,0.000
34276.680,33826.430,57567.370,56203.360,47124.830,39912.590,34247.680,29369.680,0.000
34052.790,33573.790,57192.050,55821.200,46879.390,39658.140,34005.710,29173.790,0.000
33768.640,33304.390,56760.480,55377.590,46631.730,39331.200,33715.000,28901.880,0.000
33435.730,33008.050,56305.560,54916.950,46309.720,38975.810,33386.650,28587.400,0.000
33130.640,32712.350,55889.640,54503.720,45944.880,38671.260,33080.780,28315.860,0.000
32889.340,32444.020,55520.760,54136.440,45624.160,38424.910,32824.560,28109.180,0.000
32662.140,32192.730,55146.000,53754.620,45370.690,38167.180,32578.610,27902.320,0.000
32386.240,31927.790,54726.510,53323.630,45118.130,37850.430,32295.120,27636.960,0.000
32070.060,31640.720,54288.180,52878.980,44805.510,37510.390,31982.410,27338.980,0.000
31775.170,31353.470,53880.960,52472.690,44456.060,37210.590,31687.820,27076.280,0.000
31530.890,31087.200,53511.200,52103.390,44140.130,36957.340,31431.750,26865.440,0.000
31299.560,30835.760,53138.340,51723.860,43880.210,36698.030,31183.750,26654.830,0.000
31032.190,30576.590,52732.680,51307.740,43626.540,36395.890,30907.580,26399.150,0.000
30732.370,30300.510,52311.660,50880.710,43327.810,36075.120,30608.580,26117.930,0.000
30444.630,30020.910,51910.680,50479.810,42996.820,35782.070,30321.820,25863.340,0.000
30192.990,29754.610,51535.850,50104.580,42688.390,35523.710,30064.280,25649.580,0.000
29952.790,29500.220,51160.000,49722.460,42424.460,35262.850,29814.800,25438.320,0.000
29688.100,29242.160,50761.800,49315.000,42168.710,34970.640,29545.130,25193.820,0.000
29398.610,28971.720,50351.740,48899.500,41878.470,34661.890,29256.330,24927.430,0.000
29116.310,28697.550,49955.150,48502.980,41560.320,34370.560,28974.140,24677.140,0.000
28861.880,28433.740,49579.180,48127.770,41257.590,34105.630,28714.400,24457.240,0.000
28619.860,28181.300,49206.060,47751.650,40990.510,33843.300,28464.470,24243.070,0.000
28362.830,27927.980,48818.950,47359.140,40732.200,33560.730,28202.670,24007.310,0.000
28087.680,27665.230,48423.140,46960.050,40448.440,33265.020,27926.500,23755.120,0.000
27816.170,27398.650,48036.070,46572.300,40142.110,32979.570,27652.120,23511.950,0.000
27561.620,27137.120,47661.590,46195.710,39843.150,32710.460,27389.480,23286.610,0.000
27314.140,26882.510,47288.200,45816.360,39568.850,32444.080,27132.640,23064.280,0.000
27059.200,26630.860,46908.130,45428.960,39306.450,32169.190,26872.010,22830.670,0.000
26794.280,26375.760,46524.110,45040.150,39031.070,31887.130,26605.070,22587.720,0.000
26529.410,26116.200,46143.480,44657.540,38737.570,31607.240,26337.830,22348.090,0.000
26274.630,25858.350,45769.920,44281.590,38445.360,31335.260,26077.180,22118.940,0.000
26027.290,25606.220,45399.420,43906.150,38170.070,31066.590,25821.790,21894.190,0.000
25776.990,25356.660,45026.160,43527.110,37904.410,30793.560,25564.670,21664.890,0.000
25519.500,25104.560,44649.410,43146.880,37631.230,30515.760,25302.930,21430.510,0.000
25260.140,24849.570,44273.140,42769.520,37346.600,30240.080,25041.030,21197.840,0.000
25006.280,24596.330,43901.300,42396.220,37063.050,29972.250,24784.910,20972.640,0.000
24758.990,24348.250,43533.860,42025.340,36791.570,29710.310,24534.350,20752.850,0.000
24512.820,24103.360,43167.390,41654.780,36528.090,29448.190,24284.080,20531.840,0.000
24263.120,23857.470,42799.410,41283.880,36260.800,29183.090,24031.490,20307.230,0.000
24010.810,23609.130,42430.690,40912.960,35985.150,28917.280,23778.240,20081.510,0.000
23760.480,23360.750,42064.230,40543.270,35707.870,28654.370,23526.680,19857.900,0.000
23515.260,23115.260,41702.240,40176.580,35437.560,28395.040,23277.940,19637.890,0.000
23273.340,22872.330,41343.200,39812.460,35174.050,28136.100,23030.630,19419.290,0.000
23030.250,22629.190,40983.290,39448.410,34909.810,27873.630,22781.860,19198.410,0.000
22784.010,22384.440,40621.070,39083.190,34640.200,27607.180,22530.960,18974.570,0.000
22536.200,22139.110,40258.550,38718.140,34367.820,27340.470,22280.010,18750.830,0.000
22290.130,21895.250,39898.930,38355.990,34098.300,27077.870,22031.210,18530.480,0.000
22048.220,21654.670,39544.000,37998.270,33835.040,26820.490,21785.240,18313.680,0.000
21807.590,21415.870,39190.470,37641.640,33574.880,26563.900,21539.790,18096.420,0.000
21562.920,21175.170,38833.250,37281.060,33311.150,26302.750,21291.410,17874.770,0.000
21315.580,20933.150,38473.970,36918.090,33043.050,26039.960,21041.840,17651.600,0.000
21072.580,20693.710,38119.070,36559.270,32776.460,25783.690,20797.140,17434.440,0.000
20837.250,20458.280,37770.470,36206.840,32515.820,25534.830,20559.070,17225.310,0.000
20605.020,20224.440,37423.190,35856.060,32259.120,25285.260,20322.540,17017.590,0.000
20369.840,19990.040,37072.960,35502.660,32001.750,25030.260,20083.200,16805.380,0.000
20131.330,19755.260,36721.640,35148.370,31741.350,24773.820,19842.310,16590.010,0.000
19893.650,19521.140,36373.530,34797.700,31479.590,24521.270,19603.350,16377.090,0.000
19660.440,19289.120,36030.180,34452.390,31221.190,24273.820,19368.040,16170.150,0.000
19429.500,19058.630,35687.860,34108.140,30967.510,24026.990,19133.820,15964.950,0.000
19194.940,18826.530,35341.670,33759.230,30713.490,23774.780,18895.590,15754.140,0.000
18956.000,18591.380,34992.420,33406.460,30453.920,23517.940,18652.460,15537.410,0.000
18718.910,18355.820,34646.050,33056.790,30190.910,23264.180,18410.580,15322.690,0.000
18489.040,18123.380,34306.190,32714.670,29932.190,23018.390,18175.810,15116.370,0.000
18263.430,17893.890,33969.140,32375.870,29681.170,22775.530,17946.020,14914.880,0.000
18035.190,17664.760,33629.450,32033.900,29433.250,22528.190,17715.000,14710.280,0.000
17803.070,17435.600,33287.830,31689.460,29182.910,22277.980,17481.510,14501.410,0.000
17572.190,17208.050,32949.280,31348.090,28930.330,22032.680,17249.790,14294.200,0.000
17346.790,16983.180,32616.000,31012.060,28680.260,21794.390,17022.580,14092.710,0.000
17124.850,16760.300,32284.730,30677.770,28435.600,21557.180,16797.440,13894.060,0.000
16900.870,16537.350,31951.170,30341.090,28192.800,21314.490,16569.260,13692.340,0.000
16672.680,16312.620,31615.200,30002.450,27945.160,21066.450,16335.740,13485.760,0.000
16444.760,16087.700,31281.370,29666.280,27692.470,20821.590,16101.970,13279.490,0.000
16223.200,15866.550,30953.710,29335.810,27442.600,20586.270,15874.880,13079.390,0.000
16006.660,15649.250,30629.360,29007.600,27200.060,20354.500,15652.670,12882.520,0.000
15787.320,15431.560,30301.710,28675.440,26959.990,20116.620,15427.890,12680.810,0.000
15561.700,15210.940,29969.810,28339.620,26715.800,19872.640,15198.860,12473.880,0.000
15334.520,14989.090,29638.970,28006.130,26467.100,19629.860,14970.130,12268.910,0.000
15111.580,14769.010,29312.740,27678.020,26219.350,19392.870,14745.550,12070.650,0.000
14892.970,14551.490,28988.780,27352.000,25976.880,19159.580,14524.530,11876.890,0.000
14674.860,14335.030,28663.640,27024.140,25737.760,18925.570,14303.730,11682.330,0.000
14456.220,14118.700,28338.380,26695.810,25497.150,18690.420,14081.660,11485.920,0.000
14239.190,13902.450,28016.060,26370.930,25253.350,18457.140,13859.590,11290.480,0.000
14024.460,13686.130,27696.800,26049.830,25009.370,18226.760,13638.990,11097.080,0.000
13810.300,13470.210,27378.160,25729.410,24769.280,17996.700,13419.860,10903.830,0.000
13594.170,13254.690,27057.840,25406.680,24532.300,17763.550,13200.100,10707.610,0.000
13375.770,13038.960,26736.400,25082.330,24294.010,17527.300,12978.450,10508.250,0.000
13158.850,12824.150,26417.760,24760.910,24053.740,17292.210,12757.680,10310.710,0.000
12947.710,12613.010,26105.360,24445.830,23816.650,17062.110,12541.830,10119.720,0.000
12741.320,12405.550,25797.140,24134.580,23586.000,16834.990,12330.170,9933.561,0.000
12533.530,12197.730,25486.950,23821.370,23357.730,16605.450,12117.530,9746.172,0.000
12320.970,11986.910,25172.630,23504.810,23126.060,16373.250,11901.550,9555.234,0.000
12106.570,11774.990,24857.750,23188.880,22890.440,16144.140,11685.170,9364.372,0.000
11894.450,11565.070,24545.620,22876.420,22654.850,15921.860,11471.600,9177.292,0.000
11684.730,11357.790,24235.420,22565.520,22422.330,15703.960,11260.580,8992.913,0.000
11474.610,11151.680,23924.860,22253.380,22192.110,15485.860,11050.220,8808.100,0.000
11262.410,10945.110,23613.600,21940.400,21961.070,15265.870,10839.570,8621.867,0.000
11049.110,10737.290,23302.980,21628.450,21727.340,15045.380,10628.960,8435.122,0.000
10837.930,10529.590,22994.970,21319.050,21493.500,14826.520,10419.720,8249.359,0.000
10631.850,10324.820,22690.950,21012.990,21264.150,14609.370,10212.470,8064.798,0.000
10429.250,10122.710,22389.310,20708.560,21038.870,14390.730,10005.250,7879.041,0.000
10226.020,9920.054,22087.300,20403.620,20812.920,14168.050,9796.016,7690.703,0.000
10021.320,9715.348,21784.590,20098.580,20583.860,13942.150,9585.134,7501.887,0.000
9816.625,9509.479,21481.840,19794.250,20353.320,13715.270,9374.235,7315.081,0.000
9613.133,9304.527,21179.710,19490.830,20124.770,13489.760,9165.196,7131.692,0.000
9411.202,9102.578,20879.280,19188.820,19900.220,13267.710,8959.199,6952.037,0.000
9209.706,8903.198,20580.660,18888.180,19678.070,13049.360,8755.504,6774.560,0.000
9007.068,8703.777,20282.760,18588.090,19455.440,12833.190,8552.535,6597.481,0.000
8804.676,8504.357,19986.110,18289.300,19233.100,12619.700,8350.897,6421.035,0.000
8604.816,8307.006,19691.830,17992.790,19013.440,12409.860,8151.601,6245.493,0.000
8405.851,8110.627,19397.850,17696.700,18794.730,12200.520,7952.333,6068.544,0.000
8205.337,7912.726,19102.090,17399.090,18573.420,11987.620,7750.338,5888.402,0.000
8005.702,7714.713,18806.790,17101.900,18350.180,11772.200,7546.896,5707.179,0.000
7810.679,7519.450,18514.840,16807.680,18128.510,11557.890,7345.146,5527.881,0.000
7618.730,7325.986,18225.060,16515.380,17909.450,11344.980,7145.357,5350.397,0.000
7426.558,7132.593,17935.750,16223.620,17692.220,11132.730,6946.360,5173.506,0.000
7233.658,6939.418,17647.250,15933.130,17475.910,10922.310,6748.189,4997.570,0.000
7039.725,6745.552,17358.750,15643.280,17258.300,10713.570,6550.058,4822.305,0.000
6845.083,6550.695,17069.760,15353.440,17039.020,10505.900,6351.668,4647.453,0.000
6650.862,6356.118,16781.280,15064.040,16820.270,10299.260,6154.075,4473.476,0.000
6456.267,6161.666,16492.800,14774.210,16602.140,10092.060,5956.724,4299.108,0.000
6262.030,5968.394,16204.990,14484.830,16384.850,9884.342,5760.138,4124.582,0.000
6071.141,5779.056,15920.930,14198.940,16170.690,9678.223,5566.647,3952.703,0.000
5883.429,5593.206,15640.950,13916.780,15959.960,9473.835,5375.939,3783.939,0.000
5695.854,5407.807,15362.250,13635.970,15751.030,9270.031,5185.832,3616.277,0.000
5507.144,5221.737,15083.230,13355.370,15543.190,9067.139,4995.718,3448.774,0.000
5318.797,5036.333,14804.960,13076.130,15336.910,8866.447,4806.687,3282.446,0.000
5131.772,4851.761,14527.960,12798.770,15131.650,8667.547,4618.927,3118.148,0.000
4945.413,4666.723,14251.340,12522.070,14926.150,8469.163,4431.604,2954.932,0.000
4760.140,4481.937,13975.440,12245.610,14720.640,8271.594,4245.021,2791.433,0.000
4575.693,4297.945,13700.130,11968.890,14514.500,8073.959,4058.392,2626.344,0.000
4390.010,4113.173,13423.660,11690.540,14305.870,7874.126,3869.622,2458.549,0.000
4202.362,3926.907,13145.610,11410.650,14094.710,7671.932,3678.820,2288.599,0.000
4014.049,3740.131,12867.520,11130.900,13882.840,7468.812,3487.975,2118.618,0.000
3827.502,3554.679,12591.840,10853.730,13672.840,7266.569,3298.899,1950.840,0.000
3644.367,3371.874,12319.960,10580.540,13466.370,7065.935,3112.156,1785.800,0.000
3464.818,3192.305,12051.690,10310.850,13263.620,6867.319,2927.891,1623.086,0.000
3288.263,3016.027,11786.190,10043.200,13063.810,6671.619,2746.074,1462.466,0.000
3112.508,2840.756,11521.190,9775.363,12864.350,6477.379,2564.681,1302.512,0.000
2934.912,2663.299,11254.260,9505.586,12662.480,6281.916,2381.213,1141.565,0.000
2755.359,2483.461,10985.810,9235.009,12458.750,6085.867,2196.426,980.209,0.000
2575.326,2302.844,10717.670,8965.854,12255.370,5891.156,2012.541,819.515,0.000
2396.346,2123.090,10451.090,8699.030,12053.650,5698.269,1830.555,659.646,0.000
2219.150,1945.435,10186.520,8434.010,11853.690,5507.145,1650.400,500.283,0.000
2042.891,1769.586,9923.116,8169.320,11654.360,5317.330,1471.037,340.260,0.000
1867.119,1595.327,9660.583,7904.699,11455.470,5129.285,1292.565,179.676,0.000
1692.390,1422.990,9399.517,7640.954,11257.790,4942.855,1115.605,19.688,0.000
1518.111,1251.206,9139.011,7377.633,11060.400,4755.218,938.674,-139.982,0.000
1343.618,1078.576,8878.199,7114.670,10862.320,4565.469,761.060,-298.935,0.000
1170.017,905.810,8618.284,6853.803,10664.700,4375.123,583.733,-455.296,0.000
997.714,733.319,8360.022,6595.606,10468.690,4185.049,407.157,-608.604,0.000
825.509,560.623,8102.712,6338.534,10274.300,3996.416,231.523,-760.523,0.000
653.153,388.325,7846.208,6081.608,10081.550,3810.067,57.109,-912.407,0.000
481.087,217.378,7590.804,5825.026,9890.341,3625.350,-116.012,-1064.068,0.000
308.568,47.263,7335.677,5568.198,9699.245,3441.047,-288.712,-1215.838,0.000
135.705,-122.292,7080.640,5311.098,9507.402,3257.587,-461.073,-1368.210,0.000
-36.625,-291.291,6826.134,5054.523,9315.160,3075.250,-632.821,-1521.321,0.000
-208.613,-460.742,6571.721,4798.504,9122.467,2892.095,-805.057,-1675.507,0.000
-379.666,-630.400,6318.099,4544.047,8930.188,2707.906,-977.151,-1829.015,0.000
-548.681,-798.721,6066.767,4292.480,8739.847,2524.642,-1147.103,-1979.315,0.000
-716.308,-965.853,5817.225,4042.531,8550.893,2342.005,-1315.547,-2127.080,0.000
-883.629,-1132.987,5567.920,3791.909,8361.557,2158.613,-1484.782,-2274.707,0.000
-1049.678,-1298.916,5319.519,3541.162,8172.686,1976.236,-1654.472,-2422.379,0.000
-1213.250,-1461.707,5073.894,3292.810,7986.648,1797.240,-1822.175,-2568.727,0.000
-1375.090,-1622.093,4831.053,3047.733,7803.537,1621.231,-1987.223,-2713.712,0.000
-1536.489,-1782.196,4589.355,2804.749,7621.732,1446.885,-2150.646,-2858.375,0.000
-1698.812,-1944.193,4346.578,2561.652,7438.923,1272.094,-2314.695,-3004.328,0.000
-1862.231,-2108.167,4102.393,2317.626,7254.262,1095.676,-2480.599,-3152.037,0.000
-2025.001,-2271.068,3859.137,2074.118,7070.005,920.377,-2645.985,-3299.381,0.000
-2186.476,-2431.022,3617.788,1831.577,6887.514,748.517,-2809.090,-3444.862,0.000
-2347.151,-2588.888,3377.351,1589.323,6705.916,578.584,-2970.736,-3588.521,0.000
-2507.177,-2745.997,3137.304,1347.336,6524.546,407.994,-3132.041,-3730.347,0.000
-2667.539,-2903.811,2897.181,1105.323,6342.638,235.505,-3294.080,-3871.166,0.000
-2829.292,-3063.348,2656.357,863.140,6159.424,61.728,-3457.036,-4012.331,0.000
-2991.519,-3224.175,2415.406,621.933,5975.349,-112.076,-3620.098,-4154.274,0.000
-3152.765,-3385.358,2175.393,382.647,5791.418,-285.372,-3782.690,-4296.989,0.000
-3311.679,-3544.815,1937.807,146.194,5609.809,-456.700,-3943.226,-4439.202,0.000
-3467.053,-3699.873,1704.265,-86.577,5432.843,-624.116,-4099.989,-4578.859,0.000
-3620.740,-3851.832,1473.121,-318.152,5258.383,-790.164,-4255.611,-4717.838,0.000
-3775.907,-4004.301,1241.103,-552.167,5082.171,-959.377,-4414.116,-4859.856,0.000
-3932.001,-4157.533,1008.353,-787.957,4904.168,-1131.343,-4574.640,-5003.926,0.000
-4086.369,-4309.965,777.022,-1022.201,4727.017,-1303.119,-4734.019,-5146.355,0.000
-4238.957,-4462.141,547.205,-1253.599,4551.182,-1474.182,-4891.767,-5285.729,0.000
-4392.624,-4616.357,316.646,-1483.949,4374.661,-1645.899,-5049.450,-5423.349,0.000
-4549.910,-4773.947,83.381,-1715.833,4195.979,-1818.863,-5208.005,-5560.945,0.000
-4709.551,-4932.648,-151.380,-1948.996,4016.667,-1990.716,-5366.385,-5698.409,0.000
-4867.008,-5087.699,-383.713,-2180.216,3840.547,-2157.198,-5521.426,-5833.631,0.000
-5020.145,-5237.073,-611.668,-2407.979,3669.532,-2316.248,-5671.202,-5965.381,0.000
-5171.455,-5383.878,-837.511,-2634.429,3500.862,-2472.083,-5818.969,-6095.899,0.000
-5322.338,-5531.164,-1062.908,-2860.820,3331.471,-2630.650,-5968.876,-6227.577,0.000
-5470.588,-5677.774,-1286.003,-3085.171,3162.555,-2790.881,-6119.727,-6359.243,0.000
-5616.691,-5823.609,-1506.907,-3307.339,2994.949,-2950.281,-6269.772,-6490.439,0.000
-5764.001,-5970.776,-1728.212,-3529.595,2827.329,-3109.656,-6419.607,-6622.715,0.000
-5912.002,-6117.891,-1949.088,-3751.271,2660.868,-3267.475,-6567.961,-6754.970,0.000
-6058.595,-6262.854,-2167.771,-3970.880,2496.693,-3422.175,-6713.889,-6885.434,0.000
-6205.450,-6407.763,-2386.280,-4190.704,2331.768,-3577.040,-6860.051,-7015.806,0.000
-6354.659,-6554.922,-2606.978,-4413.147,2163.156,-3735.531,-7008.920,-7148.542,0.000
-6504.747,-6703.316,-2829.156,-4636.769,1991.791,-3896.879,-7159.381,-7283.029,0.000
-6652.384,-6850.797,-3050.395,-4858.264,1820.528,-4059.316,-7309.454,-7416.634,0.000
-6795.664,-6995.812,-3268.611,-5075.646,1652.021,-4221.287,-7457.742,-7547.044,0.000
-6936.132,-7138.365,-3484.018,-5289.999,1486.823,-4381.516,-7604.168,-7674.583,0.000
-7076.096,-7278.968,-3697.713,-5503.260,1324.152,-4539.966,-7749.944,-7801.285,0.000
-7216.454,-7417.840,-3910.135,-5716.485,1163.206,-4696.172,-7895.059,-7927.757,0.000
-7357.884,-7556.037,-4122.225,-5930.543,1002.572,-4849.405,-8038.971,-8053.966,0.000
-7500.480,-7694.571,-4334.757,-6145.153,841.548,-4999.755,-8181.182,-8179.820,0.000
-7643.584,-7833.948,-4547.748,-6359.330,680.015,-5148.355,-8321.744,-8305.057,0.000
-7786.383,-7974.649,-4760.969,-6572.610,517.504,-5297.337,-8462.484,-8430.239,0.000
-7928.299,-8116.682,-4973.977,-6784.842,354.096,-5449.322,-8605.506,-8556.284,0.000
-8068.917,-8258.846,-5185.661,-6995.554,191.135,-5605.007,-8750.259,-8682.785,0.000
-8207.477,-8398.814,-5394.509,-7203.779,30.845,-5760.782,-8893.352,-8807.544,0.000
-8344.036,-8535.558,-5600.659,-7410.019,-126.196,-5913.011,-9032.910,-8929.285,0.000
-8480.682,-8671.143,-5806.619,-7616.920,-282.529,-6062.852,-9170.883,-9049.789,0.000
-8619.053,-8807.729,-6014.178,-7825.858,-440.531,-6212.858,-9309.631,-9171.402,0.000
-8757.979,-8944.734,-6222.285,-8035.263,-599.733,-6362.586,-9448.972,-9294.235,0.000
-8895.056,-9080.339,-6428.702,-8242.831,-758.257,-6510.089,-9587.216,-9416.904,0.000
-9029.547,-9214.167,-6632.548,-8447.713,-915.077,-6655.304,-9723.759,-9538.486,0.000
-9162.688,-9347.371,-6834.779,-8650.610,-1070.350,-6799.946,-9859.226,-9659.143,0.000
-9296.496,-9481.364,-7037.360,-8853.442,-1225.295,-6945.625,-9994.672,-9780.059,0.000
-9431.917,-9616.472,-7241.478,-9057.882,-1381.125,-7092.475,-10131.000,-9902.226,0.000
-9567.004,-9750.679,-7445.450,-9262.725,-1536.858,-7239.053,-10267.320,-10024.430,0.000
-9699.702,-9882.159,-7646.842,-9465.517,-1691.104,-7384.833,-10402.360,-10144.710,0.000
-9830.379,-10011.500,-7845.047,-9665.233,-1843.788,-7530.203,-10535.950,-10262.220,0.000
-9960.601,-10140.280,-8041.065,-9862.354,-1995.287,-7674.749,-10668.240,-10377.370,0.000
-10091.930,-10269.990,-8236.708,-10058.500,-2146.533,-7818.313,-10800.090,-10492.180,0.000
-10224.220,-10400.860,-8432.699,-10254.610,-2297.859,-7961.135,-10932.300,-10608.380,0.000
-10355.900,-10531.930,-8628.650,-10450.660,-2448.625,-8103.828,-11065.080,-10726.100,0.000
-10485.860,-10661.950,-8824.153,-10646.840,-2598.158,-8246.374,-11197.770,-10844.270,0.000
-10613.510,-10789.330,-9018.425,-10842.780,-2745.619,-8386.629,-11328.530,-10960.870,0.000
-10739.590,-10914.010,-9211.396,-11038.080,-2891.391,-8524.150,-11457.190,-11075.280,0.000
-10865.640,-11037.730,-9403.700,-11232.520,-3036.905,-8661.036,-11585.480,-11188.040,0.000
-10991.940,-11161.250,-9595.087,-11425.060,-3182.265,-8797.780,-11713.380,-11298.930,0.000
-11117.530,-11284.230,-9784.924,-11614.720,-3326.671,-8933.620,-11839.420,-11407.850,0.000
-11241.980,-11406.700,-9973.381,-11801.960,-3470.230,-9068.351,-11963.550,-11515.590,0.000
-11366.570,-11529.920,-10161.800,-11989.000,-3614.298,-9202.973,-12087.680,-11624.200,0.000
-11492.660,-11655.130,-10351.530,-12177.800,-3760.074,-9339.940,-12213.960,-11735.010,0.000
-11619.790,-11781.550,-10542.160,-12367.760,-3906.762,-9479.582,-12341.930,-11846.440,0.000
-11747.280,-11907.890,-10732.900,-12557.690,-4053.290,-9619.718,-12470.020,-11957.040,0.000
-11874.670,-12033.490,-10923.110,-12747.110,-4199.436,-9758.780,-12597.890,-12067.240,0.000
-11999.970,-12156.730,-11110.630,-12934.150,-4343.421,-9894.781,-12723.840,-12176.200,0.000
-12122.080,-12277.090,-11294.440,-13117.430,-4483.989,-10026.690,-12846.330,-12283.120,0.000
-12242.080,-12395.850,-11475.830,-13297.910,-4622.203,-10155.600,-12966.380,-12388.660,0.000
-12362.270,-12514.850,-11657.040,-13478.230,-4760.400,-10283.830,-13086.410,-12494.310,0.000
-12485.250,-12636.180,-11840.730,-13661.480,-4901.182,-10414.080,-13208.860,-12602.170,0.000
-12609.340,-12758.260,-12025.880,-13846.910,-5043.275,-10545.230,-13332.320,-12711.420,0.000
-12731.060,-12877.970,-12209.670,-14031.880,-5183.987,-10675.170,-13454.290,-12820.180,0.000
-12850.670,-12995.790,-12392.300,-14216.430,-5324.187,-10805.880,-13576.030,-12929.300,0.000
-12969.070,-13112.760,-12573.800,-14400.110,-5464.403,-10938.200,-13698.070,-13038.760,0.000
-13086.030,-13229.020,-12753.130,-14581.370,-5603.547,-11069.910,-13818.630,-13146.660,0.000
-13202.430,-13345.790,-12931.150,-14760.430,-5742.157,-11200.650,-13938.020,-13252.880,0.000
-13319.300,-13463.970,-13109.170,-14938.230,-5881.107,-11331.910,-14057.710,-13358.410,0.000
-13435.850,-13582.130,-13286.510,-15114.780,-6019.019,-11462.510,-14176.960,-13462.460,0.000
-13550.810,-13698.400,-13462.150,-15290.140,-6154.518,-11590.380,-14294.350,-13564.500,0.000
-13664.870,-13813.190,-13637.130,-15465.640,-6288.999,-11716.840,-14410.820,-13666.270,0.000
-13779.310,-13927.760,-13812.610,-15641.980,-6424.141,-11844.180,-14528.080,-13768.810,0.000
-13894.500,-14042.330,-13988.300,-15818.360,-6559.875,-11971.880,-14645.750,-13871.300,0.000
-14011.030,-14157.330,-14164.390,-15994.570,-6696.044,-12098.510,-14762.800,-13973.480,0.000
-14128.950,-14273.750,-14341.480,-16170.850,-6832.994,-12225.930,-14880.360,-14076.010,0.000
-14245.830,-14390.440,-14518.190,-16345.900,-6969.602,-12355.210,-14998.600,-14178.220,0.000
-14359.440,-14504.740,-14692.580,-16518.560,-7103.915,-12482.710,-15114.780,-14278.550,0.000
-14470.910,-14616.240,-14864.850,-16689.770,-7235.995,-12605.960,-15227.690,-14377.000,0.000
-14582.980,-14726.830,-15036.600,-16861.210,-7367.599,-12726.850,-15339.360,-14475.150,0.000
-14696.590,-14837.710,-15208.330,-17033.180,-7499.549,-12847.740,-15451.590,-14574.120,0.000
-14809.230,-14947.560,-15377.900,-17203.350,-7630.182,-12968.290,-15562.870,-14672.170,0.000
-14918.830,-15055.870,-15544.400,-17370.280,-7758.915,-13088.330,-15672.610,-14768.530,0.000
-15027.420,-15165.420,-15710.720,-17536.310,-7888.568,-13210.130,-15783.960,-14866.400,0.000
-15137.690,-15277.960,-15879.270,-17703.490,-8020.840,-13334.820,-15898.660,-14967.490,0.000
-15248.920,-15391.130,-16048.530,-17870.620,-8153.429,-13459.220,-16013.880,-15069.270,0.000
-15358.920,-15501.850,-16215.920,-18036.080,-8283.524,-13580.000,-16126.560,-15169.030,0.000
-15468.070,-15610.030,-16381.600,-18200.750,-8411.298,-13697.890,-16236.920,-15266.630,0.000
-15578.150,-15716.940,-16547.140,-18366.140,-8538.385,-13814.670,-16346.100,-15363.390,0.000
-15688.970,-15822.740,-16712.560,-18531.780,-8665.262,-13930.660,-16454.230,-15459.380,0.000
-15798.240,-15927.090,-16876.670,-18695.770,-8791.505,-14046.440,-16561.460,-15553.690,0.000
-15904.040,-16030.190,-17038.580,-18856.820,-8916.828,-14163.050,-16668.090,-15646.240,0.000
-16007.840,-16134.150,-17199.550,-19016.360,-9042.320,-14282.010,-16775.420,-15738.680,0.000
-16112.950,-16241.390,-17362.020,-19177.280,-9169.468,-14404.100,-16884.940,-15833.060,0.000
-16219.480,-16350.300,-17525.360,-19339.730,-9296.750,-14525.830,-16994.710,-15928.690,0.000
-16325.850,-16457.900,-17687.690,-19502.380,-9422.152,-14643.690,-17102.390,-16023.960,0.000
-16431.550,-16563.130,-17848.500,-19664.570,-9545.738,-14757.920,-17208.130,-16118.860,0.000
-16536.040,-16665.350,-18007.010,-19825.030,-9667.587,-14869.870,-17312.220,-16212.780,0.000
-16639.240,-16765.110,-18163.040,-19982.870,-9788.190,-14981.360,-17415.410,-16304.790,0.000
-16740.950,-16863.600,-18317.150,-20137.780,-9908.164,-15092.980,-17518.090,-16394.330,0.000
-16841.770,-16962.450,-18470.760,-20290.450,-10028.110,-15204.420,-17620.250,-16481.700,0.000
-16943.830,-17063.740,-18626.050,-20443.160,-10149.410,-15316.390,-17723.160,-16569.340,0.000
-17046.560,-17166.470,-18782.450,-20596.480,-10271.500,-15427.910,-17826.440,-16658.320,0.000
-17147.140,-17267.500,-18937.230,-20749.210,-10392.120,-15536.840,-17927.970,-16747.100,0.000
-17244.970,-17365.870,-19089.560,-20901.420,-10510.710,-15643.190,-18027.390,-16835.110,0.000
-17342.180,-17463.260,-19240.810,-21054.430,-10628.760,-15749.670,-18126.630,-16923.390,0.000
-17440.390,-17561.120,-19392.200,-21208.370,-10747.370,-15858.840,-18227.310,-17012.620,0.000
-17539.070,-17659.220,-19543.790,-21361.910,-10866.120,-15970.370,-18329.260,-17102.420,0.000
-17637.890,-17757.660,-19695.690,-21514.480,-10984.800,-16082.830,-18431.830,-17192.560,0.000
-17736.920,-17856.770,-19847.600,-21665.820,-11103.330,-16194.970,-18533.830,-17282.460,0.000
-17835.260,-17955.540,-19998.000,-21814.820,-11220.340,-16304.540,-18633.040,-17370.070,0.000
-17933.550,-18054.040,-20147.300,-21962.400,-11336.030,-16411.020,-18729.630,-17454.930,0.000
-18033.320,-18153.410,-20297.590,-22111.020,-11452.430,-16516.710,-18826.360,-17538.890,0.000
-18132.800,-18251.890,-20447.960,-22260.030,-11568.990,-16622.300,-18923.460,-17622.590,0.000
-18229.500,-18346.970,-20596.190,-22407.620,-11684.290,-16727.110,-19019.880,-17706.250,0.000
-18323.180,-18438.820,-20742.090,-22553.620,-11798.670,-16831.750,-19115.900,-17790.630,0.000
-18414.740,-18529.070,-20886.420,-22698.040,-11912.330,-16936.370,-19211.450,-17875.170,0.000
-18505.350,-18619.420,-21029.640,-22840.770,-12024.750,-17040.590,-19306.120,-17958.760,0.000
-18595.920,-18711.260,-21172.030,-22982.410,-12135.880,-17145.660,-19400.600,-18041.400,0.000
-18686.140,-18804.180,-21313.100,-23123.250,-12245.710,-17251.560,-19495.200,-18123.280,0.000
-18775.990,-18896.830,-21452.910,-23263.980,-12354.660,-17356.020,-19589.260,-18204.650,0.000
-18866.630,-18988.950,-21592.970,-23406.040,-12464.210,-17458.480,-19682.950,-18286.310,0.000
-18958.950,-19080.650,-21734.360,-23549.570,-12575.010,-17559.410,-19776.430,-18368.430,0.000
-19053.700,-19173.040,-21877.950,-23694.220,-12687.610,-17660.250,-19870.250,-18451.330,0.000
-19149.400,-19266.030,-22022.570,-23838.300,-12801.250,-17762.080,-19964.410,-18534.600,0.000
-19243.320,-19358.120,-22165.690,-23979.570,-12913.820,-17864.220,-20057.780,-18617.190,0.000
-19335.280,-19449.610,-22306.860,-24118.360,-13025.140,-17966.890,-20150.580,-18699.360,0.000
-19425.580,-19540.480,-22446.020,-24255.260,-13135.240,-18069.950,-20242.640,-18780.370,0.000
-19514.380,-19630.370,-22583.610,-24391.220,-13244.220,-18172.350,-20333.540,-18859.650,0.000
-19603.220,-19720.250,-22721.770,-24528.600,-13353.570,-18273.970,-20424.310,-18938.900,0.000
-19692.030,-19809.020,-22860.040,-24666.550,-13462.480,-18373.180,-20514.420,-19018.000,0.000
-19778.960,-19894.160,-22995.550,-24801.790,-13568.030,-18467.770,-20601.920,-19094.900,0.000
-19865.020,-19977.570,-23129.110,-24934.810,-13671.250,-18560.230,-20687.870,-19170.380,0.000
-19952.260,-20062.820,-23263.390,-25067.940,-13775.020,-18654.200,-20774.390,-19246.250,0.000
-20040.640,-20150.390,-23398.550,-25201.280,-13879.460,-18749.770,-20861.490,-19322.130,0.000
-20129.930,-20239.330,-23534.130,-25334.810,-13984.010,-18845.720,-20948.780,-19397.740,0.000
-20219.730,-20328.130,-23669.940,-25469.010,-14088.190,-18940.520,-21035.520,-19473.240,0.000
-20308.570,-20414.740,-23804.820,-25603.040,-14191.170,-19033.400,-21120.770,-19547.880,0.000
-20395.460,-20498.580,-23937.860,-25735.880,-14293.090,-19125.630,-21205.090,-19621.830,0.000
-20480.700,-20580.660,-24069.320,-25867.440,-14394.860,-19218.310,-21289.590,-19696.420,0.000
-20563.900,-20661.370,-24198.700,-25996.860,-14496.260,-19311.510,-21374.300,-19771.500,0.000
-20644.950,-20741.470,-24325.810,-26123.800,-14597.040,-19405.860,-21458.980,-19846.210,0.000
-20726.140,-20823.950,-24453.230,-26250.680,-14699.120,-19503.090,-21544.820,-19921.450,0.000
-20808.750,-20909.480,-24582.230,-26378.830,-14802.960,-19601.860,-21631.630,-19996.940,0.000
-20890.910,-20994.230,-24710.590,-26506.580,-14905.500,-19697.130,-21716.320,-20070.180,0.000
-20972.380,-21076.610,-24837.980,-26633.830,-15006.000,-19787.970,-21798.660,-20141.930,0.000
-21054.010,-21157.450,-24965.200,-26761.130,-15105.860,-19876.980,-21880.670,-20214.350,0.000
-21134.630,-21235.670,-25090.610,-26886.650,-15204.230,-19964.320,-21961.640,-20286.120,0.000
-21213.490,-21310.960,-25213.370,-27009.240,-15300.470,-20049.670,-22040.800,-20355.600,0.000
-21291.540,-21385.720,-25335.160,-27130.200,-15396.090,-20134.720,-22119.460,-20423.880,0.000
-21370.190,-21463.090,-25458.360,-27251.620,-15493.140,-20221.960,-22199.180,-20493.190,0.000
-21450.160,-21544.260,-25583.810,-27374.360,-15591.980,-20312.600,-22280.200,-20563.890,0.000
-21530.600,-21626.930,-25709.500,-27497.080,-15690.310,-20404.450,-22361.020,-20634.130,0.000
-21609.860,-21707.500,-25832.750,-27618.190,-15785.890,-20493.670,-22439.950,-20702.940,0.000
-21687.500,-21784.780,-25953.250,-27737.990,-15879.110,-20579.440,-22517.250,-20771.080,0.000
-21764.290,-21859.630,-26072.300,-27857.460,-15971.570,-20663.150,-22594.000,-20839.010,0.000
-21840.900,-21933.160,-26190.590,-27976.480,-16064.410,-20745.470,-22670.630,-20906.720,0.000
-21917.410,-22006.860,-26308.600,-28094.690,-16158.550,-20828.060,-22748.140,-20974.690,0.000
-21992.740,-22081.420,-26426.370,-28211.590,-16253.570,-20912.840,-22826.830,-21042.750,0.000
-22066.700,-22156.700,-26543.880,-28327.240,-16348.020,-20999.070,-22904.960,-21110.040,0.000
-22141.360,-22233.410,-26662.130,-28443.100,-16441.880,-21086.360,-22982.200,-21176.650,0.000
-22218.070,-22311.760,-26781.600,-28560.220,-16535.870,-21175.430,-23059.780,-21243.070,0.000
-22295.780,-22389.920,-26901.130,-28678.000,-16629.460,-21264.170,-23136.960,-21308.780,0.000
-22373.190,-22466.350,-27019.560,-28795.570,-16722.340,-21350.400,-23213.070,-21374.120,0.000
-22449.610,-22540.740,-27136.490,-28912.440,-16814.970,-21434.230,-23288.490,-21440.400,0.000
-22524.040,-22612.890,-27251.430,-29027.590,-16907.050,-21515.770,-23362.810,-21507.170,0.000
-22596.230,-22683.670,-27364.840,-29141.110,-16998.710,-21596.630,-23436.760,-21573.850,0.000
-22666.860,-22754.170,-27477.410,-29253.810,-17090.030,-21678.220,-23511.180,-21640.140,0.000
-22737.330,-22825.240,-27589.600,-29366.010,-17180.470,-21760.010,-23585.280,-21705.130,0.000
-22809.800,-22898.220,-27702.550,-29478.570,-17270.660,-21842.350,-23659.030,-21768.870,0.000
-22883.870,-22972.120,-27815.670,-29590.880,-17360.410,-21925.000,-23732.230,-21831.200,0.000
-22956.960,-23044.340,-27927.130,-29701.270,-17448.660,-22006.120,-23804.010,-21891.940,0.000
-23028.500,-23114.300,-28037.200,-29810.100,-17536.020,-22084.210,-23874.390,-21952.540,0.000
-23099.630,-23183.100,-28147.230,-29918.850,-17623.740,-22160.200,-23944.440,-22014.660,0.000
-23170.410,-23251.200,-28257.130,-30027.490,-17711.640,-22236.290,-24014.890,-22077.650,0.000
-23240.450,-23319.000,-28366.630,-30135.740,-17799.280,-22313.700,-24085.580,-22139.980,0.000
-23310.370,-23387.720,-28476.630,-30244.490,-17887.230,-22392.970,-24156.670,-22201.740,0.000
-23379.890,-23457.000,-28586.660,-30353.280,-17974.540,-22472.290,-24227.140,-22262.660,0.000
-23447.990,-23525.240,-28695.000,-30460.380,-18059.400,-22549.400,-24295.200,-22321.540,0.000
-23515.770,-23592.940,-28802.140,-30566.360,-18142.860,-22625.400,-24361.970,-22379.430,0.000
-23584.650,-23661.200,-28909.550,-30672.830,-18227.110,-22701.460,-24429.430,-22438.120,0.000
-23653.400,-23728.830,-29016.490,-30779.340,-18311.890,-22776.410,-24497.040,-22497.380,0.000
-23720.900,-23795.140,-29122.380,-30885.290,-18396.610,-22850.530,-24564.430,-22557.260,0.000
-23787.970,-23861.700,-29228.470,-30991.140,-18481.920,-22925.650,-24632.270,-22617.970,0.000
-23854.910,-23929.290,-29334.890,-31096.360,-18567.500,-23002.280,-24700.260,-22677.810,0.000
-23920.680,-23996.410,-29439.770,-31199.420,-18651.100,-23078.460,-24766.690,-22734.870,0.000
-23985.420,-24061.930,-29542.490,-31300.430,-18731.830,-23151.710,-24830.650,-22789.720,0.000
-24050.510,-24126.450,-29644.270,-31400.950,-18811.430,-23222.500,-24893.840,-22844.710,0.000
-24114.830,-24188.910,-29744.400,-31500.270,-18890.150,-23290.980,-24956.690,-22900.160,0.000
-24177.140,-24248.830,-29842.340,-31597.600,-18968.240,-23358.320,-25019.400,-22955.730,0.000
-24239.710,-24309.720,-29941.060,-31695.690,-19049.120,-23430.290,-25085.380,-23013.470,0.000
-24303.720,-24373.200,-30042.110,-31796.020,-19133.390,-23507.220,-25154.830,-23073.370,0.000
-24367.380,-24436.790,-30143.320,-31896.530,-19217.360,-23583.180,-25223.540,-23132.310,0.000
-24428.730,-24498.180,-30242.240,-31994.980,-19297.990,-23655.010,-25288.270,-23188.000,0.000
-24487.200,-24556.570,-30337.940,-32090.540,-19374.470,-23721.890,-25347.770,-23239.490,0.000
-24545.160,-24614.230,-30432.760,-32185.230,-19449.240,-23786.440,-25404.520,-23288.780,0.000
-24605.550,-24674.370,-30529.670,-32281.960,-19525.840,-23853.460,-25462.690,-23339.600,0.000
-24668.430,-24736.810,-30628.390,-32380.410,-19604.480,-23922.930,-25522.800,-23392.750,0.000
-24732.720,-24800.130,-30727.700,-32479.240,-19684.020,-23992.990,-25583.910,-23447.370,0.000
-24796.990,-24863.150,-30826.900,-32577.590,-19763.750,-24063.210,-25645.870,-23502.430,0.000
-24859.090,-24924.310,-30924.740,-32674.120,-19842.410,-24132.530,-25707.670,-23556.460,0.000
-24918.500,-24983.690,-31020.660,-32768.500,-19919.580,-24200.830,-25768.790,-23609.480,0.000
-24975.460,-25041.320,-31113.930,-32860.410,-19994.920,-24268.390,-25828.740,-23661.360,0.000
-25030.550,-25097.000,-31204.300,-32949.960,-20068.220,-24335.220,-25887.280,-23711.900,0.000
-25086.200,-25152.780,-31294.180,-33039.500,-20141.200,-24402.350,-25945.970,-23762.910,0.000
-25143.970,-25210.290,-31385.660,-33130.360,-20215.240,-24469.820,-26005.810,-23815.550,0.000
-25203.770,-25269.450,-31478.910,-33222.120,-20290.570,-24536.920,-26066.560,-23869.540,0.000
-25264.790,-25329.360,-31573.080,-33313.950,-20366.750,-24603.400,-26127.140,-23923.260,0.000
-25325.260,-25388.870,-31666.990,-33404.970,-20442.980,-24669.260,-26186.370,-23974.380,0.000
-25384.390,-25448.000,-31760.390,-33495.670,-20519.360,-24735.390,-26244.650,-24023.260,0.000
-25442.440,-25506.720,-31852.950,-33586.380,-20595.430,-24801.680,-26302.010,-24071.230,0.000
-25499.240,-25563.920,-31943.440,-33675.860,-20669.320,-24866.070,-26357.130,-24117.570,0.000
-25554.740,-25619.290,-32031.770,-33763.430,-20740.380,-24927.980,-26410.090,-24162.020,0.000
-25609.550,-25673.840,-32119.250,-33849.980,-20810.210,-24989.080,-26462.590,-24206.290,0.000
-25664.030,-25728.040,-32206.510,-33936.300,-20880.340,-25049.910,-26516.020,-24252.020,0.000
-25716.760,-25780.410,-32292.010,-34021.110,-20949.830,-25109.870,-26570.190,-24298.540,0.000
-25766.980,-25830.600,-32375.170,-34103.920,-21017.910,-25170.110,-26624.570,-24344.850,0.000
-25817.860,-25882.020,-32459.420,-34188.070,-21087.240,-25233.020,-26680.400,-24392.890,0.000
-25872.000,-25936.800,-32547.240,-34275.640,-21159.660,-25298.480,-26738.270,-24443.920,0.000
-25927.760,-25992.630,-32636.600,-34364.250,-21232.990,-25363.500,-26795.970,-24495.510,0.000
-25982.680,-26046.740,-32724.420,-34450.670,-21304.310,-25425.530,-26850.720,-24544.340,0.000
-26035.670,-26098.100,-32808.990,-34533.090,-21372.160,-25484.010,-26901.310,-24588.710,0.000
-26087.410,-26147.560,-32891.170,-34612.130,-21437.410,-25540.550,-26949.370,-24629.910,0.000
-26139.520,-26196.970,-32973.160,-34690.140,-21502.160,-25597.530,-26997.770,-24670.810,0.000
-26192.570,-26247.120,-33055.730,-34768.750,-21567.470,-25655.330,-27047.470,-24712.800,0.000
-26246.080,-26297.540,-33138.410,-34848.410,-21633.380,-25712.860,-27097.900,-24756.060,0.000
-26298.530,-26346.950,-33220.100,-34928.610,-21699.050,-25768.700,-27147.740,-24799.770,0.000
-26349.520,-26395.600,-33300.810,-35009.130,-21764.280,-25823.590,-27197.050,-24843.530,0.000
-26400.520,-26445.270,-33381.550,-35090.270,-21829.920,-25880.080,-27247.370,-24887.990,0.000
-26451.970,-26496.010,-33462.180,-35170.980,-21895.750,-25938.220,-27298.710,-24932.580,0.000
-26502.590,-26546.060,-33541.800,-35249.610,-21960.710,-25995.740,-27349.520,-24975.940,0.000
-26551.220,-26593.800,-33619.640,-35325.640,-22024.290,-26051.210,-27398.620,-25017.340,0.000
-26598.560,-26639.590,-33696.270,-35400.670,-22087.460,-26105.690,-27446.730,-25057.500,0.000
-26644.920,-26684.370,-33772.360,-35476.050,-22150.800,-26160.190,-27494.580,-25097.610,0.000
-26689.580,-26728.430,-33847.860,-35551.540,-22213.680,-26214.340,-27541.740,-25137.740,0.000
-26734.100,-26773.310,-33923.900,-35627.610,-22276.380,-26268.230,-27588.300,-25178.010,0.000
-26780.790,-26820.410,-34001.480,-35704.740,-22339.210,-26321.870,-27634.540,-25218.790,0.000
-26829.380,-26868.910,-34079.750,-35781.880,-22401.660,-26375.470,-27680.700,-25260.000,0.000
-26877.400,-26916.290,-34156.680,-35857.160,-22462.960,-26428.930,-27726.590,-25300.550,0.000
-26923.460,-26961.390,-34231.600,-35930.200,-22522.970,-26480.940,-27771.490,-25339.960,0.000
-26968.890,-27005.710,-34306.040,-36002.550,-22582.780,-26531.390,-27815.810,-25379.110,0.000
-27015.460,-27051.190,-34381.510,-36075.840,-22643.880,-26583.150,-27861.670,-25418.750,0.000
-27063.130,-27098.240,-34457.860,-36150.410,-22706.600,-26638.320,-27910.060,-25458.840,0.000
-27110.540,-27145.320,-34533.370,-36224.800,-22769.100,-26694.190,-27958.680,-25498.440,0.000
-27157.710,-27191.710,-34607.610,-36298.170,-22830.470,-26748.410,-28005.980,-25537.550,0.000
-27205.300,-27238.040,-34681.480,-36370.660,-22891.370,-26801.620,-28052.200,-25576.830,0.000
-27251.760,-27283.030,-34754.030,-36440.910,-22950.920,-26852.850,-28096.470,-25615.490,0.000
-27295.050,-27324.580,-34823.550,-36507.750,-23007.710,-26900.330,-28137.770,-25652.340,0.000
-27336.390,-27363.630,-34891.080,-36573.100,-23062.780,-26945.930,-28177.580,-25687.930,0.000
-27378.270,-27402.890,-34959.230,-36639.940,-23118.860,-26993.210,-28218.830,-25724.060,0.000
-27420.800,-27443.480,-35028.900,-36708.750,-23177.200,-27043.050,-28262.380,-25761.610,0.000
-27462.660,-27485.060,-35099.320,-36778.200,-23236.980,-27093.980,-28306.700,-25800.010,0.000
-27503.910,-27527.600,-35170.210,-36847.620,-23297.370,-27144.910,-28350.900,-25838.830,0.000
-27546.040,-27571.680,-35242.040,-36917.210,-23358.160,-27195.960,-28395.250,-25877.960,0.000
-27589.550,-27616.500,-35313.940,-36986.220,-23417.940,-27246.690,-28438.790,-25915.930,0.000
-27633.810,-27660.310,-35384.560,-37053.610,-23475.050,-27296.180,-28480.200,-25951.060,0.000
-27678.000,-27702.340,-35453.620,-37119.370,-23529.960,-27344.370,-28519.990,-25983.660,0.000
-27720.560,-27742.230,-35520.770,-37183.800,-23583.770,-27391.150,-28559.030,-26015.330,0.000
-27760.490,-27780.070,-35585.760,-37247.300,-23637.040,-27436.440,-28597.780,-26047.430,0.000
-27798.170,-27816.610,-35649.040,-37310.210,-23690.110,-27481.040,-28636.560,-26080.200,0.000
-27833.500,-27851.590,-35710.330,-37371.550,-23741.920,-27524.390,-28674.260,-26112.410,0.000
-27868.050,-27886.020,-35770.970,-37432.080,-23792.800,-27566.240,-28710.750,-26144.320,0.000
-27905.800,-27923.470,-35834.550,-37494.890,-23845.830,-27609.470,-28748.620,-26178.300,0.000
-27946.810,-27964.030,-35900.700,-37559.210,-23900.800,-27654.440,-28787.690,-26213.400,0.000
-27988.300,-28004.840,-35966.520,-37622.240,-23955.210,-27699.700,-28826.220,-26247.050,0.000
-28030.090,-28045.530,-36032.060,-37684.740,-24009.470,-27746.460,-28865.320,-26280.070,0.000
-28072.190,-28085.880,-36097.880,-37747.990,-24064.280,-27794.110,-28905.560,-26313.580,0.000
-28112.540,-28123.990,-36162.580,-37810.660,-24118.420,-27840.040,-28945.240,-26346.290,0.000
-28150.080,-28159.490,-36225.270,-37871.420,-24171.060,-27883.740,-28982.800,-26377.280,0.000
-28185.580,-28194.060,-36286.280,-37930.660,-24222.550,-27926.000,-29018.660,-26407.760,0.000
-28219.800,-28228.990,-36345.860,-37989.050,-24273.380,-27967.890,-29054.130,-26439.080,0.000
-28253.210,-28264.530,-36404.220,-38046.630,-24323.710,-28010.030,-29089.850,-26470.670,0.000
-28286.210,-28300.260,-36461.860,-38103.090,-24373.550,-28052.190,-29125.590,-26500.790,0.000
-28318.400,-28334.880,-36518.670,-38157.650,-24422.250,-28093.070,-29160.280,-26527.800,0.000
-28350.110,-28367.840,-36575.050,-38211.110,-24469.980,-28132.000,-29193.740,-26552.650,0.000
-28382.780,-28400.210,-36632.200,-38265.750,-24518.350,-28170.100,-29227.720,-26578.510,0.000
-28416.410,-28432.440,-36689.930,-38321.900,-24567.680,-28208.060,-29262.920,-26606.480,0.000
-28450.420,-28464.700,-36747.590,-38378.770,-24617.200,-28246.130,-29298.330,-26635.840,0.000
-28485.470,-28498.290,-36805.880,-38436.540,-24666.890,-28285.240,-29333.580,-26666.410,0.000
-28521.860,-28533.730,-36865.030,-38495.140,-24716.590,-28325.790,-29368.670,-26697.600,0.000
-28558.130,-28569.550,-36923.390,-38553.060,-24765.140,-28367.140,-29402.840,-26727.610,0.000
-28591.840,-28603.540,-36979.070,-38608.250,-24811.380,-28408.150,-29434.840,-26754.650,0.000
-28622.900,-28635.440,-37033.040,-38661.150,-24856.070,-28448.110,-29464.980,-26779.240,0.000
-28654.150,-28667.480,-37088.210,-38714.570,-24901.480,-28487.640,-29495.370,-26803.880,0.000
-28686.890,-28700.870,-37145.110,-38769.380,-24948.390,-28527.210,-29526.910,-26829.800,0.000
-28720.090,-28734.760,-37202.270,-38824.460,-24995.960,-28566.650,-29559.130,-26856.860,0.000
-28752.370,-28767.810,-37258.040,-38878.550,-25042.880,-28605.170,-29590.950,-26884.450,0.000
-28782.110,-28798.300,-37310.300,-38929.880,-25087.430,-28641.040,-29620.640,-26911.060,0.000
-28809.620,-28826.220,-37359.110,-38978.320,-25129.500,-28674.920,-29648.540,-26936.070,0.000
-28837.560,-28853.860,-37407.510,-39026.180,-25171.230,-28710.070,-29676.890,-26960.420,0.000
-28867.540,-28882.640,-37457.770,-39075.320,-25214.090,-28747.220,-29706.530,-26984.970,0.000
-28899.490,-28912.470,-37510.060,-39126.450,-25258.240,-28784.900,-29737.300,-27010.600,0.000
-28932.760,-28942.970,-37563.580,-39179.430,-25303.510,-28822.540,-29768.960,-27037.710,0.000
-28965.340,-28972.860,-37616.530,-39232.290,-25348.810,-28859.100,-29800.100,-27065.040,0.000
-28994.850,-29000.700,-37666.910,-39282.350,-25392.380,-28893.110,-29828.790,-27090.700,0.000
-29021.480,-29027.080,-37714.710,-39329.150,-25433.950,-28925.480,-29855.480,-27114.410,0.000
-29046.610,-29052.770,-37760.440,-39373.020,-25473.250,-28956.890,-29880.860,-27135.810,0.000
-29071.610,-29078.250,-37804.930,-39414.770,-25510.470,-28987.420,-29904.810,-27154.800,0.000
-29098.190,-29104.710,-37850.550,-39457.210,-25548.050,-29018.900,-29929.590,-27173.960,0.000
-29126.110,-29131.620,-37897.990,-39502.070,-25587.370,-29051.450,-29956.440,-27195.270,0.000
-29155.270,-29158.910,-37947.190,-39550.080,-25629.220,-29084.790,-29984.840,-27218.980,0.000
-29186.230,-29187.580,-37998.420,-39601.000,-25673.970,-29119.420,-30014.620,-27244.770,0.000
-29217.630,-29216.790,-38050.160,-39652.110,-25719.730,-29154.300,-30044.630,-27271.090,0.000
-29247.230,-29245.130,-38100.290,-39700.480,-25764.170,-29187.930,-30073.310,-27296.280,0.000
-29273.550,-29271.400,-38147.070,-39744.570,-25805.710,-29219.430,-30099.620,-27319.100,0.000
-29297.980,-29296.380,-38191.480,-39785.830,-25845.040,-29250.130,-30124.480,-27340.220,0.000
-29323.740,-29322.790,-38236.940,-39828.110,-25884.930,-29282.970,-30150.560,-27362.130,0.000
-29351.350,-29351.050,-38284.330,-39872.960,-25926.090,-29317.840,-30178.380,-27385.440,0.000
-29378.940,-29379.110,-38331.930,-39919.230,-25967.450,-29351.930,-30206.130,-27408.970,0.000
-29404.580,-29404.830,-38377.770,-39964.650,-26007.700,-29383.100,-30232.090,-27431.510,0.000
-29427.680,-29427.790,-38421.180,-40007.450,-26046.360,-29411.490,-30255.990,-27452.550,0.000
-29449.720,-29450.240,-38463.610,-40048.230,-26084.740,-29439.380,-30279.490,-27473.090,0.000
-29471.750,-29473.760,-38505.880,-40087.690,-26123.250,-29468.300,-30303.500,-27493.430,0.000
-29493.600,-29497.580,-38547.320,-40125.560,-26160.670,-29497.940,-30327.110,-27512.540,0.000
-29515.590,-29521.120,-38588.230,-40162.600,-26197.000,-29527.690,-30350.010,-27530.610,0.000
-29538.440,-29544.970,-38629.910,-40200.880,-26233.650,-29557.330,-30373.150,-27549.210,0.000
-29561.190,-29568.120,-38671.630,-40240.600,-26270.370,-29585.700,-30396.160,-27568.350,0.000
-29582.510,-29588.920,-38711.730,-40280.080,-26306.090,-29612.470,-30418.260,-27587.140,0.000
-29603.410,-29608.590,-38750.770,-40318.970,-26341.580,-29639.380,-30440.540,-27606.240,0.000
-29625.270,-29629.200,-38790.230,-40357.770,-26377.840,-29667.210,-30463.660,-27626.370,0.000
-29646.800,-29650.360,-38829.540,-40395.430,-26414.290,-29694.950,-30486.370,-27646.370,0.000
-29666.810,-29671.330,-38867.920,-40431.250,-26450.340,-29722.150,-30507.830,-27665.050,0.000
-29687.360,-29693.660,-38906.970,-40467.310,-26486.830,-29750.190,-30529.050,-27683.260,0.000
-29709.750,-29717.700,-38947.450,-40505.000,-26523.480,-29779.580,-30550.420,-27701.160,0.000
-29732.700,-29741.340,-38987.940,-40543.550,-26558.540,-29808.680,-30571.240,-27717.900,0.000
-29755.440,-29763.190,-39027.570,-40582.160,-26591.820,-29836.360,-30591.750,-27734.020,0.000
-29778.100,-29783.540,-39066.340,-40620.230,-26624.660,-29863.560,-30612.930,-27750.640,0.000
-29800.370,-29803.210,-39104.250,-40657.040,-26658.040,-29890.980,-30634.830,-27768.040,0.000
-29820.920,-29822.380,-39140.800,-40691.840,-26691.630,-29917.850,-30655.990,-27785.360,0.000
-29838.810,-29840.720,-39175.480,-40724.160,-26724.300,-29942.660,-30674.810,-27801.310,0.000
-29855.430,-29858.910,-39209.350,-40755.180,-26755.990,-29965.380,-30691.740,-27815.680,0.000
-29872.960,-29878.050,-39244.290,-40787.170,-26787.460,-29987.710,-30708.410,-27829.680,0.000
-29893.070,-29898.850,-39281.680,-40822.060,-26819.800,-30011.810,-30726.700,-27845.540,0.000
-29916.340,-29921.290,-39321.620,-40860.100,-26854.180,-30038.750,-30748.090,-27864.480,0.000
-29940.480,-29943.270,-39361.680,-40898.680,-26889.570,-30066.500,-30770.710,-27884.660,0.000
-29962.210,-29962.590,-39399.090,-40934.540,-26923.810,-30092.270,-30791.190,-27902.920,0.000
-29979.710,-29978.660,-39432.600,-40965.810,-26955.140,-30114.740,-30808.040,-27917.100,0.000
-29993.450,-29992.300,-39462.550,-40992.890,-26982.940,-30134.370,-30821.960,-27927.530,0.000
-30006.130,-30005.800,-39491.360,-41018.740,-27009.200,-30153.390,-30835.110,-27936.970,0.000
-30020.420,-30021.350,-39521.760,-41046.500,-27036.620,-30174.020,-30849.690,-27947.770,0.000
-30037.480,-30039.330,-39554.900,-41077.610,-27066.280,-30196.910,-30866.610,-27960.940,0.000
-30057.000,-30058.650,-39589.790,-41111.170,-27097.420,-30220.930,-30885.010,-27976.190,0.000
-30076.950,-30077.210,-39624.020,-41144.430,-27128.340,-30244.050,-30903.140,-27992.030,0.000
-30095.220,-30093.260,-39655.950,-41175.560,-27157.910,-30264.890,-30919.830,-28007.350,0.000
-30111.330,-30106.760,-39685.880,-41205.020,-27186.180,-30283.230,-30935.090,-28022.110,0.000
-30125.440,-30119.030,-39714.640,-41233.540,-27213.720,-30300.640,-30949.610,-28036.190,0.000
-30138.270,-30131.700,-39742.990,-41261.290,-27241.320,-30319.660,-30964.220,-28049.230,0.000
-30150.860,-30145.170,-39771.240,-41288.450,-27268.780,-30339.570,-30978.530,-28060.860,0.000
-30164.190,-30159.060,-39799.340,-41315.430,-27295.240,-30358.290,-30991.960,-28071.040,0.000
-30178.480,-30172.830,-39827.050,-41342.200,-27320.570,-30376.140,-31004.920,-28080.180,0.000
-30193.110,-30185.580,-39854.270,-41368.210,-27345.390,-30393.720,-31017.510,-28088.900,0.000
-30208.220,-30197.420,-39881.600,-41393.560,-27370.670,-30410.860,-31029.470,-28097.880,0.000
-30223.720,-30208.690,-39909.120,-41418.460,-27396.250,-30427.100,-31040.690,-28106.820,0.000
-30239.100,-30220.420,-39937.020,-41443.380,-27422.360,-30443.760,-31052.120,-28115.650,0.000
-30255.850,-30235.880,-39967.320,-41470.410,-27451.130,-30464.290,-31066.620,-28126.340,0.000
-30274.140,-30255.150,-39999.500,-41499.500,-27481.430,-30488.160,-31083.560,-28138.670,0.000
-30289.700,-30272.510,-40028.500,-41526.150,-27507.790,-30509.460,-31097.020,-28148.200,0.000
-30300.130,-30284.540,-40052.290,-41548.310,-27528.780,-30525.400,-31104.770,-28153.260,0.000
-30308.680,-30294.280,-40074.920,-41569.480,-27549.200,-30539.270,-31111.500,-28158.060,0.000
-30318.800,-30304.990,-40099.650,-41592.770,-27572.990,-30554.950,-31121.730,-28166.700,0.000
-30330.540,-30316.450,-40125.660,-41617.330,-27599.470,-30572.640,-31135.440,-28178.850,0.000
-30342.920,-30327.860,-40151.660,-41641.360,-27626.320,-30590.370,-31150.120,-28192.210,0.000
-30354.950,-30339.170,-40177.340,-41664.360,-27652.080,-30606.350,-31163.720,-28204.860,0.000
-30365.710,-30350.410,-40202.230,-41686.490,-27676.450,-30620.440,-31175.850,-28215.670,0.000
-30375.050,-30361.460,-40225.660,-41707.370,-27699.040,-30633.660,-31186.470,-28224.350,0.000
-30382.710,-30370.830,-40246.150,-41725.570,-27718.150,-30645.480,-31194.090,-28230.000,0.000
-30389.700,-30378.520,-40264.230,-41741.930,-27734.890,-30657.060,-31199.940,-28233.930,0.000
-30398.300,-30386.890,-40283.170,-41759.590,-27753.780,-30671.360,-31207.800,-28239.680,0.000
-30408.590,-30396.580,-40304.330,-41779.380,-27776.500,-30687.920,-31218.120,-28247.700,0.000
-30419.310,-30406.840,-40326.910,-41800.110,-27801.530,-30704.920,-31229.320,-28256.100,0.000
-30430.230,-30417.770,-40350.570,-41821.350,-27827.630,-30722.150,-31241.240,-28264.270,0.000
-30441.520,-30429.860,-40375.340,-41843.410,-27854.300,-30739.550,-31254.420,-28272.930,0.000
-30452.030,-30441.930,-40399.590,-41865.500,-27879.970,-30755.940,-31267.410,-28281.860,0.000
-30459.540,-30451.310,-40420.390,-41885.210,-27902.190,-30770.080,-31277.580,-28289.010,0.000
-30463.380,-30456.890,-40436.840,-41900.830,-27920.150,-30781.410,-31284.010,-28292.590,0.000
-30465.030,-30460.040,-40450.860,-41913.140,-27935.570,-30790.070,-31288.090,-28293.270,0.000
-30466.550,-30463.140,-40465.240,-41924.900,-27951.400,-30797.760,-31292.270,-28293.900,0.000
-30469.630,-30468.050,-40482.010,-41938.780,-27969.740,-30806.620,-31298.150,-28297.080,0.000
-30474.740,-30474.870,-40501.290,-41955.410,-27990.340,-30817.250,-31305.420,-28303.000,0.000
-30481.130,-30482.270,-40521.500,-41973.310,-28010.930,-30828.640,-31312.130,-28309.510,0.000
-30487.970,-30489.450,-40541.290,-41991.040,-28029.970,-30840.400,-31317.430,-28314.880,0.000
-30494.810,-30496.330,-40560.040,-42007.920,-28047.460,-30852.510,-31321.820,-28318.920,0.000
-30502.040,-30503.050,-40577.740,-42023.930,-28063.900,-30864.280,-31325.940,-28322.480,0.000
-30509.380,-30509.180,-40594.210,-42038.840,-28079.660,-30875.620,-31330.770,-28326.440,0.000
-30516.100,-30514.260,-40609.390,-42052.590,-28095.500,-30886.040,-31336.600,-28330.850,0.000
-30522.920,-30519.200,-40624.790,-42066.800,-28112.780,-30894.800,-31343.160,-28335.530,0.000
-30529.960,-30524.000,-40640.960,-42082.300,-28131.260,-30902.030,-31349.520,-28339.610,0.000
-30536.310,-30527.990,-40656.890,-42098.070,-28149.490,-30908.310,-31354.530,-28341.780,0.000
-30541.980,-30531.860,-40672.100,-42112.890,-28166.760,-30915.300,-31358.320,-28341.550,0.000
-30546.610,-30535.650,-40685.660,-42125.360,-28182.040,-30923.350,-31360.760,-28338.950,0.000
-30550.410,-30539.350,-40697.960,-42135.930,-28195.690,-30931.660,-31362.230,-28335.970,0.000
-30555.210,-30544.620,-40711.910,-42147.410,-28210.610,-30941.520,-31365.550,-28336.250,0.000
-30560.900,-30551.210,-40727.880,-42160.160,-28227.810,-30952.860,-31371.540,-28339.910,0.000
-30566.400,-30557.680,-40744.120,-42172.890,-28246.140,-30964.200,-31378.750,-28344.780,0.000
-30572.170,-30563.800,-40760.160,-42185.670,-28264.550,-30975.000,-31385.940,-28350.040,0.000
-30577.480,-30568.630,-40775.370,-42198.210,-28281.530,-30983.430,-31391.460,-28355.070,0.000
-30582.300,-30572.840,-40790.060,-42211.050,-28297.830,-30990.530,-31396.450,-28359.950,0.000
-30588.240,-30578.660,-40805.370,-42225.070,-28315.040,-30999.960,-31403.080,-28364.750,0.000
-30594.380,-30584.690,-40819.540,-42238.340,-28331.070,-31009.740,-31408.910,-28367.470,0.000
-30598.450,-30588.150,-40830.490,-42248.610,-28343.880,-31016.200,-31411.170,-28367.080,0.000
-30600.290,-30589.420,-40839.210,-42256.430,-28355.330,-31020.870,-31411.610,-28365.530,0.000
-30601.830,-30590.900,-40848.400,-42264.010,-28368.700,-31027.820,-31413.600,-28365.730,0.000
-30604.550,-30593.520,-40859.310,-42272.650,-28384.570,-31037.340,-31417.680,-28368.710,0.000
-30608.150,-30596.380,-40871.400,-42282.200,-28401.040,-31046.270,-31421.680,-28373.200,0.000
-30611.540,-30598.690,-40883.830,-42292.210,-28416.730,-31053.300,-31424.260,-28376.940,0.000
-30614.220,-30600.340,-40895.820,-42302.180,-28431.310,-31059.300,-31425.270,-28377.870,0.000
-30617.520,-30603.070,-40908.020,-42312.490,-28445.790,-31066.670,-31426.010,-28376.490,0.000
-30622.590,-30608.400,-40921.390,-42323.470,-28461.070,-31077.110,-31428.050,-28374.850,0.000
-30627.760,-30614.100,-40934.480,-42333.540,-28475.550,-31087.630,-31430.600,-28373.580,0.000
-30630.780,-30616.990,-40945.360,-42341.240,-28487.690,-31094.710,-31432.610,-28372.830,0.000
-30631.600,-30616.980,-40953.960,-42346.920,-28498.190,-31098.650,-31434.340,-28372.740,0.000
-30630.550,-30614.590,-40960.340,-42350.900,-28507.180,-31100.430,-31434.850,-28371.700,0.000
-30626.380,-30608.520,-40963.360,-42352.570,-28513.160,-31099.090,-31431.680,-28367.070,0.000
-30620.650,-30600.420,-40964.900,-42353.760,-28517.510,-31095.540,-31425.390,-28359.940,0.000
-30618.680,-30596.120,-40970.060,-42358.590,-28525.050,-31095.130,-31420.840,-28354.990,0.000
-30622.460,-30598.310,-40980.430,-42367.580,-28537.510,-31100.860,-31420.640,-28354.220,0.000
-30627.640,-30602.880,-40991.630,-42376.220,-28550.740,-31107.900,-31421.510,-28354.520,0.000
-30629.210,-30604.150,-40999.060,-42380.080,-28560.480,-31110.360,-31419.390,-28351.860,0.000
-30628.030,-30601.940,-41003.900,-42380.830,-28568.320,-31108.890,-31415.370,-28346.970,0.000
-30627.760,-30599.730,-41009.890,-42383.270,-28578.020,-31107.840,-31412.800,-28343.420,0.000
-30627.800,-30597.430,-41016.330,-42387.630,-28588.770,-31108.150,-31411.200,-28340.810,0.000
-30625.870,-30593.220,-41021.080,-42391.900,-28598.180,-31108.310,-31408.780,-28337.170,0.000
-30622.490,-30588.230,-41024.800,-42396.010,-28606.640,-31108.560,-31406.250,-28333.190,0.000
-30618.790,-30584.220,-41028.180,-42399.720,-28614.860,-31109.740,-31404.060,-28329.590,0.000
-30616.040,-30582.340,-41031.930,-42402.920,-28623.520,-31112.550,-31402.140,-28326.670,0.000
-30615.650,-30583.370,-41037.510,-42406.420,-28633.570,-31117.600,-31401.050,-28324.820,0.000
-30617.930,-30586.830,-41045.430,-42410.920,-28645.290,-31124.090,-31401.000,-28323.980,0.000
-30622.060,-30591.090,-41054.860,-42416.260,-28658.080,-31130.690,-31401.260,-28323.100,0.000
-30624.710,-30592.550,-41062.810,-42419.950,-28668.960,-31134.580,-31399.210,-28319.400,0.000
-30622.390,-30588.510,-41066.500,-42420.110,-28675.470,-31133.250,-31393.060,-28311.690,0.000
-30616.550,-30581.500,-41067.550,-42419.280,-28680.170,-31129.110,-31385.590,-28303.390,0.000
-30610.380,-30575.230,-41068.610,-42420.010,-28686.070,-31125.420,-31379.660,-28297.680,0.000
-30604.750,-30570.350,-41069.860,-42421.340,-28692.600,-31122.410,-31374.360,-28293.910,0.000
-30601.150,-30568.120,-41072.640,-42423.250,-28700.430,-31122.290,-31370.800,-28292.070,0.000
-30600.250,-30569.040,-41077.750,-42426.450,-28710.590,-31126.940,-31370.880,-28292.370,0.000
-30598.960,-30569.040,-41082.080,-42428.520,-28719.950,-31131.950,-31370.810,-28291.440,0.000
-30595.590,-30565.580,-41084.040,-42428.340,-28726.520,-31133.500,-31367.390,-28287.590,0.000
-30591.070,-30560.070,-41085.030,-42427.660,-28731.900,-31132.260,-31361.870,-28282.740,0.000
-30585.470,-30553.410,-41085.340,-42426.890,-28737.020,-31129.920,-31355.600,-28277.340,0.000
-30578.650,-30545.670,-41084.430,-42425.170,-28741.570,-31127.190,-31348.730,-28270.400,0.000
-30572.000,-30537.830,-41083.110,-42422.600,-28745.680,-31123.680,-31341.170,-28262.450,0.000
-30567.400,-30531.800,-41083.160,-42420.300,-28750.080,-31120.060,-31333.670,-28255.180,0.000
-30565.180,-30528.270,-41084.790,-42418.590,-28754.880,-31117.810,-31327.060,-28249.110,0.000
-30564.460,-30526.450,-41087.140,-42417.380,-28759.950,-31117.260,-31321.370,-28243.900,0.000
-30563.670,-30524.580,-41089.290,-42416.450,-28764.960,-31116.730,-31315.440,-28238.880,0.000
-30561.300,-30521.230,-41090.550,-42415.070,-28769.460,-31114.920,-31308.740,-28233.360,0.000
-30556.930,-30516.030,-41090.640,-42412.820,-28773.470,-31112.180,-31302.190,-28227.360,0.000
-30550.220,-30508.420,-41088.700,-42408.980,-28776.360,-31108.000,-31295.070,-28220.400,0.000
-30541.820,-30499.250,-41085.060,-42403.630,-28778.390,-31102.310,-31286.650,-28212.260,0.000
-30533.180,-30490.660,-41081.480,-42397.840,-28781.080,-31096.690,-31277.810,-28203.380,0.000
-30525.690,-30484.100,-41079.490,-42392.860,-28785.610,-31093.530,-31270.030,-28194.580,0.000
-30521.090,-30480.160,-41080.240,-42390.040,-28792.630,-31093.950,-31264.570,-28187.420,0.000
-30518.180,-30476.230,-41081.760,-42388.300,-28799.910,-31094.740,-31259.570,-28181.370,0.000
-30515.040,-30470.220,-41081.890,-42385.840,-28805.230,-31093.600,-31253.450,-28175.080,0.000
-30512.250,-30464.110,-41081.750,-42383.450,-28809.900,-31091.650,-31247.350,-28168.930,0.000
-30508.380,-30457.790,-41080.780,-42380.540,-28813.850,-31087.600,-31240.330,-28161.990,0.000
-30500.950,-30448.970,-41076.550,-42374.890,-28815.250,-31079.630,-31230.500,-28152.860,0.000
-30492.210,-30439.770,-41070.870,-42367.600,-28815.980,-31071.710,-31220.640,-28143.430,0.000
-30485.920,-30434.000,-41067.640,-42361.520,-28819.410,-31068.430,-31214.350,-28136.320,0.000
-30481.640,-30430.920,-41066.820,-42356.710,-28824.770,-31067.640,-31209.850,-28130.580,0.000
-30477.080,-30427.480,-41065.840,-42351.750,-28829.140,-31065.410,-31203.620,-28123.630,0.000
-30470.460,-30421.270,-41062.500,-42345.380,-28830.740,-31060.470,-31194.230,-28113.970,0.000
-30460.380,-30410.810,-41055.700,-42336.710,-28829.170,-31052.420,-31181.630,-28101.290,0.000
-30447.830,-30397.640,-41046.960,-42327.050,-28826.490,-31042.120,-31167.270,-28087.040,0.000
-30436.650,-30385.720,-41039.940,-42319.760,-28826.640,-31033.830,-31155.260,-28074.990,0.000
-30428.670,-30376.630,-41035.820,-42315.270,-28830.660,-31029.880,-31147.790,-28066.570,0.000
-30421.850,-30368.660,-41032.450,-42310.320,-28835.560,-31026.770,-31142.030,-28058.580,0.000
-30414.190,-30360.960,-41028.470,-42303.090,-28839.350,-31022.260,-31135.460,-28048.460,0.000
-30404.880,-30353.090,-41023.060,-42293.410,-28841.080,-31016.120,-31126.860,-28035.810,0.000
-30393.630,-30343.390,-41015.000,-42281.340,-28839.430,-31006.740,-31115.220,-28020.860,0.000
-30381.350,-30331.120,-41004.580,-42268.530,-28835.180,-30994.060,-31101.810,-28005.680,0.000
-30369.370,-30317.370,-40993.400,-42257.290,-28831.040,-30980.910,-31089.190,-27993.150,0.000
-30359.440,-30304.870,-40984.050,-42249.260,-28829.950,-30971.140,-31079.610,-27985.040,0.000
-30351.870,-30294.950,-40977.540,-42243.450,-28831.980,-30965.320,-31072.490,-27980.190,0.000
-30343.900,-30285.600,-40971.210,-42235.910,-28833.730,-30960.220,-31064.500,-27975.100,0.000
-30333.030,-30275.170,-40962.570,-42224.300,-28832.960,-30954.560,-31054.320,-27967.850,0.000
-30318.940,-30263.450,-40951.370,-42209.740,-28829.800,-30948.490,-31042.440,-27958.750,0.000
-30303.620,-30250.980,-40939.130,-42195.080,-28825.570,-30941.900,-31029.740,-27948.700,0.000
-30289.620,-30238.340,-40927.360,-42182.160,-28821.550,-30935.190,-31017.380,-27938.420,0.000
-30276.100,-30223.860,-40914.590,-42169.260,-28816.590,-30927.090,-31004.400,-27926.520,0.000
-30260.670,-30206.220,-40899.210,-42154.040,-28809.270,-30915.300,-30988.750,-27911.520,0.000
-30244.290,-30188.200,-40883.620,-42137.800,-28801.790,-30900.960,-30971.720,-27894.870,0.000
-30229.720,-30173.440,-40871.110,-42123.180,-28797.260,-30888.700,-30956.850,-27878.910,0.000
-30218.130,-30162.660,-40862.230,-42110.990,-28796.070,-30880.950,-30945.380,-27864.790,0.000
-30208.530,-30153.970,-40855.200,-42100.290,-28796.180,-30875.380,-30935.170,-27851.820,0.000
-30198.810,-30144.760,-40847.740,-42089.460,-28795.060,-30868.770,-30923.480,-27838.360,0.000
-30188.590,-30134.430,-40839.690,-42078.600,-28792.570,-30861.110,-30910.390,-27824.880,0.000
-30177.900,-30123.030,-40831.150,-42068.040,-28789.580,-30852.970,-30896.820,-27812.330,0.000
-30164.390,-30108.530,-40819.950,-42055.790,-28785.090,-30842.140,-30881.540,-27799.250,0.000
-30147.810,-30090.550,-40805.480,-42040.950,-28778.800,-30827.320,-30864.170,-27784.830,0.000
-30132.460,-30073.220,-40791.190,-42025.900,-28773.550,-30812.770,-30847.830,-27771.110,0.000
-30120.000,-30059.140,-40778.710,-42011.100,-28770.190,-30801.450,-30833.950,-27758.040,0.000
-30108.370,-30046.960,-40766.570,-41995.120,-28766.230,-30790.880,-30820.060,-27743.320,0.000
-30097.500,-30036.160,-40755.110,-41979.580,-28761.420,-30780.330,-30805.480,-27727.600,0.000
-30088.170,-30026.600,-40745.110,-41966.340,-28757.110,-30771.090,-30791.630,-27713.080,0.000
-30079.770,-30016.970,-40735.750,-41954.680,-28753.690,-30763.450,-30779.210,-27700.290,0.000
-30070.950,-30005.720,-40725.650,-41943.030,-28750.460,-30755.630,-30767.070,-27688.140,0.000
-30060.760,-29992.620,-40714.320,-41930.660,-28747.280,-30745.540,-30754.100,-27676.550,0.000
-30049.080,-29979.070,-40702.590,-41917.830,-28745.220,-30734.540,-30741.590,-27666.560,0.000
-30036.370,-29966.430,-40691.290,-41904.510,-28744.180,-30724.430,-30730.050,-27657.030,0.000
-30022.880,-29954.350,-40679.890,-41889.770,-28742.050,-30714.330,-30717.170,-27644.970,0.000
-30009.080,-29942.110,-40667.910,-41873.770,-28737.960,-30703.760,-30702.070,-27629.800,0.000
-29995.990,-29929.790,-40655.550,-41858.180,-28732.850,-30692.640,-30686.270,-27613.610,0.000
-29983.480,-29917.200,-40642.550,-41843.380,-28727.290,-30680.630,-30670.650,-27598.030,0.000
-29970.790,-29903.940,-40628.990,-41828.700,-28721.630,-30668.470,-30655.610,-27583.860,0.000
-29957.280,-29889.430,-40614.890,-41813.320,-28715.990,-30656.370,-30640.830,-27570.930,0.000
-29942.860,-29873.880,-40600.010,-41797.040,-28710.370,-30643.990,-30626.000,-27558.880,0.000
-29926.890,-29857.370,-40583.710,-41779.450,-28704.070,-30630.700,-30610.540,-27546.580,0.000
-29908.820,-29840.040,-40566.000,-41760.170,-28696.320,-30615.990,-30593.530,-27532.510,0.000
-29890.940,-29824.180,-40549.320,-41741.380,-28688.580,-30601.620,-30576.460,-27517.800,0.000
-29875.170,-29810.530,-40534.760,-41724.700,-28681.800,-30589.150,-30560.670,-27503.360,0.000
-29860.740,-29796.900,-40520.660,-41708.810,-28674.860,-30577.190,-30545.070,-27488.140,0.000
-29846.980,-29782.440,-40506.160,-41692.540,-28667.840,-30564.930,-30529.790,-27472.800,0.000
-29832.600,-29766.810,-40490.590,-41675.000,-28661.160,-30553.230,-30515.420,-27457.960,0.000
-29815.660,-29748.480,-40472.590,-41655.230,-28653.850,-30540.740,-30500.290,-27442.140,0.000
-29797.280,-29728.520,-40453.230,-41634.520,-28646.180,-30526.090,-30483.390,-27425.230,0.000
-29779.930,-29709.790,-40435.040,-41614.790,-28639.630,-30510.960,-30466.070,-27408.690,0.000
-29763.720,-29692.860,-40418.520,-41596.090,-28634.080,-30496.620,-30449.230,-27393.020,0.000
-29747.820,-29676.830,-40402.700,-41577.880,-28628.100,-30482.490,-30432.460,-27377.830,0.000
-29732.160,-29661.250,-40386.800,-41560.080,-28620.960,-30468.080,-30415.470,-27362.690,0.000
-29716.220,-29645.160,-40369.850,-41541.890,-28612.020,-30452.920,-30397.460,-27346.720,0.000
-29699.900,-29628.240,-40351.750,-41522.790,-28601.600,-30437.110,-30378.450,-27329.770,0.000
-29684.070,-29611.240,-40333.520,-41503.570,-28591.550,-30421.390,-30359.800,-27312.900,0.000
-29668.130,-29593.900,-40314.860,-41483.780,-28582.400,-30405.930,-30341.470,-27295.880,0.000
-29650.980,-29575.970,-40295.230,-41462.530,-28573.460,-30390.580,-30322.790,-27278.150,0.000
-29631.770,-29557.520,-40274.460,-41439.400,-28563.730,-30374.390,-30302.880,-27259.110,0.000
-29611.550,-29539.730,-40253.710,-41415.650,-28553.650,-30358.370,-30282.830,-27239.260,0.000
-29592.580,-29523.540,-40234.590,-41393.490,-28544.200,-30343.780,-30264.340,-27220.050,0.000
-29574.600,-29507.290,-40216.020,-41372.160,-28534.280,-30329.040,-30246.130,-27201.070,0.000
-29557.350,-29490.730,-40197.480,-41350.890,-28524.020,-30314.100,-30227.770,-27182.830,0.000
-29540.440,-29474.120,-40178.880,-41329.540,-28513.940,-30298.960,-30209.390,-27165.830,0.000
-29521.860,-29455.810,-40158.730,-41307.120,-28503.370,-30282.880,-30190.540,-27148.960,0.000
-29500.370,-29434.540,-40135.850,-41282.790,-28491.620,-30265.820,-30170.920,-27131.200,0.000
-29476.670,-29410.580,-40110.390,-41256.480,-28478.120,-30246.870,-30149.440,-27111.730,0.000
-29453.520,-29386.820,-40085.220,-41230.660,-28464.520,-30227.350,-30127.120,-27091.670,0.000
-29433.360,-29366.350,-40063.270,-41207.940,-28453.110,-30210.140,-30106.620,-27072.950,0.000
-29416.660,-29349.730,-40044.880,-41188.410,-28444.160,-30195.730,-30088.900,-27056.390,0.000
-29402.500,-29336.040,-40029.060,-41170.620,-28436.950,-30183.150,-30072.780,-27041.670,0.000
-29387.530,-29321.710,-40012.540,-41151.360,-28428.760,-30169.410,-30055.200,-27025.880,0.000
-29368.910,-29303.060,-39992.180,-41128.200,-28416.990,-30151.820,-30034.500,-27006.550,0.000
-29347.820,-29281.100,-39968.960,-41102.580,-28403.210,-30132.180,-30012.760,-26985.140,0.000
-29325.580,-29257.990,-39944.410,-41075.860,-28389.050,-30112.270,-29990.670,-26963.020,0.000
-29301.940,-29233.960,-39918.500,-41047.730,-28373.590,-30091.220,-29966.840,-26939.530,0.000
-29278.160,-29210.420,-39892.680,-41019.680,-28357.660,-30070.350,-29942.850,-26916.290,0.000
-29256.870,-29189.930,-39869.470,-40994.520,-28344.290,-30052.180,-29922.160,-26896.920,0.000
-29238.130,-29171.810,-39848.390,-40972.090,-28333.600,-30035.480,-29904.340,-26881.370,0.000
-29218.920,-29152.310,-39826.110,-40948.660,-28322.150,-30016.360,-29884.650,-26865.170,0.000
-29199.060,-29131.380,-39802.800,-40923.630,-28309.550,-29995.330,-29862.250,-26846.980,0.000
-29181.550,-29112.860,-39782.010,-40900.300,-28299.360,-29977.380,-29841.650,-26830.220,0.000
-29165.940,-29097.160,-39763.550,-40878.910,-28291.880,-29963.740,-29824.220,-26815.310,0.000
-29148.600,-29080.740,-39743.810,-40856.380,-28283.760,-29951.020,-29806.870,-26798.970,0.000
-29127.750,-29061.220,-39720.790,-40831.230,-28272.530,-29936.200,-29787.210,-26779.270,0.000
-29104.240,-29038.930,-39695.000,-40804.350,-28257.730,-29918.060,-29764.840,-26756.590,0.000
-29078.540,-29014.010,-39666.630,-40775.600,-28239.320,-29895.960,-29739.330,-26731.440,0.000
-29051.700,-28987.620,-39636.520,-40745.090,-28219.050,-29871.630,-29711.870,-26705.280,0.000
-29027.920,-28964.200,-39609.170,-40716.390,-28202.030,-29850.010,-29687.000,-26682.050,0.000
-29009.100,-28946.030,-39587.020,-40691.490,-28191.220,-29833.020,-29667.400,-26663.700,0.000
-28991.390,-28929.450,-39566.480,-40667.290,-28183.540,-29817.460,-29650.300,-26647.380,0.000
-28971.540,-28910.680,-39543.960,-40641.440,-28174.880,-29799.830,-29631.730,-26630.200,0.000
-28949.680,-28889.290,-39519.340,-40614.800,-28164.030,-29779.390,-29610.830,-26612.200,0.000
-28926.520,-28866.360,-39493.600,-40588.140,-28151.010,-29757.870,-29588.710,-26593.690,0.000
-28902.960,-28842.950,-39467.510,-40561.290,-28135.360,-29736.210,-29565.240,-26573.670,0.000
-28880.200,-28819.400,-39441.400,-40533.860,-28116.900,-29713.300,-29539.630,-26550.760,0.000
-28859.480,-28796.340,-39416.120,-40506.320,-28097.700,-29689.250,-29513.340,-26525.730,0.000
-28840.710,-28774.570,-39392.410,-40479.400,-28080.430,-29666.280,-29488.780,-26501.050,0.000
-28821.440,-28752.710,-39368.650,-40452.090,-28064.800,-29644.540,-29465.340,-26476.920,0.000
-28800.420,-28729.390,-39343.480,-40423.650,-28049.740,-29622.330,-29441.090,-26452.470,0.000
-28779.120,-28706.230,-39318.450,-40395.450,-28036.440,-29601.160,-29417.840,-26428.900,0.000
-28758.180,-28684.490,-39294.410,-40368.180,-28024.850,-29582.170,-29397.230,-26406.850,0.000
-28737.780,-28664.190,-39270.930,-40341.470,-28013.380,-29563.290,-29377.530,-26385.470,0.000
-28719.050,-28646.330,-39248.610,-40315.830,-28002.450,-29545.140,-29358.500,-26365.400,0.000
-28700.410,-28629.340,-39226.210,-40290.150,-27991.310,-29528.370,-29339.420,-26346.280,0.000
-28678.860,-28609.880,-39201.220,-40262.080,-27977.650,-29510.820,-29317.510,-26325.450,0.000
-28655.020,-28587.910,-39174.130,-40232.000,-27962.050,-29491.910,-29292.750,-26302.330,0.000
-28630.930,-28564.880,-39146.660,-40201.990,-27946.410,-29472.490,-29267.170,-26278.830,0.000
-28605.370,-28539.300,-39117.760,-40171.450,-27929.370,-29451.770,-29240.570,-26254.820,0.000
-28577.110,-28510.600,-39086.480,-40138.980,-27909.500,-29429.090,-29212.470,-26228.970,0.000
-28550.430,-28483.980,-39056.450,-40107.540,-27890.240,-29407.610,-29186.230,-26204.140,0.000
-28529.310,-28463.360,-39030.560,-40079.830,-27874.610,-29389.670,-29163.580,-26183.050,0.000
-28510.520,-28444.940,-39005.600,-40052.790,-27859.840,-29371.910,-29141.050,-26163.290,0.000
-28488.990,-28423.530,-38977.550,-40022.700,-27842.460,-29350.320,-29116.350,-26142.400,0.000
-28464.100,-28398.650,-38946.530,-39990.000,-27822.880,-29324.580,-29090.380,-26121.220,0.000
-28437.430,-28371.720,-38914.130,-39956.800,-27802.720,-29295.720,-29063.400,-26100.740,0.000
-28410.250,-28344.040,-38881.710,-39924.590,-27783.090,-29266.540,-29035.600,-26080.230,0.000
-28384.380,-28317.440,-38851.180,-39894.210,-27765.260,-29239.980,-29008.880,-26059.130,0.000
-28361.590,-28293.630,-38824.080,-39866.160,-27750.220,-29216.710,-28985.100,-26038.950,0.000
-28340.930,-28272.170,-38799.120,-39839.460,-27736.910,-29196.520,-28963.790,-26020.150,0.000
-28319.370,-28250.710,-38773.170,-39811.450,-27722.750,-29178.370,-28942.890,-26000.590,0.000
-28296.160,-28227.880,-38745.120,-39780.950,-27706.140,-29159.460,-28919.570,-25978.600,0.000
-28272.280,-28203.830,-38715.680,-39748.530,-27687.160,-29137.400,-28892.290,-25953.630,0.000
-28249.260,-28180.860,-38687.040,-39716.470,-27668.930,-29115.320,-28865.770,-25928.260,0.000
-28228.840,-28161.120,-38661.430,-39687.230,-27654.540,-29097.120,-28844.150,-25906.310,0.000
-28209.500,-28142.120,-38636.980,-39659.290,-27641.630,-29079.260,-28823.470,-25885.660,0.000
-28188.050,-28120.140,-38610.580,-39629.770,-27626.560,-29057.210,-28799.870,-25862.560,0.000
-28163.530,-28094.610,-38581.460,-39598.040,-27608.540,-29031.490,-28773.440,-25837.310,0.000
-28136.240,-28065.930,-38549.350,-39563.430,-27587.100,-29002.240,-28743.490,-25810.120,0.000
-28108.440,-28036.360,-38515.790,-39526.990,-27563.970,-28971.110,-28711.560,-25782.040,0.000
-28083.220,-28009.240,-38483.890,-39492.110,-27543.110,-28942.820,-28682.460,-25756.710,0.000
-28059.420,-27983.830,-38453.330,-39458.760,-27524.630,-28917.710,-28656.840,-25734.470,0.000
-28034.330,-27957.820,-38422.080,-39424.880,-27506.150,-28894.410,-28632.320,-25712.310,0.000
-28008.380,-27931.330,-38390.460,-39391.520,-27487.330,-28872.750,-28607.550,-25688.950,0.000
-27983.260,-27905.120,-38359.670,-39360.370,-27468.680,-28850.290,-28581.470,-25665.130,0.000
-27959.020,-27879.030,-38329.250,-39330.280,-27450.020,-28825.820,-28554.360,-25641.050,0.000
-27933.770,-27851.960,-38297.230,-39298.410,-27430.010,-28800.270,-28526.470,-25615.110,0.000
-27906.120,-27823.620,-38262.730,-39263.180,-27407.820,-28773.510,-28496.940,-25586.010,0.000
-27877.500,-27795.850,-38227.340,-39225.860,-27384.950,-28745.880,-28466.170,-25555.400,0.000
-27850.960,-27771.060,-38194.010,-39189.520,-27364.400,-28719.740,-28436.770,-25526.750,0.000
-27827.770,-27750.110,-38165.060,-39156.630,-27348.560,-28697.780,-28411.790,-25502.750,0.000
-27805.260,-27730.490,-38138.670,-39126.130,-27335.930,-28679.270,-28390.900,-25482.770,0.000
-27779.720,-27707.840,-38109.920,-39094.440,-27321.730,-28659.430,-28369.610,-25462.910,0.000
-27750.980,-27680.890,-38077.150,-39060.040,-27303.370,-28635.390,-28344.350,-25440.160,0.000
-27721.450,-27652.040,-38042.630,-39024.550,-27281.980,-28608.730,-28315.940,-25414.980,0.000
-27692.560,-27623.310,-38008.000,-38989.460,-27259.310,-28581.570,-28286.740,-25389.180,0.000
-27663.770,-27594.440,-37972.850,-38953.980,-27235.720,-28553.640,-28256.770,-25362.870,0.000
-27635.560,-27566.220,-37937.980,-38917.990,-27212.540,-28525.660,-28226.470,-25336.010,0.000
-27609.240,-27540.030,-37905.090,-38883.030,-27191.710,-28499.620,-28197.690,-25309.800,0.000
-27582.430,-27513.450,-37871.990,-38847.730,-27171.160,-28473.960,-28168.930,-25283.140,0.000
-27553.770,-27485.400,-37837.150,-38810.970,-27149.360,-28447.840,-28139.410,-25255.740,0.000
-27527.130,-27459.240,-37804.210,-38776.290,-27129.610,-28424.130,-28112.870,-25231.350,0.000
-27502.890,-27434.250,-37773.570,-38744.270,-27111.980,-28401.680,-28088.960,-25209.890,0.000
-27477.820,-27407.530,-37741.980,-38711.520,-27093.510,-28377.860,-28063.910,-25187.470,0.000
-27451.250,-27379.450,-37708.760,-38676.780,-27073.720,-28352.950,-28037.100,-25162.940,0.000
-27422.690,-27349.730,-37673.550,-38639.360,-27051.880,-28325.760,-28008.140,-25136.240,0.000
-27392.730,-27319.130,-37637.380,-38600.400,-27028.720,-28298.130,-27978.770,-25109.030,0.000
-27363.400,-27289.960,-37602.700,-38562.910,-27006.560,-28273.290,-27951.540,-25083.800,0.000
-27334.350,-27261.270,-37568.910,-38526.710,-26984.440,-28248.160,-27923.780,-25058.960,0.000
-27305.140,-27231.440,-37534.550,-38490.590,-26961.120,-28220.090,-27893.620,-25032.350,0.000
-27277.690,-27202.100,-37500.690,-38455.680,-26938.540,-28191.040,-27863.490,-25005.130,0.000
-27251.610,-27174.040,-37467.240,-38421.260,-26916.960,-28161.570,-27833.740,-24977.560,0.000
-27224.410,-27145.830,-37432.500,-38384.650,-26894.150,-28130.600,-27802.710,-24948.510,0.000
-27196.720,-27118.080,-37397.380,-38346.380,-26870.550,-28100.020,-27771.620,-24919.400,0.000
-27170.300,-27092.280,-37363.510,-38308.890,-26848.190,-28072.800,-27742.980,-24892.270,0.000
-27144.950,-27067.690,-37330.500,-38272.560,-26827.180,-28048.060,-27716.440,-24866.500,0.000
-27119.430,-27042.300,-37297.050,-38236.100,-26806.120,-28022.410,-27689.280,-24840.010,0.000
-27093.040,-27015.300,-37262.620,-38199.050,-26784.590,-27994.890,-27661.040,-24811.990,0.000
-27066.510,-26988.160,-37228.410,-38162.480,-26764.040,-27968.000,-27634.200,-24783.920,0.000
-27039.430,-26961.150,-37194.410,-38125.880,-26744.220,-27942.670,-27608.450,-24755.730,0.000
-27009.400,-26931.920,-37158.390,-38086.840,-26722.270,-27916.470,-27580.430,-24725.040,0.000
-26977.700,-26901.070,-37120.790,-38045.870,-26698.200,-27888.850,-27549.980,-24693.150,0.000
-26947.680,-26871.670,-37083.890,-38005.440,-26674.410,-27861.960,-27519.620,-24663.820,0.000
-26919.810,-26844.940,-37048.210,-37966.510,-26652.250,-27838.090,-27491.150,-24638.420,0.000
-26893.230,-26820.400,-37013.740,-37929.360,-26632.120,-27817.150,-27464.850,-24616.080,0.000
-26865.460,-26794.850,-36978.610,-37892.390,-26611.780,-27795.300,-27438.220,-24593.840,0.000
-26834.240,-26765.070,-36940.510,-37853.640,-26588.470,-27769.320,-27408.820,-24569.290,0.000
-26801.990,-26733.120,-36901.530,-37814.390,-26563.810,-27740.640,-27378.310,-24543.930,0.000
-26771.600,-26702.260,-36864.320,-37776.090,-26540.320,-27711.770,-27348.890,-24519.580,0.000
-26741.270,-26671.140,-36826.960,-37736.960,-26516.710,-27681.720,-27318.970,-24494.920,0.000
-26709.140,-26638.420,-36787.550,-37695.590,-26491.350,-27649.910,-27286.790,-24468.110,0.000
-26676.960,-26606.220,-36747.750,-37653.470,-26465.310,-27618.440,-27253.620,-24439.570,0.000
-26647.590,-26576.910,-36710.070,-37613.260,-26440.790,-27589.010,-27221.710,-24411.360,0.000
-26621.960,-26550.460,-36675.410,-37576.130,-26419.100,-27562.700,-27192.690,-24384.760,0.000
-26597.380,-26524.150,-36641.870,-37540.350,-26398.650,-27538.890,-27165.600,-24358.500,0.000
-26571.230,-26495.800,-36607.430,-37503.950,-26376.750,-27514.100,-27137.270,-24331.290,0.000
-26543.360,-26465.910,-36571.840,-37466.420,-26353.120,-27486.870,-27107.090,-24303.980,0.000
-26513.330,-26434.870,-36534.360,-37426.730,-26327.850,-27457.750,-27075.630,-24276.100,0.000
-26481.470,-26403.030,-36494.930,-37384.660,-26301.010,-27426.540,-27042.590,-24246.400,0.000
-26449.910,-26371.990,-36455.400,-37342.050,-26273.990,-27394.690,-27009.120,-24215.810,0.000
-26419.820,-26342.410,-36416.730,-37300.120,-26247.770,-27364.360,-26976.550,-24185.320,0.000
-26390.560,-26313.190,-36378.430,-37259.040,-26222.290,-27334.880,-26944.830,-24154.830,0.000
-26361.180,-26283.290,-36340.180,-37219.150,-26197.240,-27304.130,-26913.000,-24124.250,0.000
-26332.250,-26253.540,-36302.950,-37181.510,-26173.430,-27273.230,-26881.780,-24094.900,0.000
-26304.090,-26224.300,-36266.720,-37145.530,-26151.040,-27243.970,-26852.240,-24067.590,0.000
-26275.450,-26194.650,-36229.840,-37108.480,-26128.600,-27215.160,-26822.900,-24040.680,0.000
-26246.310,-26165.230,-36192.390,-37069.590,-26105.890,-27186.540,-26792.890,-24013.370,0.000
-26216.920,-26136.420,-36154.850,-37029.230,-26082.500,-27157.510,-26761.540,-23985.070,0.000
-26186.260,-26106.460,-36115.950,-36986.700,-26056.560,-27126.390,-26727.750,-23954.490,0.000
-26155.590,-26075.990,-36076.840,-36943.870,-26029.510,-27094.950,-26694.040,-23923.750,0.000
-26127.300,-26047.290,-36040.140,-36903.960,-26004.370,-27065.500,-26662.980,-23895.640,0.000
-26100.720,-26019.980,-36005.460,-36866.920,-25981.240,-27038.150,-26634.080,-23869.380,0.000
-26073.740,-25992.080,-35970.460,-36830.630,-25958.670,-27011.940,-26606.500,-23843.250,0.000
-26044.060,-25960.710,-35932.400,-36792.160,-25933.900,-26982.490,-26576.960,-23814.960,0.000
-26010.650,-25925.010,-35890.270,-36749.570,-25905.380,-26947.050,-26542.620,-23783.400,0.000
-25977.030,-25889.990,-35847.760,-36705.540,-25876.640,-26910.990,-26507.300,-23752.210,0.000
-25947.030,-25860.480,-35808.600,-36663.750,-25851.700,-26880.730,-26476.000,-23724.950,0.000
-25919.310,-25834.580,-35771.510,-36623.590,-25829.220,-26854.920,-26447.340,-23699.690,0.000
-25890.210,-25807.340,-35733.290,-36582.220,-25805.130,-26827.530,-26416.890,-23672.660,0.000
-25858.690,-25777.230,-35693.320,-36539.560,-25778.590,-26797.140,-26384.260,-23643.450,0.000
-25826.420,-25746.030,-35653.200,-36497.890,-25751.870,-26766.940,-26352.260,-23614.200,0.000
-25793.770,-25713.970,-35613.050,-36456.930,-25725.220,-26736.920,-26320.490,-23584.720,0.000
-25759.880,-25680.090,-35571.800,-36414.630,-25697.770,-26705.260,-26287.180,-23553.970,0.000
-25726.220,-25646.490,-35530.630,-36371.850,-25671.150,-26673.510,-26254.370,-23524.250,0.000
-25695.040,-25616.050,-35491.430,-36330.290,-25646.770,-26643.290,-26223.900,-23497.470,0.000
-25665.210,-25587.520,-35453.100,-36288.680,-25622.630,-26613.000,-26193.410,-23470.870,0.000
-25634.660,-25558.410,-35413.930,-36246.050,-25597.280,-26582.750,-26161.940,-23442.160,0.000
-25603.660,-25528.360,-35374.150,-36204.140,-25571.980,-26554.750,-26131.320,-23412.950,0.000
-25572.410,-25496.880,-35333.820,-36163.540,-25546.740,-26527.100,-26100.700,-23384.140,0.000
-25540.270,-25463.540,-35292.660,-36122.980,-25520.450,-26496.660,-26068.200,-23354.840,0.000
-25506.790,-25428.530,-35250.390,-36080.980,-25492.560,-26462.990,-26033.700,-23324.140,0.000
-25473.430,-25393.810,-35208.090,-36037.750,-25464.430,-26428.130,-25998.950,-23293.130,0.000
-25442.900,-25362.950,-35168.390,-35995.760,-25439.120,-26396.350,-25966.940,-23264.750,0.000
-25413.840,-25335.380,-35130.510,-35954.660,-25416.140,-26368.590,-25937.260,-23238.300,0.000
-25382.410,-25306.640,-35090.790,-35911.630,-25391.510,-26340.690,-25906.270,-23209.850,0.000
-25347.610,-25274.580,-35048.140,-35866.250,-25363.730,-26310.730,-25872.990,-23178.370,0.000
-25311.910,-25240.880,-35005.090,-35821.170,-25335.090,-26280.180,-25839.520,-23146.490,0.000
-25278.470,-25208.460,-34964.660,-35778.930,-25308.410,-26250.550,-25807.630,-23116.840,0.000
-25248.000,-25178.030,-34927.020,-35739.380,-25284.140,-26221.690,-25777.270,-23089.680,0.000
-25218.490,-25147.650,-34889.660,-35700.120,-25260.250,-26191.250,-25746.470,-23063.040,0.000
-25187.900,-25115.930,-34850.430,-35658.910,-25235.040,-26158.790,-25714.090,-23034.930,0.000
-25155.770,-25083.430,-34809.090,-35615.140,-25208.360,-26126.340,-25680.990,-23005.100,0.000
-25123.090,-25051.270,-34766.520,-35569.590,-25180.570,-26094.550,-25647.700,-22974.320,0.000
-25091.810,-25020.980,-34724.610,-35524.560,-25152.850,-26064.070,-25615.090,-22943.820,0.000
-25063.030,-24992.990,-34684.880,-35482.100,-25126.460,-26035.270,-25583.930,-22914.530,0.000
-25034.600,-24964.270,-34645.620,-35440.750,-25100.150,-26005.990,-25552.660,-22885.460,0.000
-25004.020,-24932.290,-34604.550,-35398.320,-25072.130,-25974.190,-25519.630,-22855.310,0.000
-24971.250,-24897.780,-34561.690,-35354.500,-25042.530,-25940.610,-25485.450,-22824.400,0.000
-24936.450,-24861.370,-34516.840,-35308.550,-25011.440,-25906.160,-25450.490,-22792.820,0.000
-24900.400,-24823.980,-34470.300,-35260.390,-24979.490,-25871.250,-25414.790,-22760.510,0.000
-24865.780,-24788.740,-34425.100,-35212.570,-24949.240,-25837.710,-25379.970,-22729.040,0.000
-24833.950,-24757.000,-34383.360,-35167.430,-24921.860,-25806.040,-25346.840,-22699.320,0.000
-24803.320,-24726.700,-34343.680,-35124.450,-24895.500,-25774.390,-25314.140,-22670.140,0.000
-24770.860,-24694.740,-34302.760,-35081.090,-24867.740,-25740.650,-25280.210,-22639.690,0.000
-24734.820,-24659.140,-34258.560,-35035.820,-24837.940,-25704.610,-25244.850,-22607.460,0.000
-24697.550,-24621.880,-34213.110,-34990.280,-24808.050,-25668.960,-25209.730,-22575.290,0.000
-24662.550,-24586.240,-34169.240,-34946.250,-24779.720,-25635.540,-25176.030,-22544.750,0.000
-24629.230,-24551.680,-34126.080,-34902.580,-24751.660,-25602.780,-25142.720,-22514.810,0.000
-24595.950,-24517.280,-34082.570,-34858.270,-24723.250,-25570.290,-25109.420,-22484.480,0.000
-24563.500,-24484.770,-34039.990,-34814.250,-24695.580,-25539.500,-25076.990,-22454.310,0.000
-24530.690,-24452.350,-33996.620,-34769.150,-24666.200,-25506.740,-25042.330,-22422.360,0.000
-24496.100,-24417.350,-33950.620,-34722.110,-24633.270,-25469.020,-25003.530,-22387.220,0.000
-24461.950,-24382.450,-33905.310,-34676.480,-24600.940,-25432.370,-24965.560,-22352.520,0.000
-24428.820,-24349.470,-33862.480,-34633.080,-24571.670,-25401.190,-24931.480,-22320.510,0.000
-24396.480,-24317.760,-33821.080,-34590.230,-24544.680,-25372.860,-24899.930,-22290.580,0.000
-24366.280,-24287.410,-33780.880,-34547.770,-24519.460,-25344.490,-24869.560,-22262.510,0.000
-24336.970,-24256.890,-33740.500,-34504.570,-24493.990,-25313.760,-24838.100,-22234.970,0.000
-24304.920,-24223.430,-33697.300,-34457.910,-24465.110,-25278.940,-24802.950,-22204.670,0.000
-24269.300,-24187.340,-33651.250,-34407.760,-24432.760,-25242.520,-24765.270,-22170.500,0.000
-24234.030,-24152.790,-33606.200,-34358.680,-24401.330,-25209.630,-24730.240,-22136.600,0.000
-24201.290,-24121.240,-33563.810,-34313.410,-24372.950,-25179.860,-24698.530,-22105.430,0.000
-24168.960,-24090.110,-33521.790,-34269.880,-24345.450,-25148.980,-24666.510,-22075.010,0.000
-24136.030,-24058.310,-33479.180,-34226.690,-24317.900,-25116.870,-24633.870,-22045.140,0.000
-24102.960,-24025.700,-33436.240,-34183.230,-24289.690,-25083.850,-24600.510,-22016.140,0.000
-24069.540,-23991.780,-33392.800,-34138.530,-24259.670,-25048.740,-24565.460,-21986.920,0.000
-24035.220,-23956.430,-33348.510,-34092.300,-24227.670,-25012.280,-24529.210,-21956.240,0.000
-23999.040,-23919.290,-33302.110,-34043.900,-24193.320,-24975.020,-24491.600,-21922.730,0.000
-23960.870,-23880.530,-33252.960,-33992.850,-24156.800,-24936.130,-24451.890,-21885.750,0.000
-23923.810,-23843.120,-33204.340,-33942.130,-24121.360,-24897.480,-24412.020,-21847.350,0.000
-23890.710,-23809.710,-33159.940,-33895.570,-24090.210,-24861.720,-24375.120,-21810.580,0.000
-23860.230,-23779.260,-33119.140,-33852.890,-24063.190,-24830.050,-24342.830,-21776.730,0.000
-23829.780,-23749.350,-33079.080,-33811.310,-24038.320,-24802.220,-24314.560,-21745.510,0.000
-23797.160,-23717.070,-33036.710,-33767.660,-24012.240,-24773.040,-24285.490,-21714.560,0.000
-23762.540,-23681.920,-32991.640,-33721.050,-23983.580,-24739.160,-24252.480,-21682.440,0.000
-23728.960,-23647.590,-32947.070,-33674.130,-23955.140,-24704.930,-24218.510,-21651.170,0.000
-23698.120,-23616.650,-32905.210,-33629.530,-23929.020,-24674.180,-24186.360,-21622.450,0.000
-23668.160,-23586.880,-32864.540,-33586.850,-23903.420,-24643.760,-24154.300,-21594.930,0.000
-23637.320,-23555.550,-32823.110,-33544.600,-23876.490,-24611.220,-24121.220,-21567.040,0.000
-23605.500,-23522.530,-32780.490,-33501.770,-23848.310,-24578.700,-24088.070,-21538.270,0.000
-23571.330,-23487.140,-32735.200,-33456.380,-23817.650,-24545.430,-24053.170,-21507.460,0.000
-23534.320,-23449.580,-32686.930,-33407.790,-23784.480,-24510.070,-24015.580,-21475.090,0.000
-23497.470,-23412.660,-32638.780,-33358.520,-23751.810,-24473.930,-23977.370,-21443.300,0.000
-23463.070,-23378.530,-32593.070,-33310.640,-23721.520,-24438.960,-23940.710,-21412.730,0.000
-23430.550,-23347.140,-32549.490,-33264.560,-23693.450,-24407.400,-23907.050,-21383.200,0.000
-23398.690,-23316.980,-32506.700,-33219.790,-23666.210,-24378.280,-23874.750,-21354.010,0.000
-23366.990,-23286.810,-32463.920,-33175.230,-23638.430,-24349.540,-23841.830,-21324.020,0.000
-23336.030,-23256.730,-32421.510,-33130.550,-23610.330,-24321.170,-23809.290,-21293.700,0.000
-23305.420,-23225.640,-32378.990,-33085.790,-23581.610,-24290.220,-23775.990,-21263.220,0.000
-23273.270,-23191.550,-32334.840,-33040.150,-23551.100,-24253.210,-23739.370,-21231.260,0.000
-23238.020,-23153.860,-32288.090,-32992.190,-23518.090,-24211.770,-23699.630,-21196.970,0.000
-23199.630,-23113.440,-32238.990,-32941.260,-23482.800,-24169.600,-23658.660,-21160.660,0.000
-23160.940,-23073.550,-32190.190,-32889.500,-23447.410,-24129.540,-23618.520,-21123.970,0.000
-23125.370,-23037.570,-32144.590,-32840.160,-23414.560,-24093.910,-23580.930,-21089.150,0.000
-23093.270,-23004.910,-32102.070,-32794.240,-23384.380,-24062.060,-23546.430,-21057.260,0.000
-23062.910,-22972.750,-32060.590,-32750.500,-23355.210,-24029.790,-23513.290,-21027.620,0.000
-23032.360,-22939.480,-32018.430,-32707.120,-23326.020,-23995.330,-23479.610,-20998.670,0.000
-22999.980,-22905.040,-31974.700,-32662.620,-23296.720,-23960.380,-23445.110,-20969.190,0.000
-22965.620,-22870.450,-31930.020,-32616.740,-23267.580,-23926.080,-23410.220,-20938.710,0.000
-22931.320,-22837.800,-31886.440,-32570.860,-23239.640,-23893.690,-23376.530,-20908.130,0.000
-22898.640,-22807.990,-31844.700,-32525.840,-23213.040,-23863.120,-23344.070,-20877.810,0.000
-22866.460,-22778.840,-31802.940,-32480.490,-23186.030,-23832.510,-23311.020,-20846.430,0.000
-22832.930,-22747.590,-31759.140,-32433.700,-23157.010,-23800.740,-23276.920,-20813.330,0.000
-22796.290,-22711.830,-31711.540,-32384.410,-23124.190,-23764.870,-23240.250,-20777.940,0.000
-22757.240,-22672.340,-31660.810,-32333.310,-23088.220,-23724.870,-23201.140,-20741.260,0.000
-22719.250,-22633.130,-31610.670,-32283.360,-23052.930,-23685.050,-23162.870,-20706.740,0.000
-22683.210,-22595.650,-31562.580,-32235.030,-23019.660,-23646.950,-23126.200,-20675.130,0.000
-22647.860,-22559.510,-31515.890,-32187.260,-22987.810,-23610.500,-23090.370,-20644.950,0.000
-22612.970,-22524.610,-31470.180,-32140.350,-22957.060,-23575.770,-23055.440,-20615.770,0.000
-22578.880,-22490.820,-31425.200,-32094.640,-22926.970,-23542.060,-23021.420,-20587.180,0.000
-22544.580,-22457.080,-31380.070,-32048.700,-22896.390,-23508.270,-22987.110,-20557.530,0.000
-22508.510,-22421.790,-31333.420,-32000.580,-22863.890,-23472.720,-22950.660,-20525.130,0.000
-22471.800,-22385.820,-31286.110,-31951.180,-22830.670,-23435.660,-22913.080,-20490.990,0.000
-22436.460,-22350.790,-31240.020,-31902.740,-22799.040,-23398.900,-22876.590,-20457.620,0.000
-22401.380,-22315.390,-31194.080,-31854.740,-22768.150,-23362.000,-22840.530,-20424.970,0.000
-22365.460,-22279.240,-31147.460,-31806.730,-22737.550,-23326.440,-22805.290,-20392.630,0.000
-22329.830,-22244.610,-31101.830,-31760.050,-22708.850,-23295.000,-22772.620,-20361.530,0.000
-22295.120,-22211.830,-31057.740,-31714.660,-22681.410,-23265.000,-22740.620,-20331.320,0.000
-22261.490,-22180.180,-31014.870,-31670.020,-22653.710,-23233.920,-22707.400,-20301.680,0.000
-22228.040,-22148.470,-30971.770,-31624.800,-22624.460,-23202.110,-22672.940,-20271.570,0.000
-22192.730,-22114.160,-30925.820,-31577.030,-22591.910,-23168.080,-22636.110,-20238.730,0.000
-22156.240,-22077.090,-30877.660,-31528.080,-22557.390,-23131.620,-22597.950,-20204.480,0.000
-22121.140,-22040.180,-30830.420,-31480.790,-22524.550,-23095.480,-22562.270,-20172.550,0.000
-22087.360,-22004.750,-30784.540,-31434.640,-22494.070,-23061.130,-22529.340,-20142.940,0.000
-22052.090,-21968.970,-30737.670,-31386.660,-22463.230,-23026.180,-22494.720,-20112.050,0.000
-22014.590,-21932.060,-30689.480,-31336.640,-22430.870,-22988.480,-22456.700,-20078.960,0.000
-21977.840,-21896.460,-30642.650,-31287.850,-22399.450,-22951.160,-22419.340,-20046.850,0.000
-21943.430,-21863.070,-30598.060,-31241.420,-22370.220,-22917.740,-22385.410,-20016.850,0.000
-21909.900,-21830.050,-30554.010,-31195.480,-22341.410,-22886.930,-22352.790,-19986.490,0.000
-21874.820,-21794.890,-30508.270,-31147.880,-22310.460,-22854.380,-22317.880,-19953.520,0.000
-21837.320,-21756.740,-30460.120,-31098.010,-22276.730,-22817.300,-22279.680,-19918.440,0.000
-21799.930,-21718.890,-30412.040,-31048.180,-22243.270,-22779.050,-22241.710,-19884.540,0.000
-21764.360,-21684.230,-30365.920,-31000.090,-22212.700,-22744.380,-22207.170,-19853.710,0.000
-21729.680,-21651.840,-30320.860,-30952.860,-22183.870,-22712.390,-22174.840,-19824.670,0.000
-21695.440,-21620.500,-30276.090,-30905.760,-22155.020,-22681.100,-22142.860,-19795.870,0.000
-21661.880,-21589.600,-30231.440,-30858.600,-22125.400,-22650.270,-22110.450,-19766.210,0.000
-21627.600,-21556.750,-30185.320,-30810.270,-22093.400,-22617.400,-22075.730,-19734.320,0.000
-21590.800,-21519.490,-30136.150,-30759.530,-22057.540,-22579.630,-22036.900,-19699.380,0.000
-21553.120,-21479.710,-30085.840,-30707.870,-22020.020,-22538.910,-21995.480,-19662.990,0.000
-21517.930,-21441.590,-30037.960,-30658.280,-21985.320,-22499.610,-21955.590,-19628.260,0.000
-21486.370,-21407.550,-29993.980,-30612.050,-21955.840,-22465.520,-21920.250,-19596.840,0.000
-21456.600,-21377.050,-29952.330,-30567.570,-21930.040,-22437.040,-21888.510,-19567.390,0.000
-21424.190,-21345.850,-29908.740,-30520.710,-21902.680,-22407.410,-21855.350,-19536.130,0.000
-21388.170,-21311.830,-29861.990,-30470.690,-21871.800,-22373.220,-21819.730,-19502.840,0.000
-21353.150,-21277.870,-29815.880,-30422.030,-21841.130,-22339.050,-21785.950,-19471.630,0.000
-21320.620,-21244.730,-29771.570,-30376.100,-21811.780,-22305.940,-21753.980,-19442.530,0.000
-21288.730,-21211.050,-29727.510,-30330.760,-21782.070,-22271.520,-21720.840,-19412.470,0.000
-21256.990,-21176.790,-29683.240,-30285.120,-21751.630,-22236.110,-21685.930,-19380.500,0.000
-21225.390,-21142.480,-29638.600,-30238.930,-21720.720,-22201.660,-21650.120,-19347.310,0.000
-21193.330,-21108.490,-29593.310,-30191.550,-21689.470,-22168.660,-21614.220,-19313.840,0.000
-21158.340,-21072.740,-29545.460,-30141.280,-21655.950,-22133.620,-21576.630,-19279.080,0.000
-21118.960,-21033.260,-29493.970,-30087.830,-21618.420,-22093.650,-21535.710,-19242.130,0.000
-21078.350,-20992.710,-29441.910,-30034.420,-21579.450,-22050.890,-21493.460,-19205.320,0.000
-21040.310,-20954.620,-29392.460,-29984.160,-21542.940,-22008.990,-21452.660,-19171.290,0.000
-21004.800,-20919.210,-29345.440,-29936.600,-21510.150,-21971.190,-21415.300,-19140.430,0.000
-20970.210,-20885.480,-29299.740,-29889.830,-21480.580,-21938.720,-21382.290,-19111.650,0.000
-20936.000,-20852.660,-29254.920,-29842.920,-21452.780,-21908.780,-21351.760,-19083.470,0.000
-20901.090,-20819.180,-29209.610,-29794.680,-21424.030,-21877.170,-21319.590,-19053.710,0.000
-20864.460,-20784.490,-29162.660,-29744.400,-21393.010,-21842.770,-21284.040,-19021.140,0.000
-20827.020,-20750.160,-29115.020,-29693.360,-21361.190,-21808.320,-21247.790,-18987.320,0.000
-20790.040,-20716.700,-29067.680,-29643.200,-21329.340,-21774.450,-21212.090,-18953.810,0.000
-20753.430,-20682.530,-29020.180,-29594.200,-21296.510,-21738.600,-21175.130,-18920.710,0.000
-20717.330,-20647.480,-28972.770,-29546.360,-21263.090,-21701.320,-21137.270,-18888.470,0.000
-20681.820,-20611.890,-28925.640,-29499.210,-21229.720,-21664.080,-21099.600,-18856.740,0.000
-20645.680,-20574.470,-28877.430,-29450.930,-21195.220,-21625.820,-21061.110,-18823.800,0.000
-20609.010,-20535.810,-28828.070,-29400.960,-21159.590,-21586.670,-21021.880,-18789.520,0.000
-20573.020,-20498.300,-28778.960,-29350.410,-21124.370,-21548.390,-20983.190,-18754.770,0.000
-20537.480,-20462.610,-28730.370,-29299.800,-21090.220,-21512.420,-20945.750,-18719.600,0.000
-20501.980,-20428.000,-28682.210,-29249.350,-21056.900,-21477.910,-20909.590,-18684.520,0.000
-20467.830,-20394.590,-28635.590,-29200.520,-21024.860,-21442.970,-20874.570,-18650.960,0.000
-20436.170,-20362.990,-28591.510,-29154.430,-20995.050,-21409.000,-20841.570,-18619.990,0.000
-20406.010,-20332.100,-28549.050,-29110.040,-20966.830,-21376.740,-20810.110,-18590.960,0.000
-20374.000,-20298.090,-28504.680,-29064.210,-20936.670,-21341.710,-20775.960,-18560.630,0.000
-20338.350,-20259.880,-28456.530,-29015.340,-20903.230,-21303.440,-20738.180,-18527.470,0.000
-20301.570,-20221.350,-28407.360,-28965.530,-20869.510,-21266.210,-20700.060,-18493.490,0.000
-20265.340,-20184.640,-28359.050,-28915.910,-20836.400,-21229.850,-20662.150,-18459.740,0.000
-20230.260,-20150.150,-28311.830,-28866.840,-20803.690,-21194.360,-20625.280,-18427.080,0.000
-20197.510,-20118.600,-28266.380,-28819.390,-20772.360,-21162.180,-20591.420,-18396.520,0.000
-20165.380,-20087.430,-28221.120,-28772.050,-20740.930,-21131.190,-20558.380,-18366.130,0.000
-20130.790,-20052.740,-28173.490,-28722.400,-20706.570,-21095.740,-20521.810,-18333.440,0.000
-20093.730,-20014.600,-28123.650,-28670.810,-20669.880,-21055.180,-20481.450,-18298.970,0.000
-20055.310,-19975.200,-28072.890,-28618.150,-20633.330,-21013.870,-20440.680,-18264.090,0.000
-20016.920,-19936.430,-28022.840,-28565.770,-20598.790,-20974.830,-20402.200,-18229.890,0.000
-19980.710,-19900.060,-27975.440,-28515.690,-20566.910,-20938.170,-20366.310,-18197.570,0.000
-19946.520,-19865.750,-27930.060,-28467.620,-20536.190,-20902.470,-20331.630,-18166.910,0.000
-19912.420,-19831.740,-27884.450,-28419.980,-20504.800,-20866.960,-20296.960,-18136.500,0.000
-19877.790,-19797.340,-27837.810,-28372.130,-20472.100,-20831.430,-20261.830,-18105.430,0.000
-19843.230,-19763.110,-27790.770,-28324.060,-20438.620,-20795.820,-20226.600,-18074.150,0.000
-19808.330,-19728.530,-27743.240,-28275.180,-20404.500,-20760.000,-20190.980,-18042.260,0.000
-19772.310,-19692.740,-27694.780,-28224.770,-20369.600,-20724.070,-20154.440,-18008.380,0.000
-19736.120,-19656.340,-27646.220,-28173.840,-20334.960,-20688.510,-20117.620,-17973.020,0.000
-19701.340,-19620.180,-27598.780,-28124.430,-20301.630,-20652.750,-20080.840,-17938.030,0.000
-19667.440,-19584.630,-27552.300,-28076.680,-20269.490,-20616.860,-20044.200,-17903.900,0.000
-19631.970,-19549.060,-27504.920,-28028.300,-20237.050,-20581.170,-20007.310,-17869.400,0.000
-19595.290,-19513.880,-27456.860,-27979.130,-20204.080,-20545.710,-19970.210,-17835.110,0.000
-19559.280,-19479.520,-27409.540,-27930.430,-20171.170,-20509.240,-19932.770,-17802.380,0.000
-19523.280,-19443.830,-27361.760,-27881.420,-20137.430,-20469.730,-19893.990,-17770.640,0.000
-19487.620,-19407.110,-27313.880,-27832.540,-20104.370,-20431.110,-19857.100,-17741.000,0.000
-19452.860,-19371.030,-27266.980,-27784.240,-20073.390,-20396.750,-19824.530,-17713.580,0.000
-19417.440,-19334.760,-27219.770,-27734.920,-20042.510,-20362.970,-19792.530,-17685.070,0.000
-19381.250,-19297.820,-27171.510,-27684.250,-20010.430,-20327.400,-19758.260,-17653.380,0.000
-19345.070,-19260.450,-27122.440,-27632.880,-19976.820,-20290.470,-19721.490,-17618.490,0.000
-19310.740,-19224.760,-27074.620,-27583.120,-19943.180,-20254.160,-19684.060,-17583.370,0.000
-19279.470,-19192.190,-27029.800,-27536.970,-19911.130,-20219.570,-19647.950,-17550.750,0.000
-19248.410,-19159.730,-26985.710,-27491.840,-19878.680,-20184.800,-19611.900,-17518.690,0.000
-19214.880,-19125.150,-26939.970,-27444.580,-19844.280,-20148.960,-19574.880,-17485.250,0.000
-19178.730,-19088.760,-26892.100,-27394.680,-19808.580,-20111.940,-19537.150,-17450.620,0.000
-19141.220,-19051.490,-26842.880,-27343.330,-19772.840,-20073.870,-19499.010,-17415.550,0.000
-19105.470,-19016.370,-26795.430,-27293.620,-19739.900,-20037.170,-19462.350,-17382.560,0.000
-19073.970,-18986.580,-26752.420,-27248.020,-19712.010,-20005.600,-19429.800,-17353.700,0.000
-19046.330,-18961.740,-26713.150,-27206.200,-19688.160,-19979.660,-19401.380,-17327.860,0.000
-19020.030,-18937.960,-26674.760,-27165.890,-19665.120,-19954.480,-19373.930,-17302.400,0.000
-18991.300,-18910.520,-26633.810,-27123.450,-19639.100,-19924.950,-19343.590,-17274.220,0.000
-18959.370,-18878.720,-26589.630,-27077.970,-19609.410,-19891.200,-19309.940,-17243.450,0.000
-18925.790,-18844.550,-26543.530,-27030.810,-19577.850,-19855.510,-19274.920,-17212.610,0.000
-18888.360,-18806.530,-26493.550,-26980.130,-19543.170,-19816.920,-19237.610,-17180.240,0.000
-18845.650,-18763.980,-26438.750,-26925.180,-19504.470,-19774.940,-19197.260,-17144.720,0.000
-18801.900,-18721.030,-26383.220,-26869.780,-19465.310,-19733.270,-19156.970,-17108.550,0.000
-18760.070,-18680.190,-26329.460,-26816.090,-19427.880,-19693.950,-19118.230,-17073.100,0.000
-18719.550,-18640.820,-26276.740,-26763.450,-19391.160,-19655.480,-19079.420,-17037.700,0.000
-18681.560,-18604.030,-26226.240,-26712.870,-19355.680,-19618.460,-19041.080,-17003.320,0.000
-18647.590,-18570.770,-26179.260,-26664.990,-19322.320,-19584.330,-19004.540,-16970.440,0.000
-18616.170,-18539.290,-26134.560,-26618.260,-19290.440,-19551.580,-18969.530,-16938.180,0.000
-18584.850,-18507.330,-26090.210,-26571.640,-19259.140,-19518.290,-18935.980,-16906.510,0.000
-18552.410,-18473.790,-26045.330,-26525.180,-19227.950,-19483.650,-18903.220,-16875.830,0.000
-18519.900,-18439.840,-26001.040,-26480.000,-19197.810,-19448.730,-18870.840,-16846.880,0.000
-18488.230,-18407.230,-25958.150,-26436.150,-19169.130,-19415.380,-18839.050,-16819.370,0.000
-18454.900,-18373.900,-25913.670,-26389.670,-19138.380,-19381.210,-18804.790,-16789.460,0.000
-18417.860,-18336.970,-25864.690,-26337.410,-19102.360,-19342.280,-18765.280,-16754.300,0.000
-18381.030,-18299.520,-25814.870,-26283.220,-19065.060,-19301.810,-18724.680,-16717.530,0.000
-18348.270,-18265.620,-25768.750,-26232.110,-19031.740,-19266.020,-18688.460,-16683.620,0.000
-18318.280,-18234.550,-25725.720,-26184.470,-19002.180,-19235.360,-18656.560,-16653.010,0.000
-18290.270,-18205.620,-25685.010,-26140.320,-18975.300,-19207.730,-18627.130,-16625.300,0.000
-18264.490,-18179.130,-25646.780,-26099.650,-18950.950,-19181.990,-18599.450,-16599.880,0.000
-18237.600,-18151.990,-25607.630,-26059.070,-18925.960,-19154.820,-18570.900,-16574.240,0.000
-18204.670,-18119.400,-25562.680,-26013.700,-18895.310,-19121.120,-18537.140,-16544.640,0.000
-18165.650,-18081.490,-25511.870,-25962.720,-18858.750,-19081.180,-18498.010,-16510.270,0.000
-18126.170,-18043.870,-25460.520,-25910.960,-18822.080,-19041.700,-18459.090,-16475.990,0.000
-18090.560,-18010.730,-25413.000,-25863.000,-18790.410,-19008.260,-18425.520,-16446.920,0.000
-18058.710,-17981.200,-25369.430,-25819.040,-18763.850,-18980.460,-18397.570,-16422.810,0.000
-18028.780,-17952.570,-25327.690,-25776.400,-18739.290,-18953.540,-18371.360,-16399.330,0.000
-17998.230,-17922.520,-25284.980,-25731.830,-18713.050,-18923.210,-18342.030,-16372.210,0.000
-17965.960,-17890.410,-25240.440,-25685.220,-18684.130,-18890.050,-18308.910,-16341.570,0.000
-17932.350,-17856.930,-25194.790,-25638.190,-18653.460,-18856.870,-18274.780,-16309.840,0.000
-17895.700,-17820.540,-25146.080,-25588.840,-18619.140,-18821.520,-18238.180,-16275.780,0.000
-17856.810,-17782.400,-25094.760,-25537.100,-18581.820,-18783.600,-18198.930,-16240.230,0.000
-17821.080,-17748.240,-25046.680,-25488.100,-18547.940,-18749.340,-18163.730,-16209.830,0.000
-17788.080,-17716.970,-25001.790,-25441.260,-18517.540,-18717.840,-18132.160,-16183.840,0.000
-17753.190,-17682.760,-24955.060,-25391.590,-18484.730,-18682.100,-18096.880,-16154.300,0.000
-17717.400,-17646.300,-24907.110,-25340.680,-18449.850,-18642.950,-18058.750,-16120.960,0.000
-17682.830,-17610.500,-24860.390,-25292.220,-18416.220,-18605.450,-18022.850,-16088.480,0.000
-17648.730,-17575.200,-24814.270,-25245.610,-18383.880,-18570.430,-17989.080,-16057.200,0.000
-17615.100,-17540.430,-24768.110,-25199.350,-18352.030,-18535.570,-17955.050,-16025.820,0.000
-17581.670,-17505.820,-24721.030,-25152.230,-18319.330,-18498.210,-17918.330,-15992.960,0.000
-17547.680,-17470.710,-24672.600,-25103.440,-18285.090,-18459.320,-17879.400,-15958.160,0.000
-17515.620,-17437.980,-24626.260,-25055.630,-18252.800,-18425.020,-17843.880,-15925.330,0.000
-17486.390,-17408.440,-24583.360,-25010.290,-18223.830,-18396.340,-17813.630,-15896.580,0.000
-17457.170,-17378.330,-24540.780,-24965.540,-18194.730,-18366.800,-17783.850,-15868.770,0.000
-17426.590,-17345.760,-24496.660,-24920.530,-18163.480,-18333.230,-17751.430,-15839.770,0.000
-17394.190,-17310.640,-24450.370,-24874.540,-18130.070,-18296.550,-17716.400,-15809.510,0.000
-17360.030,-17273.760,-24402.130,-24826.850,-18095.170,-18257.480,-17679.060,-15777.770,0.000
-17324.930,-17237.020,-24353.330,-24777.750,-18060.170,-18217.820,-17640.330,-15744.420,0.000
-17289.820,-17202.040,-24305.170,-24728.130,-18026.360,-18180.470,-17602.770,-15710.610,0.000
-17255.350,-17169.210,-24258.190,-24678.610,-17994.300,-18146.980,-17568.350,-15678.030,0.000
-17221.910,-17138.210,-24212.660,-24629.770,-17963.840,-18116.550,-17536.400,-15647.370,0.000
-17188.960,-17107.350,-24167.780,-24581.850,-17933.330,-18085.350,-17503.530,-15617.350,0.000
-17154.710,-17073.930,-24121.480,-24533.860,-17900.590,-18050.260,-17467.470,-15586.330,0.000
-17119.690,-17038.480,-24074.100,-24486.110,-17866.640,-18013.750,-17430.700,-15554.940,0.000
-17085.520,-17003.530,-24027.480,-24439.620,-17833.900,-17978.920,-17395.810,-15524.010,0.000
-17051.240,-16969.190,-23981.190,-24393.310,-17802.040,-17945.220,-17361.910,-15492.660,0.000
-17015.710,-16934.880,-23934.380,-24346.240,-17769.880,-17911.260,-17327.250,-15460.420,0.000
-16979.640,-16901.410,-23887.760,-24298.810,-17737.740,-17876.950,-17292.050,-15428.590,0.000
-16943.280,-16868.910,-23841.490,-24250.850,-17706.190,-17844.010,-17258.220,-15398.360,0.000
-16906.470,-16836.400,-23794.870,-24201.950,-17674.770,-17813.420,-17226.280,-15369.190,0.000
-16869.040,-16801.810,-23746.610,-24151.410,-17641.210,-17779.910,-17191.970,-15337.950,0.000
-16830.300,-16763.670,-23695.600,-24098.620,-17604.090,-17739.990,-17152.650,-15302.430,0.000
-16791.340,-16724.080,-23643.590,-24045.920,-17566.180,-17698.790,-17112.530,-15265.880,0.000
-16754.210,-16685.990,-23593.250,-23996.020,-17530.400,-17659.640,-17074.800,-15232.020,0.000
-16720.140,-16651.020,-23546.120,-23949.470,-17497.440,-17622.410,-17039.000,-15201.300,0.000
-16689.610,-16620.120,-23503.080,-23905.910,-17467.730,-17588.570,-17005.380,-15173.230,0.000
