EEG 1, EEG 2, EEG 3, EEG 4, EEG 5, EEG 6, EEG 7, EEG 8, ACC X, ACC Y, ACC Z, GYR X, GYR Y, GYR Z, BAT, CNT, VALID, DT, TRIG
136578.600,136578.600,22165.930,117061.100,136578.600,136578.600,136578.600,136578.600,-0.173,0.902,-0.308,0.000,0.000,0.000,73.333,1.000,1.000,0.000,0.000
469382.100,469382.100,88787.590,384044.900,420303.000,453935.300,469382.100,469382.100,-0.170,0.921,-0.320,0.000,0.000,0.000,73.333,2.000,1.000,13.092,0.000
692096.800,731059.300,191701.100,579479.200,451432.200,609860.700,731059.300,714769.700,-0.172,0.927,-0.323,0.000,0.000,0.000,73.333,3.000,1.000,11.806,0.000
655984.700,801568.300,347341.800,655379.600,129939.500,469499.600,801568.300,735092.400,-0.173,0.931,-0.324,0.000,0.000,0.000,73.333,4.000,1.000,0.013,0.000
571056.100,801170.700,521173.600,727190.900,-185702.300,315375.400,814894.100,704133.500,-0.173,0.934,-0.330,-2.899,5.157,-1.617,73.333,5.000,1.000,1.893,0.000
505532.700,696563.900,608727.900,766511.300,-437019.900,283231.300,797996.100,701606.400,-0.172,0.935,-0.332,-3.143,3.967,-0.488,73.333,6.000,1.000,2.563,0.000
396793.100,433785.300,629019.800,738385.100,-718267.400,311702.300,731418.800,684122.800,-0.168,0.935,-0.336,-2.380,1.526,0.183,73.333,7.000,1.000,2.463,0.000
399056.900,274219.300,671168.200,720472.800,-672646.300,402276.400,695083.400,683568.100,-0.167,0.938,-0.337,-1.984,0.244,0.427,73.333,8.000,1.000,6.269,0.000
595548.800,423370.900,718806.300,743382.800,-77555.200,575026.900,725707.700,734613.700,-0.167,0.939,-0.338,-1.892,-0.519,0.366,73.333,9.000,1.000,4.341,0.000
777925.600,665857.800,735612.200,770353.600,573841.600,757684.800,775234.200,794211.000,-0.164,0.937,-0.340,-2.075,-1.129,0.122,73.333,10.000,1.000,0.016,0.000
810054.000,772470.900,747760.100,764227.800,838244.100,812214.800,781121.700,791788.300,-0.160,0.935,-0.339,-2.228,-1.709,-0.122,73.333,11.000,1.000,15.676,0.000
752515.800,774446.200,761693.300,722984.100,838667.200,729167.700,727119.200,719909.200,-0.160,0.933,-0.340,-2.594,-2.106,-0.214,73.333,12.000,1.000,3.051,0.000
709987.200,763044.700,757836.100,708564.300,807940.600,680780.800,693304.600,680178.200,-0.158,0.930,-0.342,-2.655,-2.472,-0.427,73.333,13.000,1.000,0.015,0.000
713894.900,735762.400,734721.900,729734.800,763871.300,730076.100,705515.600,711969.400,-0.154,0.927,-0.342,-2.899,-2.716,-0.610,73.333,14.000,1.000,1.862,0.000
744623.900,710876.300,716916.100,751637.700,700891.600,764560.000,701203.800,736647.700,-0.155,0.928,-0.345,-2.960,-3.082,-0.946,73.333,15.000,1.000,2.572,0.000
745903.100,694182.600,726567.400,746207.800,648024.200,687140.500,624794.500,665784.400,-0.155,0.928,-0.345,-3.143,-3.204,-1.190,73.333,16.000,1.000,4.997,0.000
672669.600,644686.900,743473.100,713513.400,598856.400,525933.900,490465.800,515628.000,-0.152,0.928,-0.345,-3.204,-3.387,-1.343,73.333,17.000,1.000,2.404,0.000
568940.900,566637.300,742257.300,701630.000,541057.400,409759.700,381885.600,397667.700,-0.152,0.926,-0.346,-3.418,-3.387,-1.648,73.333,18.000,1.000,3.743,0.000
484149.700,464361.100,723151.400,717024.400,440039.200,376560.500,330433.200,351193.800,-0.150,0.924,-0.347,-3.540,-3.601,-1.862,73.333,19.000,1.000,6.887,0.000
428112.300,369274.200,707956.800,732971.600,330984.900,358820.600,309492.700,334682.300,-0.148,0.923,-0.343,-3.510,-3.418,-1.923,73.333,20.000,1.000,0.023,0.000
377478.200,315863.700,714558.200,728423.800,284698.500,313202.600,281338.900,300300.600,-0.147,0.921,-0.344,-3.662,-3.296,-2.075,73.333,21.000,1.000,1.885,0.000
323375.700,300619.400,727144.100,703626.100,292908.200,243530.400,229944.800,238717.600,-0.146,0.920,-0.345,-3.662,-3.143,-2.167,73.333,22.000,1.000,13.715,0.000
293218.200,301976.800,725848.500,694082.300,306631.900,209212.500,194377.200,200818.100,-0.146,0.918,-0.344,-3.723,-3.052,-1.984,73.333,23.000,1.000,3.078,0.000
287957.600,281248.300,710796.400,704439.600,275819.000,225891.500,192855.600,206137.200,-0.146,0.919,-0.346,-3.754,-2.716,-1.953,73.333,24.000,1.000,0.014,0.000
293328.900,251242.800,698603.100,715211.500,227707.100,245364.400,207795.600,225951.700,-0.147,0.921,-0.344,-3.754,-2.197,-1.740,73.333,25.000,1.000,1.947,0.000
290020.100,241740.200,702696.200,711391.000,220986.700,238537.100,212203.000,226883.800,-0.149,0.924,-0.342,-3.754,-1.770,-1.556,73.333,26.000,1.000,3.764,0.000
270760.700,249965.600,711399.000,693313.600,246545.900,204966.800,190581.400,198624.100,-0.150,0.924,-0.348,-3.784,-1.434,-1.434,73.333,27.000,1.000,3.643,0.000
254801.400,257637.700,709944.200,685785.300,263072.800,184863.400,169050.000,175697.000,-0.153,0.926,-0.345,-3.784,-1.007,-1.343,73.333,28.000,1.000,14.339,0.000
248760.700,241034.800,698395.400,691931.600,237865.000,194333.700,165759.600,177227.500,-0.156,0.925,-0.345,-3.784,-0.671,-1.221,73.333,29.000,1.000,0.014,0.000
249881.500,216460.400,688824.800,698373.100,199321.900,205691.200,174315.400,189092.100,-0.155,0.927,-0.348,-3.662,-0.275,-1.099,73.333,30.000,1.000,4.443,0.000
247365.900,208849.900,690813.600,695133.400,194368.600,201382.300,177757.300,190130.700,-0.155,0.928,-0.348,-3.540,0.122,-0.916,73.333,31.000,1.000,5.080,0.000
235571.700,216297.000,696202.300,682593.300,215332.200,180092.400,164272.600,172180.500,-0.156,0.928,-0.345,-3.448,0.458,-0.763,73.333,32.000,1.000,2.449,0.000
225173.200,222903.000,694581.600,676747.600,228281.300,166489.400,149559.600,156552.100,-0.156,0.927,-0.347,-3.357,0.946,-0.610,73.333,33.000,1.000,2.515,0.000
219569.300,210595.800,685970.100,679489.900,208875.000,170892.100,145740.500,155864.500,-0.156,0.927,-0.340,-3.296,1.282,-0.305,73.333,34.000,1.000,2.488,0.000
218404.800,191822.900,678614.600,682421.600,179766.700,176600.300,150031.500,162195.000,-0.157,0.925,-0.339,-3.204,1.831,-0.122,73.333,35.000,1.000,4.364,0.000
216252.500,185654.500,678893.300,679628.200,176073.700,174035.400,152425.200,163046.500,-0.156,0.924,-0.339,-3.174,2.319,0.122,73.333,36.000,1.000,0.019,0.000
209629.900,191530.800,681543.600,671504.100,192133.200,161918.200,144855.900,152750.800,-0.154,0.925,-0.338,-3.052,2.777,0.336,73.333,37.000,1.000,8.151,0.000
203122.800,196511.300,679760.900,665400.200,201406.800,153127.300,135276.100,142624.600,-0.152,0.926,-0.341,-3.113,3.113,0.671,73.333,38.000,1.000,2.988,0.000
197734.100,187489.500,673535.300,659776.500,186755.700,153419.200,130991.700,140105.800,-0.151,0.928,-0.339,-2.960,3.632,0.885,73.333,39.000,1.000,0.013,0.000
194711.000,173473.800,667994.400,650892.400,165526.900,154590.100,131823.200,141964.200,-0.151,0.927,-0.341,-3.052,4.242,1.251,73.333,40.000,1.000,8.157,0.000
192628.100,168365.100,666932.200,638559.200,162659.900,153120.800,133123.700,142395.700,-0.154,0.925,-0.339,-2.991,4.578,1.617,73.333,41.000,1.000,2.559,0.000
189699.000,172557.100,667393.900,624179.300,174192.800,147834.800,129879.700,137780.500,-0.157,0.924,-0.341,-3.082,5.066,1.862,73.333,42.000,1.000,2.484,0.000
186010.300,175890.500,665460.100,611776.100,180181.000,142671.500,124209.900,131847.100,-0.158,0.923,-0.344,-2.930,5.402,2.014,73.333,43.000,1.000,13.804,0.000
180824.700,169434.600,660349.300,602215.900,169442.600,139876.900,119653.100,128000.100,-0.157,0.921,-0.345,-2.838,5.585,2.197,73.333,44.000,1.000,9.228,0.000
176426.800,159278.700,653002.600,593674.100,154670.400,137611.300,117836.000,126440.200,-0.157,0.921,-0.346,-2.777,6.073,2.258,73.333,45.000,1.000,0.022,0.000
174291.000,154994.300,644741.700,584844.800,152371.000,136816.700,118139.200,126386.400,-0.159,0.925,-0.344,-2.686,6.317,2.289,73.333,46.000,1.000,1.877,0.000
173916.400,157625.700,635930.900,575698.400,159979.900,136474.500,117970.500,125865.100,-0.157,0.929,-0.346,-2.655,6.561,2.411,73.333,47.000,1.000,2.552,0.000
172232.300,159482.100,626218.200,566337.600,163215.600,134031.000,115236.300,123077.100,-0.157,0.932,-0.347,-2.625,6.714,2.441,73.333,48.000,1.000,2.451,0.000
167319.700,155033.200,616064.700,557260.300,155669.500,129136.100,110632.400,118402.000,-0.158,0.934,-0.348,-2.655,6.805,2.411,73.333,49.000,1.000,5.011,0.000
162039.600,147988.000,606689.300,548926.000,146080.800,124474.200,106939.900,114403.900,-0.157,0.933,-0.346,-2.777,6.836,2.380,73.333,50.000,1.000,2.516,0.000
159831.500,144385.000,598375.400,541916.800,144182.500,124079.800,106412.300,113879.000,-0.159,0.929,-0.346,-2.991,6.836,2.289,73.333,51.000,1.000,2.501,0.000
161140.500,145661.000,590652.200,536252.700,148523.800,127126.700,108304.400,116129.400,-0.162,0.921,-0.346,-3.174,6.592,2.319,73.333,52.000,1.000,2.504,0.000
160843.000,146262.100,583025.000,529153.900,149538.400,126634.700,107681.400,115582.800,-0.165,0.915,-0.345,-3.052,6.470,2.167,73.333,53.000,1.000,8.754,0.000
156278.300,143343.300,575652.300,520579.300,144516.400,120449.100,103216.200,110484.300,-0.167,0.911,-0.343,-2.991,6.317,1.831,73.333,54.000,1.000,3.097,0.000
150542.300,138745.000,568543.400,512486.600,138961.200,114262.300,98331.310,104900.300,-0.170,0.906,-0.341,-3.052,5.890,1.740,73.333,55.000,1.000,0.011,0.000
148276.500,135708.900,561037.200,506782.000,137349.800,114067.500,97170.570,103988.100,-0.173,0.904,-0.346,-2.838,5.402,1.312,73.333,56.000,1.000,5.587,0.000
150556.500,135843.400,553692.400,503524.800,139063.700,119225.300,100314.300,107975.900,-0.174,0.911,-0.350,-2.625,5.005,0.916,73.333,57.000,1.000,2.523,0.000
151101.700,135400.700,547244.700,498060.300,138344.000,120019.900,101105.500,108942.100,-0.171,0.922,-0.349,-2.411,4.303,0.671,73.333,58.000,1.000,2.464,0.000
146901.600,133604.000,541829.000,489988.000,135254.800,113164.500,96893.240,103744.100,-0.171,0.929,-0.348,-2.350,3.632,0.366,73.333,59.000,1.000,6.317,0.000
141051.900,130877.000,536419.500,482201.500,132741.800,106143.700,91354.090,97269.410,-0.174,0.933,-0.345,-2.533,2.930,0.031,73.333,60.000,1.000,9.338,0.000
138796.300,128339.100,529617.200,477446.700,131367.200,106019.500,89745.910,96067.200,-0.177,0.933,-0.343,-2.869,2.258,-0.305,73.333,61.000,1.000,0.015,0.000
141590.200,127622.700,522666.500,475813.600,131111.600,112335.900,93559.170,101016.700,-0.179,0.936,-0.345,-2.960,1.617,-0.519,73.333,62.000,1.000,2.463,0.000
142669.900,126431.100,517137.900,471574.400,129174.400,113957.500,95276.620,102964.900,-0.179,0.941,-0.344,-3.418,0.916,-0.793,73.333,63.000,1.000,0.015,0.000
138920.600,125470.600,513147.400,464081.600,127564.700,106963.800,91444.630,97949.290,-0.176,0.944,-0.351,-3.754,-0.031,-0.977,73.333,64.000,1.000,11.824,0.000
133238.900,124130.100,508983.200,456702.500,127262.300,99668.140,85693.090,91145.520,-0.173,0.948,-0.348,-3.967,-0.793,-1.129,73.333,65.000,1.000,2.554,0.000
131026.900,121999.400,502796.800,452640.300,126069.800,99523.180,83795.790,89745.560,-0.168,0.951,-0.348,-4.395,-1.465,-1.251,73.333,66.000,1.000,2.514,0.000
133951.600,120648.900,496254.500,452018.100,124391.200,106257.600,87820.980,95059.850,-0.162,0.953,-0.344,-4.761,-2.045,-1.129,73.333,67.000,1.000,2.430,0.000
135276.800,118925.100,491431.800,448659.300,121643.400,108330.400,90052.980,97562.280,-0.157,0.955,-0.347,-5.127,-2.502,-0.946,73.333,68.000,1.000,6.355,0.000
131980.200,118544.100,488430.300,441777.900,121108.000,101583.300,86658.460,92919.010,-0.154,0.955,-0.346,-5.585,-2.838,-0.732,73.333,69.000,1.000,5.509,0.000
126659.900,118208.600,485154.600,434887.700,122334.200,94448.520,81025.830,86209.450,-0.151,0.956,-0.344,-6.134,-3.082,-0.458,73.333,70.000,1.000,0.009,0.000
124543.900,116455.200,479536.000,431345.100,121306.600,94257.130,78988.010,84697.840,-0.149,0.955,-0.345,-6.592,-3.326,-0.092,73.333,71.000,1.000,2.065,0.000
127345.900,114688.700,473434.600,431276.800,118677.000,100887.300,82904.270,89928.640,-0.144,0.952,-0.344,-6.958,-3.265,0.336,73.333,72.000,1.000,8.604,0.000
128711.400,112618.200,469163.900,428522.100,115439.900,103118.900,85326.850,92617.230,-0.141,0.947,-0.347,-7.233,-3.082,0.641,73.333,73.000,1.000,4.372,0.000
125850.200,112597.800,466820.900,422251.000,115617.800,96851.520,82367.100,88407.360,-0.138,0.944,-0.346,-7.324,-2.808,0.885,73.333,74.000,1.000,0.008,0.000
121007.800,112923.900,464158.100,415887.100,117788.200,90151.040,77061.530,82044.800,-0.133,0.940,-0.344,-7.324,-2.594,1.343,73.333,75.000,1.000,11.250,0.000
119019.800,111482.100,459056.100,412724.000,116880.800,89887.300,74983.450,80471.750,-0.128,0.935,-0.340,-7.416,-2.197,1.892,73.333,76.000,1.000,0.010,0.000
121544.000,109477.500,453406.700,412889.400,113674.700,96054.750,78573.090,85318.350,-0.123,0.928,-0.336,-7.233,-1.526,2.472,73.333,77.000,1.000,8.712,0.000
122842.000,107251.800,449583.700,410569.200,110225.800,98257.830,80978.670,87974.380,-0.124,0.922,-0.331,-7.172,-0.488,3.235,73.333,78.000,1.000,0.009,0.000
120419.000,107472.400,447675.700,404935.400,110868.600,92652.260,78476.320,84293.360,-0.131,0.919,-0.329,-7.019,0.305,3.998,73.333,79.000,1.000,8.688,0.000
116114.900,108191.800,445413.400,399130.000,113540.200,86571.090,73652.700,78490.280,-0.140,0.917,-0.331,-6.836,1.068,4.639,73.333,80.000,1.000,0.016,0.000
114254.200,106975.500,440763.700,396244.600,112716.300,86212.250,71613.000,76922.300,-0.149,0.916,-0.330,-6.653,1.587,5.219,73.333,81.000,1.000,2.507,0.000
116391.000,104854.500,435566.400,396422.600,109240.000,91694.780,74751.300,81219.820,-0.159,0.922,-0.327,-6.409,1.953,5.585,73.333,82.000,1.000,0.005,0.000
117505.000,102571.500,432088.500,394379.300,105773.900,93722.130,76979.240,83682.060,-0.169,0.923,-0.328,-6.256,2.289,5.890,73.333,83.000,1.000,10.720,0.000
115446.100,102878.600,430410.600,389331.100,106649.700,88824.980,74883.800,80524.680,-0.179,0.923,-0.326,-6.104,2.319,5.890,73.333,84.000,1.000,13.657,0.000
111703.800,103806.900,428406.200,384084.800,109503.500,83465.620,70624.020,75389.070,-0.184,0.924,-0.321,-5.920,2.228,5.798,73.333,85.000,1.000,0.009,0.000
110012.100,102816.900,424202.100,381430.800,108783.100,83046.180,68710.680,73889.530,-0.187,0.922,-0.323,-5.859,2.075,5.676,73.333,86.000,1.000,0.003,0.000
111741.100,100712.700,419471.800,381492.300,105288.600,87740.520,71355.220,77553.490,-0.185,0.921,-0.326,-5.768,1.892,5.280,73.333,87.000,1.000,8.169,0.000
112648.600,98487.090,416293.300,379640.800,101968.400,89516.990,73327.890,79731.160,-0.182,0.918,-0.326,-5.707,1.678,4.761,73.333,88.000,1.000,0.023,0.000
110944.100,98819.990,414748.300,375171.100,102941.900,85363.850,71621.200,77098.860,-0.180,0.918,-0.328,-5.402,1.343,4.395,73.333,89.000,1.000,6.809,0.000
107767.200,99809.460,412905.600,370484.500,105741.900,80764.690,67961.180,72685.630,-0.174,0.917,-0.328,-5.341,1.068,4.028,73.333,90.000,1.000,2.563,0.000
106239.000,98980.160,409096.900,368011.300,105090.600,80275.820,66199.590,71286.700,-0.170,0.915,-0.332,-5.280,0.793,3.845,73.333,91.000,1.000,2.531,0.000
107541.500,96947.090,404802.200,367864.400,101725.100,84123.260,68316.100,74284.820,-0.160,0.916,-0.332,-5.157,0.702,3.632,73.333,92.000,1.000,24.975,0.000
108210.900,94835.090,401865.600,366125.600,98645.980,85596.660,69977.270,76127.300,-0.155,0.918,-0.334,-4.974,0.702,3.571,73.333,93.000,1.000,3.021,0.000
106804.500,95133.790,400368.500,362181.900,99611.040,82163.300,68619.890,73988.630,-0.148,0.922,-0.339,-4.974,0.793,3.418,73.333,94.000,1.000,0.011,0.000
104154.300,96086.630,398616.500,358017.600,102206.100,78319.060,65554.200,70287.780,-0.142,0.923,-0.340,-4.883,0.916,3.387,73.333,95.000,1.000,9.480,0.000
102790.600,95398.700,395174.900,355684.900,101624.300,77790.830,63967.030,68989.910,-0.140,0.924,-0.340,-4.883,1.068,3.326,73.333,96.000,1.000,3.602,0.000
103703.800,93518.090,391309.900,355290.100,98513.710,80836.130,65582.910,71320.030,-0.136,0.920,-0.339,-4.974,1.190,3.357,73.333,97.000,1.000,0.007,0.000
104151.500,91585.980,388588.700,353614.400,95738.000,82007.000,66913.950,72787.280,-0.133,0.918,-0.342,-4.944,1.343,3.296,73.333,98.000,1.000,0.003,0.000
102996.400,91810.980,387076.900,350129.000,96595.850,79227.210,65829.330,71050.980,-0.131,0.918,-0.343,-4.822,1.648,3.113,73.333,99.000,1.000,2.687,0.000
100814.200,92643.910,385348.300,346425.600,98853.410,76073.300,63295.040,67986.550,-0.132,0.920,-0.340,-4.700,1.923,3.021,73.333,100.000,1.000,2.313,0.000
99597.020,92050.900,382214.800,344197.300,98303.870,75504.550,61881.350,66791.990,-0.129,0.922,-0.343,-4.425,2.411,2.716,73.333,101.000,1.000,2.580,0.000
100141.200,90323.380,378716.300,343533.900,95485.000,77778.130,63025.480,68504.700,-0.133,0.925,-0.342,-4.364,2.686,2.411,73.333,102.000,1.000,5.609,0.000
100359.600,88560.290,376149.500,341876.800,93013.980,78626.230,64012.640,69604.190,-0.135,0.928,-0.340,-4.211,2.960,2.136,73.333,103.000,1.000,0.013,0.000
99405.130,88682.990,374587.100,338799.700,93717.590,76424.100,63152.490,68233.130,-0.136,0.935,-0.340,-4.028,3.143,1.678,73.333,104.000,1.000,6.906,0.000
97640.130,89367.840,372864.800,335532.900,95606.050,73906.430,61117.610,65786.940,-0.137,0.938,-0.338,-4.028,3.479,1.312,73.333,105.000,1.000,2.538,0.000
96563.280,88852.130,370015.400,333411.200,95097.010,73322.160,59887.700,64729.160,-0.138,0.940,-0.333,-4.150,3.723,1.099,73.333,106.000,1.000,4.934,0.000
96797.140,87304.480,366867.900,332507.800,92621.900,74923.840,60629.470,65909.100,-0.139,0.944,-0.336,-4.242,4.120,0.885,73.333,107.000,1.000,2.499,0.000
96832.080,85749.070,364466.800,330870.400,90496.090,75504.680,61331.490,66690.760,-0.140,0.943,-0.329,-4.211,4.364,0.793,73.333,108.000,1.000,9.335,0.000
96050.300,85781.290,362861.500,328150.100,91044.860,73818.480,60676.070,65635.710,-0.143,0.942,-0.326,-4.333,4.547,0.610,73.333,109.000,1.000,1.886,0.000
94637.060,86288.770,361118.300,325250.200,92541.070,71849.740,59073.350,63712.950,-0.146,0.941,-0.328,-4.364,4.730,0.610,73.333,110.000,1.000,5.591,0.000
93683.380,85818.150,358498.200,323205.500,92053.660,71252.280,58007.740,62768.970,-0.147,0.939,-0.327,-4.425,4.913,0.549,73.333,111.000,1.000,0.014,0.000
93653.630,84447.730,355643.400,322078.100,89918.910,72264.810,58401.280,63488.800,-0.150,0.940,-0.325,-4.333,5.005,0.458,73.333,112.000,1.000,1.802,0.000
93513.730,83076.260,353358.300,320438.000,88106.200,72582.690,58831.260,63983.700,-0.153,0.940,-0.324,-4.272,5.127,0.275,73.333,113.000,1.000,2.575,0.000
92859.890,83005.320,351696.800,318024.100,88487.830,71312.990,58330.740,63197.910,-0.156,0.938,-0.323,-4.242,5.096,0.244,73.333,114.000,1.000,7.429,0.000
91750.050,83349.660,349946.600,315463.300,89623.750,69821.360,57116.520,61757.670,-0.157,0.934,-0.325,-4.303,5.157,0.092,73.333,115.000,1.000,2.416,0.000
90910.700,82926.550,347542.300,313504.800,89172.220,69237.010,56225.790,60952.830,-0.162,0.929,-0.325,-4.150,5.035,-0.031,73.333,116.000,1.000,5.049,0.000
90669.350,81732.410,344953.900,312195.300,87375.330,69769.190,56347.580,61299.610,-0.162,0.926,-0.326,-4.028,4.944,-0.305,73.333,117.000,1.000,5.571,0.000
90388.850,80541.040,342780.300,310548.200,85860.350,69871.590,56550.380,61537.270,-0.160,0.925,-0.325,-3.754,4.730,-0.427,73.333,118.000,1.000,0.013,0.000
89831.990,80379.440,341071.200,308376.000,86080.800,68942.190,56161.580,60937.430,-0.162,0.926,-0.328,-3.632,4.425,-0.519,73.333,119.000,1.000,1.947,0.000
88967.150,80567.840,339310.500,306088.800,86878.200,67842.620,55251.560,59858.090,-0.162,0.925,-0.328,-3.540,4.211,-0.549,73.333,120.000,1.000,2.475,0.000
88231.550,80180.520,337091.000,304201.800,86450.980,67280.020,54497.290,59141.250,-0.161,0.925,-0.328,-3.418,3.845,-0.671,73.333,121.000,1.000,3.080,0.000
87833.450,79154.650,334731.400,302743.100,84956.370,67430.330,54390.710,59164.460,-0.159,0.922,-0.330,-3.357,3.571,-0.671,73.333,122.000,1.000,0.006,0.000
87448.050,78135.040,332656.000,301092.800,83699.510,67362.340,54393.910,59177.400,-0.159,0.921,-0.330,-3.021,3.296,-0.671,73.333,123.000,1.000,4.407,0.000
86966.690,77897.550,330910.000,299123.900,83764.980,66706.760,54078.000,58718.270,-0.164,0.918,-0.333,-2.838,2.899,-0.641,73.333,124.000,1.000,2.494,0.000
86289.160,77933.300,329133.100,297060.700,84243.670,65915.740,53404.150,57931.270,-0.166,0.917,-0.333,-2.563,2.502,-0.702,73.333,125.000,1.000,7.532,0.000
85629.740,77549.820,327052.100,295226.800,83811.800,65363.940,52756.640,57296.610,-0.168,0.918,-0.331,-2.441,1.984,-0.671,73.333,126.000,1.000,3.071,0.000
85111.500,76660.660,324877.200,293648.400,82575.230,65205.880,52473.120,57080.730,-0.167,0.918,-0.333,-2.167,1.404,-0.671,73.333,127.000,1.000,0.012,0.000
84646.550,75790.590,322890.900,291999.400,81546.960,64996.390,52329.920,56934.750,-0.166,0.920,-0.332,-2.106,0.610,-0.641,73.333,128.000,1.000,1.898,0.000
84220.260,75494.540,321126.400,290198.700,81487.950,64549.460,52082.150,56600.820,-0.161,0.923,-0.335,-1.801,0.183,-0.458,73.333,129.000,1.000,5.003,0.000
83689.330,75408.020,319349.000,288327.100,81710.540,64006.940,51607.970,56059.360,-0.158,0.930,-0.336,-1.740,-0.336,-0.336,73.333,130.000,1.000,2.430,0.000
83098.170,75034.950,317392.500,286554.400,81293.180,63485.290,51067.060,55511.180,-0.157,0.936,-0.333,-1.709,-0.702,-0.122,73.333,131.000,1.000,8.838,0.000
82499.360,74269.110,315371.700,284898.600,80290.050,63106.020,50662.680,55125.990,-0.157,0.938,-0.335,-1.831,-1.068,0.092,73.333,132.000,1.000,3.008,0.000
81967.980,73514.040,313447.000,283249.300,79447.110,62780.950,50393.770,54848.700,-0.158,0.940,-0.336,-1.984,-1.556,0.214,73.333,133.000,1.000,0.007,0.000
81558.220,73145.150,311646.200,281564.400,79263.540,62465.270,50167.250,54586.040,-0.159,0.942,-0.337,-2.228,-1.953,0.366,73.333,134.000,1.000,1.966,0.000
81117.620,72935.150,309849.000,279833.300,79256.850,62088.070,49825.290,54218.520,-0.161,0.943,-0.336,-2.472,-2.411,0.427,73.333,135.000,1.000,11.212,0.000
80575.780,72558.950,307981.700,278114.100,78842.770,61587.260,49368.190,53744.070,-0.161,0.944,-0.337,-2.899,-2.899,0.519,73.333,136.000,1.000,3.021,0.000
79933.420,71900.850,306087.600,276415.700,78037.910,61055.000,48894.750,53254.020,-0.159,0.944,-0.336,-3.143,-3.326,0.641,73.333,137.000,1.000,0.011,0.000
79373.480,71255.660,304230.500,274781.900,77360.130,60654.710,48552.420,52896.960,-0.155,0.941,-0.335,-3.357,-3.723,0.549,73.333,138.000,1.000,5.702,0.000
78986.950,70847.430,302427.800,273194.200,77092.160,60438.290,48350.050,52690.600,-0.151,0.938,-0.333,-3.540,-3.967,0.336,73.333,139.000,1.000,9.396,0.000
78617.090,70549.910,300640.900,271574.100,76915.890,60186.360,48112.150,52448.790,-0.149,0.937,-0.339,-3.784,-4.242,0.397,73.333,140.000,1.000,0.012,0.000
78114.170,70170.420,298861.700,269901.000,76509.840,59709.950,47721.990,52026.250,-0.146,0.935,-0.338,-3.967,-4.486,0.366,73.333,141.000,1.000,3.736,0.000
77443.370,69599.040,297081.400,268180.600,75863.950,59075.810,47198.150,51455.680,-0.147,0.936,-0.335,-4.059,-4.608,0.275,73.333,142.000,1.000,0.010,0.000
76862.430,69048.340,295296.700,266565.200,75315.770,58624.140,46796.890,51027.560,-0.145,0.934,-0.338,-4.150,-4.761,0.183,73.333,143.000,1.000,13.218,0.000
76490.950,68623.450,293515.400,265056.400,74983.730,58475.390,46604.360,50841.140,-0.145,0.933,-0.339,-4.242,-4.822,0.244,73.333,144.000,1.000,9.808,0.000
76175.720,68271.140,291754.200,263532.700,74679.830,58313.950,46436.480,50675.100,-0.144,0.931,-0.341,-4.333,-4.822,0.336,73.333,145.000,1.000,0.014,0.000
75714.650,67900.240,290048.100,261912.200,74281.810,57869.310,46098.710,50291.190,-0.140,0.930,-0.340,-4.364,-4.791,0.244,73.333,146.000,1.000,0.004,0.000
75049.080,67408.440,288353.500,260195.000,73761.730,57188.030,45555.500,49677.350,-0.137,0.927,-0.340,-4.364,-4.700,0.244,73.333,147.000,1.000,5.706,0.000
74471.160,66931.730,286621.400,258603.000,73309.360,56709.740,45119.010,49206.160,-0.135,0.927,-0.337,-4.364,-4.547,0.305,73.333,148.000,1.000,0.014,0.000
74108.480,66484.370,284852.600,257150.100,72917.410,56587.080,44917.380,49027.760,-0.130,0.925,-0.336,-4.333,-4.333,0.397,73.333,149.000,1.000,1.901,0.000
73816.950,66073.020,283102.500,255689.600,72501.560,56460.750,44776.180,48905.940,-0.125,0.923,-0.337,-4.150,-3.906,0.305,73.333,150.000,1.000,2.448,0.000
73370.270,65685.890,281439.300,254103.200,72091.240,56026.930,44463.200,48549.090,-0.124,0.921,-0.334,-3.815,-3.418,0.397,73.333,151.000,1.000,8.740,0.000
72700.200,65232.080,279797.700,252389.000,71650.630,55312.300,43905.080,47916.020,-0.127,0.921,-0.333,-3.662,-2.808,0.458,73.333,152.000,1.000,6.803,0.000
72111.230,64791.160,278099.100,250808.100,71258.780,54806.950,43439.690,47418.330,-0.130,0.925,-0.330,-3.540,-2.319,0.549,73.333,153.000,1.000,0.011,0.000
71737.220,64323.630,276346.500,249392.700,70828.410,54694.580,43229.350,47240.210,-0.130,0.927,-0.333,-3.296,-1.831,0.610,73.333,154.000,1.000,2.541,0.000
71456.060,63880.890,274623.800,247989.900,70352.790,54604.670,43116.350,47153.170,-0.130,0.928,-0.330,-3.113,-1.404,0.549,73.333,155.000,1.000,0.013,0.000
71033.520,63497.630,273010.000,246451.900,69953.410,54209.730,42841.320,46835.810,-0.131,0.931,-0.331,-3.113,-0.885,0.702,73.333,156.000,1.000,8.176,0.000
70389.540,63091.130,271423.600,244770.300,69586.370,53514.790,42302.120,46220.760,-0.131,0.931,-0.330,-2.960,-0.366,0.732,73.333,157.000,1.000,6.811,0.000
69818.020,62699.320,269772.500,243221.400,69253.660,53020.260,41840.270,45728.200,-0.131,0.934,-0.327,-2.899,0.244,0.732,73.333,158.000,1.000,0.008,0.000
69447.530,62239.580,268055.500,241842.300,68811.090,52913.310,41630.300,45554.810,-0.132,0.934,-0.329,-2.930,0.763,0.793,73.333,159.000,1.000,21.197,0.000
69171.520,61780.210,266362.300,240478.600,68299.550,52827.330,41527.390,45481.220,-0.135,0.934,-0.327,-2.960,1.282,1.007,73.333,160.000,1.000,0.016,0.000
68760.760,61387.270,264778.000,238974.300,67903.280,52439.600,41270.590,45185.160,-0.138,0.935,-0.326,-2.808,1.709,0.824,73.333,161.000,1.000,2.473,0.000
68137.200,60999.820,263223.600,237325.900,67581.670,51751.110,40751.630,44594.820,-0.141,0.937,-0.325,-2.655,2.228,0.824,73.333,162.000,1.000,0.008,0.000
67575.130,60628.990,261606.900,235806.200,67280.670,51249.560,40294.200,44111.240,-0.142,0.940,-0.326,-2.625,2.563,0.793,73.333,163.000,1.000,2.495,0.000
67193.330,60164.940,259924.000,234449.400,66823.920,51117.330,40070.060,43924.400,-0.143,0.943,-0.325,-2.655,2.930,0.732,73.333,164.000,1.000,0.006,0.000
66911.060,59696.180,258272.000,233113.800,66293.800,51021.080,39961.290,43842.110,-0.144,0.944,-0.324,-2.716,3.265,0.702,73.333,165.000,1.000,1.942,0.000
66520.680,59317.720,256739.500,231652.300,65912.840,50663.630,39724.070,43562.400,-0.146,0.944,-0.324,-2.808,3.510,0.702,73.333,166.000,1.000,12.446,0.000
65941.300,58973.890,255240.100,230055.200,65636.580,50030.540,39245.080,43006.970,-0.149,0.941,-0.323,-2.899,3.754,0.549,73.333,167.000,1.000,2.622,0.000
65408.660,58638.810,253669.200,228567.900,65364.440,49559.550,38811.910,42537.950,-0.152,0.937,-0.324,-3.082,3.998,0.549,73.333,168.000,1.000,11.183,0.000
65025.730,58188.710,252018.600,227222.800,64902.360,49413.550,38578.970,42328.310,-0.150,0.934,-0.326,-2.960,4.089,0.427,73.333,169.000,1.000,2.457,0.000
64730.080,57717.570,250388.000,225896.800,64355.010,49297.570,38448.680,42213.980,-0.150,0.935,-0.325,-3.113,4.272,0.366,73.333,170.000,1.000,2.517,0.000
64337.770,57328.200,248866.800,224455.100,63960.780,48947.800,38204.750,41927.740,-0.150,0.933,-0.325,-3.052,4.242,0.336,73.333,171.000,1.000,5.022,0.000
63777.710,56982.520,247378.200,222890.900,63684.340,48346.860,37742.740,41395.470,-0.149,0.935,-0.328,-3.052,4.303,0.214,73.333,172.000,1.000,4.966,0.000
63253.730,56645.940,245828.300,221425.600,63407.840,47883.860,37314.080,40935.110,-0.150,0.937,-0.326,-3.143,4.242,0.183,73.333,173.000,1.000,2.437,0.000
62856.290,56195.370,244210.600,220091.600,62940.100,47706.070,37061.270,40705.130,-0.150,0.939,-0.325,-3.265,4.211,0.153,73.333,174.000,1.000,8.831,0.000
62542.930,55724.380,242617.800,218784.300,62398.530,47564.730,36913.420,40572.640,-0.150,0.940,-0.322,-3.387,4.059,0.092,73.333,175.000,1.000,7.541,0.000
62158.050,55338.680,241130.800,217382.000,62018.650,47234.640,36680.220,40302.410,-0.153,0.940,-0.325,-3.571,3.845,0.000,73.333,176.000,1.000,5.484,0.000
61636.720,55009.500,239676.300,215874.800,61764.140,46693.210,36260.220,39820.380,-0.156,0.941,-0.327,-3.845,3.479,-0.031,73.333,177.000,1.000,0.013,0.000
61143.480,54688.550,238164.300,214449.000,61502.390,46267.970,35862.930,39392.610,-0.157,0.942,-0.327,-3.998,3.174,-0.244,73.333,178.000,1.000,4.496,0.000
60752.250,54256.590,236586.700,213133.500,61052.900,46082.370,35612.230,39156.410,-0.158,0.941,-0.328,-4.120,2.960,-0.275,73.333,179.000,1.000,5.035,0.000
60430.330,53799.500,235025.200,211841.500,60531.640,45927.230,35453.550,39006.700,-0.159,0.941,-0.326,-4.364,2.472,-0.427,73.333,180.000,1.000,7.428,0.000
60041.850,53413.730,233550.500,210464.200,60153.230,45607.240,35221.790,38742.090,-0.162,0.939,-0.326,-4.395,1.862,-0.549,73.333,181.000,1.000,2.532,0.000
59533.250,53078.850,232101.800,208992.300,59888.730,45096.400,34825.160,38294.260,-0.163,0.937,-0.328,-4.547,1.434,-0.671,73.333,182.000,1.000,2.464,0.000
59045.480,52746.640,230605.700,207588.100,59615.720,44672.110,34439.150,37887.810,-0.164,0.935,-0.325,-4.791,0.702,-0.793,73.333,183.000,1.000,4.946,0.000
58642.120,52313.050,229059.300,206280.000,59173.510,44441.740,34173.660,37644.140,-0.163,0.935,-0.326,-4.852,0.031,-0.977,73.333,184.000,1.000,2.530,0.000
58302.110,51858.090,227534.200,204996.600,58669.560,44239.950,33990.560,37479.590,-0.164,0.934,-0.327,-5.035,-0.519,-1.038,73.333,185.000,1.000,2.494,0.000
57920.440,51472.740,226090.500,203649.400,58298.800,43913.950,33756.070,37225.210,-0.165,0.936,-0.330,-5.127,-1.190,-1.129,73.333,186.000,1.000,3.066,0.000
57452.910,51145.830,224674.000,202230.700,58039.750,43440.570,33393.730,36820.700,-0.164,0.937,-0.329,-5.157,-1.892,-1.282,73.333,187.000,1.000,0.009,0.000
56999.610,50823.880,223216.400,200863.800,57770.660,43037.240,33036.560,36441.300,-0.162,0.934,-0.324,-5.310,-2.350,-1.556,73.333,188.000,1.000,1.937,0.000
56605.340,50409.820,221710.100,199569.800,57346.050,42788.750,32767.800,36182.050,-0.160,0.929,-0.325,-5.402,-2.899,-1.648,73.333,189.000,1.000,2.527,0.000
56256.410,49971.440,220213.100,198294.000,56862.200,42566.430,32562.430,35981.440,-0.155,0.925,-0.326,-5.493,-3.387,-1.617,73.333,190.000,1.000,2.455,0.000
55869.660,49591.130,218778.400,196964.000,56488.540,42248.820,32318.840,35710.060,-0.151,0.918,-0.327,-5.402,-3.784,-1.709,73.333,191.000,1.000,8.762,0.000
55416.950,49269.660,217371.600,195578.800,56216.090,41820.520,31980.350,35324.900,-0.149,0.913,-0.326,-5.341,-4.059,-1.770,73.333,192.000,1.000,5.030,0.000
54977.960,48956.460,215940.600,194238.500,55939.450,41453.600,31648.810,34963.210,-0.145,0.908,-0.330,-5.188,-4.272,-1.709,73.333,193.000,1.000,2.430,0.000
54584.010,48564.460,214473.200,192956.800,55530.710,41207.340,31385.950,34697.290,-0.141,0.906,-0.331,-4.883,-4.272,-1.709,73.333,194.000,1.000,3.037,0.000
54226.520,48147.660,213011.900,191690.400,55069.230,40980.100,31171.770,34477.210,-0.139,0.910,-0.335,-4.456,-4.333,-1.556,73.333,195.000,1.000,0.008,0.000
53841.200,47771.160,211597.100,190378.800,54695.010,40676.070,30922.170,34197.610,-0.135,0.917,-0.338,-3.967,-4.089,-1.434,73.333,196.000,1.000,6.904,0.000
53405.250,47438.450,210200.500,189020.400,54403.940,40278.620,30592.540,33827.510,-0.132,0.924,-0.336,-3.632,-4.028,-1.312,73.333,197.000,1.000,2.554,0.000
52976.690,47109.450,208783.400,187696.600,54107.670,39919.860,30265.420,33475.130,-0.130,0.925,-0.333,-3.296,-3.876,-1.068,73.333,198.000,1.000,2.463,0.000
52581.550,46719.710,207342.200,186426.000,53705.520,39652.020,29993.960,33197.930,-0.131,0.929,-0.329,-3.265,-3.418,-0.854,73.333,199.000,1.000,3.110,0.000
52218.190,46315.270,205911.400,185176.400,53267.150,39406.320,29767.600,32964.400,-0.136,0.930,-0.332,-3.052,-3.021,-0.580,73.333,200.000,1.000,0.055,0.000
51837.340,45945.390,204516.200,183896.400,52903.360,39110.670,29523.140,32696.750,-0.140,0.936,-0.334,-2.960,-2.563,-0.305,73.333,201.000,1.000,1.791,0.000
51420.180,45614.740,203134.400,182582.800,52609.150,38748.830,29224.480,32366.610,-0.143,0.940,-0.329,-2.869,-2.319,0.000,73.333,202.000,1.000,9.423,0.000
51004.140,45286.890,201737.400,181292.100,52308.070,38411.130,28923.480,32046.520,-0.145,0.944,-0.323,-2.777,-2.014,0.183,73.333,203.000,1.000,0.009,0.000
50606.210,44905.500,200319.300,180034.800,51919.750,38132.960,28656.570,31777.870,-0.147,0.949,-0.324,-2.655,-1.709,0.336,73.333,204.000,1.000,1.859,0.000
50232.300,44510.020,198911.100,178793.400,51506.790,37874.340,28426.510,31545.730,-0.146,0.954,-0.328,-2.686,-1.312,0.519,73.333,205.000,1.000,3.690,0.000
49854.220,44146.540,197540.000,177536.600,51160.320,37585.310,28190.340,31295.750,-0.144,0.958,-0.323,-2.838,-0.977,0.824,73.333,206.000,1.000,9.379,0.000
49458.630,43818.160,196185.000,176258.900,50872.080,37245.330,27913.200,30997.330,-0.144,0.967,-0.319,-2.960,-0.641,1.038,73.333,207.000,1.000,0.016,0.000
49062.450,43488.800,194816.800,174991.300,50572.030,36912.050,27623.610,30690.690,-0.146,0.969,-0.318,-3.265,-0.366,1.099,73.333,208.000,1.000,1.938,0.000
48676.710,43120.210,193435.400,173745.400,50200.960,36613.910,27352.280,30410.100,-0.146,0.970,-0.316,-3.601,-0.031,1.099,73.333,209.000,1.000,7.413,0.000
48311.790,42745.060,192068.000,172519.500,49812.900,36333.910,27110.710,30157.500,-0.147,0.968,-0.317,-4.120,0.336,1.190,73.333,210.000,1.000,9.379,0.000
47944.070,42392.120,190725.600,171287.700,49472.480,36040.290,26867.150,29895.460,-0.149,0.962,-0.317,-4.547,0.641,1.282,73.333,211.000,1.000,0.012,0.000
47563.060,42066.900,189391.100,170042.900,49176.040,35718.930,26597.800,29603.140,-0.151,0.958,-0.319,-4.822,0.885,1.343,73.333,212.000,1.000,8.765,0.000
47178.820,41742.670,188049.000,168805.200,48873.200,35403.900,26322.440,29306.990,-0.150,0.955,-0.322,-5.035,1.068,1.129,73.333,213.000,1.000,0.007,0.000
46792.950,41385.070,186694.300,167577.200,48513.990,35104.450,26054.430,29022.220,-0.148,0.950,-0.317,-5.096,1.129,1.007,73.333,214.000,1.000,8.734,0.000
46413.680,41014.320,185339.700,166355.400,48132.630,34810.810,25798.590,28748.680,-0.147,0.944,-0.317,-5.341,1.312,0.977,73.333,215.000,1.000,0.016,0.000
46033.970,40655.590,183996.100,165127.400,47779.550,34510.730,25543.070,28471.090,-0.143,0.937,-0.315,-5.524,1.556,0.732,73.333,216.000,1.000,2.415,0.000
45652.100,40318.980,182660.800,163894.100,47460.330,34197.890,25275.770,28181.130,-0.142,0.930,-0.318,-5.524,1.801,0.641,73.333,217.000,1.000,0.013,0.000
45271.400,39988.200,181330.600,162669.900,47141.220,33891.320,25002.020,27889.560,-0.138,0.924,-0.320,-5.463,2.197,0.641,73.333,218.000,1.000,18.223,0.000
44892.470,39643.460,180003.500,161459.300,46791.300,33600.910,24736.760,27607.200,-0.136,0.919,-0.320,-5.402,2.411,0.824,73.333,219.000,1.000,16.815,0.000
44520.930,39292.370,178681.400,160258.600,46432.060,33321.190,24486.010,27337.630,-0.135,0.918,-0.322,-5.157,2.594,0.854,73.333,220.000,1.000,0.015,0.000
44154.300,38946.770,177367.300,159058.000,46092.040,33039.790,24235.800,27069.990,-0.135,0.914,-0.322,-5.005,2.930,0.824,73.333,221.000,1.000,0.005,0.000
43793.050,38619.050,176062.300,157858.600,45777.040,32756.860,23985.910,26801.130,-0.132,0.911,-0.323,-4.730,3.143,0.854,73.333,222.000,1.000,0.006,0.000
43427.950,38294.480,174760.000,156660.900,45459.370,32476.290,23736.090,26530.080,-0.132,0.910,-0.323,-4.486,3.510,1.038,73.333,223.000,1.000,1.927,0.000
43051.480,37953.660,173451.500,155462.700,45113.320,32190.220,23479.720,26253.670,-0.134,0.907,-0.321,-4.242,3.967,1.068,73.333,224.000,1.000,4.947,0.000
42673.230,37603.930,172140.300,154269.500,44757.890,31905.070,23225.750,25981.740,-0.135,0.909,-0.321,-3.845,4.333,1.160,73.333,225.000,1.000,3.089,0.000
42301.130,37258.550,170835.300,153082.600,44417.820,31627.670,22980.050,25720.990,-0.137,0.908,-0.320,-3.479,4.700,1.251,73.333,226.000,1.000,0.016,0.000
41937.790,36927.190,169539.000,151901.900,44098.940,31354.320,22740.190,25469.050,-0.138,0.911,-0.322,-3.204,4.913,1.312,73.333,227.000,1.000,13.201,0.000
41574.350,36600.410,168251.000,150725.200,43783.770,31074.830,22496.780,25214.980,-0.144,0.917,-0.322,-2.930,4.944,1.221,73.333,228.000,1.000,2.373,0.000
41209.040,36271.160,166971.000,149555.500,43460.240,30785.120,22247.760,24955.190,-0.145,0.922,-0.320,-2.747,5.157,1.251,73.333,229.000,1.000,7.583,0.000
40846.430,35939.830,165696.700,148393.200,43134.220,30497.470,22000.290,24696.460,-0.150,0.926,-0.319,-2.625,5.249,1.282,73.333,230.000,1.000,2.436,0.000
40486.720,35605.240,164422.600,147232.400,42810.600,30216.990,21755.840,24441.520,-0.150,0.932,-0.319,-2.533,5.280,1.190,73.333,231.000,1.000,3.018,0.000
40134.460,35274.720,163152.200,146076.700,42495.890,29940.260,21515.870,24191.320,-0.154,0.937,-0.320,-2.502,5.249,1.038,73.333,232.000,1.000,0.006,0.000
39783.570,34947.660,161891.400,144924.400,42182.370,29655.660,21273.060,23936.330,-0.154,0.939,-0.317,-2.563,5.127,0.977,73.333,233.000,1.000,1.906,0.000
39428.620,34622.740,160639.100,143775.100,41864.800,29359.700,21023.480,23672.020,-0.156,0.942,-0.318,-2.655,4.913,0.977,73.333,234.000,1.000,7.654,0.000
39070.930,34295.760,159389.400,142630.300,41546.550,29066.550,20773.820,23406.790,-0.155,0.943,-0.319,-2.899,4.700,0.702,73.333,235.000,1.000,2.352,0.000
38716.460,33965.950,158136.700,141490.300,41227.800,28785.520,20531.540,23150.430,-0.157,0.942,-0.319,-3.143,4.547,0.641,73.333,236.000,1.000,3.194,0.000
38372.360,33643.120,156885.400,140355.600,40912.130,28515.790,20299.240,22904.530,-0.158,0.942,-0.320,-3.357,4.303,0.397,73.333,237.000,1.000,0.011,0.000
38022.160,33318.500,155636.000,139213.500,40590.370,28235.550,20058.740,22648.000,-0.160,0.943,-0.323,-3.601,4.028,0.122,73.333,238.000,1.000,2.463,0.000
37653.020,32983.170,154382.800,138060.100,40258.810,27932.390,19798.720,22369.420,-0.159,0.942,-0.319,-3.876,3.693,-0.092,73.333,239.000,1.000,0.007,0.000
37281.850,32646.840,153133.400,136911.300,39928.660,27631.460,19535.590,22087.490,-0.160,0.943,-0.320,-4.089,3.326,-0.305,73.333,240.000,1.000,1.949,0.000
36933.380,32326.360,151899.500,135784.100,39610.630,27359.960,19292.850,21826.490,-0.159,0.943,-0.322,-4.242,2.930,-0.519,73.333,241.000,1.000,3.625,0.000
36606.260,32021.790,150681.900,134676.000,39306.060,27115.170,19073.730,21588.450,-0.162,0.945,-0.320,-4.456,2.594,-0.671,73.333,242.000,1.000,14.442,0.000
36274.590,31716.030,149471.500,133564.400,39001.870,26863.800,18853.470,21347.390,-0.159,0.946,-0.321,-4.700,2.167,-0.885,73.333,243.000,1.000,0.016,0.000
35927.210,31406.040,148259.800,132441.800,38694.780,26590.840,18615.740,21086.920,-0.158,0.944,-0.322,-4.822,1.831,-0.946,73.333,244.000,1.000,2.386,0.000
35573.060,31093.290,147044.900,131317.800,38386.180,26316.740,18369.150,20818.140,-0.158,0.944,-0.324,-4.852,1.434,-1.068,73.333,245.000,1.000,0.010,0.000
35225.930,30778.090,145827.500,130203.200,38072.710,26058.740,18130.830,20560.390,-0.159,0.945,-0.325,-4.913,1.068,-1.038,73.333,246.000,1.000,4.512,0.000
34885.380,30459.800,144608.000,129096.500,37753.590,25811.950,17903.240,20315.620,-0.159,0.947,-0.323,-5.005,0.702,-1.007,73.333,247.000,1.000,2.478,0.000
34539.730,30139.530,143392.100,127988.300,37432.480,25555.700,17673.530,20068.680,-0.162,0.950,-0.321,-5.127,0.305,-0.885,73.333,248.000,1.000,2.466,0.000
34188.390,29824.750,142183.900,126879.900,37120.740,25284.840,17438.080,19814.780,-0.164,0.953,-0.321,-5.310,0.031,-0.916,73.333,249.000,1.000,13.790,0.000
33833.090,29507.210,140977.400,125773.700,36813.000,25010.550,17199.220,19559.540,-0.166,0.952,-0.317,-5.554,-0.366,-0.824,73.333,250.000,1.000,3.084,0.000
33485.240,29187.550,139772.100,124678.800,36502.450,24747.010,16968.560,19318.280,-0.166,0.953,-0.320,-5.554,-0.763,-0.916,73.333,251.000,1.000,0.017,0.000
33152.790,28875.430,138576.800,123599.300,36194.210,24497.540,16751.500,19093.980,-0.166,0.952,-0.319,-5.676,-1.190,-0.793,73.333,252.000,1.000,1.822,0.000
32820.090,28564.100,137391.400,122517.900,35885.870,24236.480,16526.450,18859.270,-0.164,0.950,-0.316,-5.554,-1.465,-0.732,73.333,253.000,1.000,2.511,0.000
32479.260,28253.530,136213.400,121430.900,35584.050,23954.460,16285.910,18606.970,-0.159,0.947,-0.315,-5.554,-1.709,-0.641,73.333,254.000,1.000,25.025,0.000
32136.640,27945.910,135041.800,120348.200,35289.540,23672.560,16044.310,18355.000,-0.153,0.941,-0.315,-5.310,-1.923,-0.275,73.333,255.000,1.000,2.413,0.000
31802.840,27640.250,133871.200,119276.000,34991.570,23406.690,15814.060,18115.120,-0.146,0.938,-0.313,-5.127,-1.892,0.000,73.333,256.000,1.000,2.555,0.000
31478.480,27333.020,132699.800,118211.800,34687.220,23151.460,15593.070,17884.370,-0.142,0.933,-0.313,-4.822,-1.801,0.244,73.333,257.000,1.000,4.961,0.000
31152.650,27025.200,131533.200,117146.200,34382.790,22887.670,15369.360,17649.080,-0.140,0.932,-0.313,-4.486,-1.648,0.793,73.333,258.000,1.000,5.016,0.000
30822.530,26726.380,130376.100,116080.000,34090.440,22615.790,15142.150,17406.270,-0.138,0.927,-0.311,-3.967,-1.343,1.129,73.333,259.000,1.000,2.551,0.000
30488.090,26430.030,129223.400,115016.700,33802.630,22346.340,14912.970,17160.780,-0.138,0.925,-0.308,-3.479,-1.129,1.434,73.333,260.000,1.000,2.413,0.000
30156.070,26130.570,128069.700,113960.200,33506.990,22086.420,14686.860,16921.200,-0.138,0.923,-0.309,-3.052,-0.793,1.801,73.333,261.000,1.000,2.472,0.000
29831.170,25829.680,126918.500,112910.100,33205.160,21838.900,14468.960,16690.510,-0.138,0.919,-0.309,-2.563,-0.458,1.984,73.333,262.000,1.000,2.541,0.000
29506.420,25528.140,125773.800,111857.600,32902.710,21588.270,14250.670,16456.530,-0.138,0.918,-0.311,-1.984,-0.031,2.106,73.333,263.000,1.000,5.558,0.000
29180.450,25233.550,124637.100,110805.000,32610.710,21329.130,14027.290,16215.130,-0.137,0.918,-0.310,-1.465,0.275,2.075,73.333,264.000,1.000,0.006,0.000
28852.730,24940.750,123502.900,109755.800,32323.130,21070.650,13799.430,15970.190,-0.137,0.922,-0.307,-1.007,0.580,2.075,73.333,265.000,1.000,1.874,0.000
28525.830,24642.100,122364.000,108711.400,32027.050,20820.750,13572.520,15727.760,-0.138,0.921,-0.312,-0.519,1.007,2.014,73.333,266.000,1.000,2.493,0.000
28203.770,24340.680,121225.300,107673.500,31725.200,20582.920,13353.890,15493.270,-0.137,0.922,-0.309,0.000,1.221,1.923,73.333,267.000,1.000,3.140,0.000
27882.050,24040.960,120093.000,106637.200,31425.350,20342.750,13137.010,15259.700,-0.135,0.925,-0.314,0.244,1.648,1.709,73.333,268.000,1.000,0.008,0.000
27558.070,23747.900,118968.000,105600.800,31136.150,20092.540,12914.370,15020.690,-0.131,0.928,-0.313,0.458,2.045,1.526,73.333,269.000,1.000,1.912,0.000
27232.610,23458.420,117846.100,104567.200,30851.600,19842.130,12687.770,14778.220,-0.130,0.931,-0.314,0.702,2.441,1.373,73.333,270.000,1.000,6.200,0.000
26911.010,23169.230,116724.500,103541.200,30561.660,19601.600,12466.820,14541.810,-0.132,0.935,-0.310,0.946,2.838,1.282,73.333,271.000,1.000,3.160,0.000
26594.930,22879.540,115607.000,102523.400,30267.870,19372.250,12257.810,14318.550,-0.132,0.936,-0.312,0.854,3.143,1.221,73.333,272.000,1.000,0.028,0.000
26276.180,22586.970,114493.000,101505.700,29972.830,19137.970,12051.160,14098.080,-0.134,0.938,-0.311,0.977,3.418,1.007,73.333,273.000,1.000,1.837,0.000
25950.610,22292.590,113378.400,100481.900,29679.670,18887.260,11836.350,13868.550,-0.133,0.940,-0.312,1.007,3.601,0.763,73.333,274.000,1.000,11.290,0.000
25623.230,21997.990,112265.200,99458.110,29388.940,18629.470,11616.410,13634.990,-0.132,0.940,-0.314,1.038,3.815,0.397,73.333,275.000,1.000,6.742,0.000
25301.820,21704.260,111157.200,98446.200,29099.680,18378.700,11401.870,13409.950,-0.134,0.939,-0.315,1.068,4.028,0.153,73.333,276.000,1.000,0.010,0.000
24984.300,21406.750,110053.200,97443.250,28808.500,18132.980,11191.950,13191.410,-0.135,0.938,-0.316,0.946,4.211,-0.122,73.333,277.000,1.000,9.538,0.000
24668.080,21108.500,108955.700,96442.020,28518.890,17882.230,10980.530,12970.690,-0.135,0.937,-0.320,0.916,4.364,-0.336,73.333,278.000,1.000,2.375,0.000
24356.980,20821.850,107870.800,95446.300,28242.520,17630.140,10770.490,12749.290,-0.135,0.939,-0.321,0.793,4.395,-0.641,73.333,279.000,1.000,3.128,0.000
24047.310,20541.930,106792.800,94454.750,27971.590,17379.020,10559.840,12526.770,-0.138,0.941,-0.322,0.763,4.547,-0.793,73.333,280.000,1.000,0.009,0.000
23736.600,20258.750,105712.300,93463.630,27692.680,17127.210,10345.910,12301.800,-0.140,0.939,-0.323,0.641,4.547,-0.977,73.333,281.000,1.000,3.135,0.000
23427.490,19972.860,104631.300,92473.480,27407.390,16876.880,10132.410,12076.920,-0.143,0.941,-0.322,0.610,4.425,-1.190,73.333,282.000,1.000,14.432,0.000
23120.370,19689.630,103555.100,91484.840,27123.740,16625.490,9919.867,11851.510,-0.147,0.941,-0.322,0.610,4.395,-1.404,73.333,283.000,1.000,0.016,0.000
22814.670,19413.270,102487.400,90500.020,26849.130,16374.760,9707.938,11625.360,-0.146,0.941,-0.324,0.519,4.089,-1.465,73.333,284.000,1.000,2.406,0.000
22510.310,19140.400,101426.900,89520.980,26580.210,16129.560,9496.999,11399.850,-0.149,0.938,-0.322,0.305,3.937,-1.648,73.333,285.000,1.000,0.012,0.000
22208.060,18865.030,100367.300,88546.450,26306.930,15889.630,9286.498,11175.130,-0.149,0.936,-0.322,0.153,3.815,-1.740,73.333,286.000,1.000,11.210,0.000
21907.750,18586.050,99306.840,87575.000,26026.430,15653.630,9076.271,10950.560,-0.154,0.937,-0.323,-0.061,3.662,-1.984,73.333,287.000,1.000,0.017,0.000
21611.120,18311.060,98251.820,86609.500,25748.680,15422.800,8870.278,10728.530,-0.156,0.935,-0.322,-0.153,3.235,-1.984,73.333,288.000,1.000,3.738,0.000
21315.610,18043.040,97203.410,85649.020,25480.480,15197.340,8670.401,10508.950,-0.158,0.938,-0.323,-0.275,2.838,-1.984,73.333,289.000,1.000,0.010,0.000
21017.200,17776.380,96157.960,84690.040,25215.950,14974.780,8472.972,10289.040,-0.158,0.938,-0.326,-0.549,2.441,-2.106,73.333,290.000,1.000,13.707,0.000
20719.080,17507.740,95114.450,83734.020,24949.340,14753.980,8276.627,10071.350,-0.159,0.938,-0.327,-0.763,2.075,-2.045,73.333,291.000,1.000,0.011,0.000
20421.370,17234.350,94071.000,82778.950,24677.040,14532.690,8079.697,9855.955,-0.159,0.939,-0.325,-0.854,1.678,-2.045,73.333,292.000,1.000,2.551,0.000
20122.360,16958.750,93027.620,81822.480,24400.580,14306.640,7878.145,9639.366,-0.159,0.942,-0.327,-1.068,1.251,-2.014,73.333,293.000,1.000,0.010,0.000
19819.160,16682.610,91983.050,80864.300,24121.660,14071.290,7667.720,9419.262,-0.161,0.942,-0.326,-1.465,0.854,-1.862,73.333,294.000,1.000,13.706,0.000
19509.560,16402.400,90935.520,79904.880,23838.720,13828.620,7450.993,9197.442,-0.159,0.940,-0.330,-1.617,0.488,-1.831,73.333,295.000,1.000,0.012,0.000
19201.230,16121.550,89890.960,78951.770,23556.820,13589.100,7237.832,8981.435,-0.157,0.938,-0.328,-1.831,0.061,-1.862,73.333,296.000,1.000,2.492,0.000
18899.460,15843.940,88854.200,78008.380,23279.580,13355.660,7031.920,8773.563,-0.152,0.934,-0.322,-2.045,-0.153,-1.587,73.333,297.000,1.000,0.007,0.000
18602.190,15570.100,87824.450,77069.680,23007.100,13124.280,6833.088,8570.043,-0.148,0.931,-0.327,-2.106,-0.244,-1.404,73.333,298.000,1.000,16.003,0.000
18308.430,15300.890,86801.820,76132.750,22741.720,12895.460,6640.873,8367.741,-0.145,0.929,-0.327,-2.167,-0.275,-1.160,73.333,299.000,1.000,5.895,0.000
18017.290,15034.610,85786.110,75198.410,22481.180,12666.310,6449.435,8163.992,-0.144,0.932,-0.330,-2.106,-0.397,-1.007,73.333,300.000,1.000,0.020,0.000
17727.580,14768.900,84775.540,74269.090,22221.100,12433.630,6255.697,7959.684,-0.141,0.935,-0.331,-2.167,-0.519,-0.854,73.333,301.000,1.000,0.008,0.000
17437.680,14502.000,83767.880,73344.230,21960.630,12202.330,6061.936,7756.184,-0.143,0.940,-0.331,-2.258,-0.397,-0.610,73.333,302.000,1.000,2.498,0.000
17146.560,14234.870,82761.160,72420.480,21700.570,11976.130,5869.200,7551.079,-0.146,0.945,-0.335,-2.380,-0.397,-0.397,73.333,303.000,1.000,2.506,0.000
16858.050,13972.830,81757.880,71500.800,21443.920,11753.930,5679.564,7345.377,-0.151,0.949,-0.332,-2.411,-0.275,-0.153,73.333,304.000,1.000,2.527,0.000
16572.300,13714.170,80757.660,70585.990,21188.400,11529.720,5489.723,7138.357,-0.150,0.947,-0.329,-2.594,-0.305,-0.122,73.333,305.000,1.000,2.495,0.000
16284.790,13451.640,79756.660,69671.450,20926.890,11298.720,5291.885,6925.145,-0.149,0.938,-0.328,-3.021,-0.244,-0.122,73.333,306.000,1.000,3.714,0.000
15997.960,13186.590,78759.130,68759.130,20660.960,11065.950,5089.851,6709.176,-0.146,0.929,-0.323,-2.960,-0.122,-0.153,73.333,307.000,1.000,6.291,0.000
15715.960,12925.420,77770.930,67853.090,20399.020,10838.210,4893.566,6498.155,-0.141,0.918,-0.323,-2.808,0.061,-0.092,73.333,308.000,1.000,9.253,0.000
15437.680,12670.210,76792.330,66953.630,20145.180,10617.890,4704.767,6293.411,-0.138,0.916,-0.324,-2.533,0.366,0.092,73.333,309.000,1.000,0.017,0.000
15161.050,12418.440,75819.980,66059.130,19896.080,10403.160,4519.106,6091.114,-0.137,0.918,-0.325,-2.167,0.641,0.122,73.333,310.000,1.000,4.657,0.000
14883.740,12166.500,74848.250,65166.200,19645.810,10190.110,4333.599,5887.709,-0.135,0.925,-0.326,-1.862,0.854,0.244,73.333,311.000,1.000,2.206,0.000
14602.720,11911.620,73872.980,64271.210,19389.950,9974.434,4143.897,5680.134,-0.134,0.930,-0.324,-1.678,1.312,0.458,73.333,312.000,1.000,3.098,0.000
14321.220,11655.250,72897.470,63375.510,19131.060,9756.286,3949.552,5470.385,-0.135,0.938,-0.325,-1.373,1.617,0.610,73.333,313.000,1.000,0.007,0.000
14045.400,11401.770,71927.730,62483.350,18875.340,9541.071,3757.907,5265.423,-0.136,0.942,-0.324,-1.312,2.045,0.824,73.333,314.000,1.000,8.186,0.000
13772.610,11150.880,70962.090,61594.750,18621.900,9329.671,3570.893,5065.545,-0.135,0.944,-0.322,-1.282,2.380,0.824,73.333,315.000,1.000,6.844,0.000
13496.450,10898.330,69995.630,60708.380,18366.590,9118.444,3384.683,4866.822,-0.136,0.943,-0.322,-1.221,2.686,0.824,73.333,316.000,1.000,0.010,0.000
13218.310,10644.940,69030.410,59826.740,18110.950,8906.258,3198.929,4669.957,-0.137,0.938,-0.325,-1.282,2.991,0.763,73.333,317.000,1.000,4.441,0.000
12942.500,10393.720,68070.950,58951.230,17858.680,8693.640,3014.111,4476.032,-0.138,0.934,-0.326,-1.129,3.265,0.671,73.333,318.000,1.000,2.430,0.000
12668.330,10143.250,67116.850,58078.440,17608.230,8479.550,2827.461,4282.774,-0.142,0.931,-0.327,-0.885,3.540,0.549,73.333,319.000,1.000,3.850,0.000
12393.040,9892.416,66165.660,57205.190,17356.340,8262.396,2637.262,4088.825,-0.142,0.930,-0.328,-0.671,3.723,0.519,73.333,320.000,1.000,9.247,0.000
12117.080,9642.546,65218.220,56333.410,17105.960,8045.404,2449.236,3897.246,-0.141,0.934,-0.329,-0.427,3.937,0.305,73.333,321.000,1.000,0.009,0.000
11843.120,9394.173,64276.070,55466.630,16861.180,7833.985,2269.841,3710.358,-0.141,0.938,-0.323,-0.366,4.120,0.183,73.333,322.000,1.000,1.878,0.000
11570.080,9145.160,63335.820,54602.790,16617.570,7625.417,2094.732,3523.257,-0.139,0.945,-0.319,-0.427,4.211,0.092,73.333,323.000,1.000,3.784,0.000
11296.860,8894.824,62395.820,53740.090,16370.940,7415.394,1917.110,3331.510,-0.137,0.948,-0.318,-0.488,4.456,0.000,73.333,324.000,1.000,14.320,0.000
11026.240,8645.971,61458.760,52880.640,16124.000,7204.801,1736.131,3136.242,-0.137,0.949,-0.319,-0.641,4.639,-0.031,73.333,325.000,1.000,0.016,0.000
10759.830,8400.246,60526.360,52025.710,15878.980,6993.878,1553.937,2940.300,-0.139,0.948,-0.318,-0.946,4.791,-0.244,73.333,326.000,1.000,8.128,0.000
10498.100,8158.660,59600.390,51176.180,15637.140,6783.075,1373.567,2746.520,-0.143,0.944,-0.321,-1.190,4.883,-0.336,73.333,327.000,1.000,2.622,0.000
10236.200,7917.262,58675.860,50327.060,15394.420,6568.929,1191.440,2551.161,-0.146,0.941,-0.323,-1.251,4.791,-0.458,73.333,328.000,1.000,2.425,0.000
9967.861,7669.096,57747.160,49474.070,15145.440,6346.940,1003.272,2350.476,-0.151,0.938,-0.323,-1.404,4.761,-0.702,73.333,329.000,1.000,2.701,0.000
9700.514,7421.007,56824.230,48626.990,14898.850,6126.509,818.470,2153.794,-0.151,0.938,-0.323,-1.404,4.669,-0.916,73.333,330.000,1.000,2.224,0.000
9442.646,7183.795,55915.980,47792.990,14663.120,5917.603,645.013,1967.816,-0.152,0.938,-0.321,-1.556,4.486,-1.190,73.333,331.000,1.000,2.630,0.000
9186.488,6950.632,55012.820,46962.160,14429.190,5712.253,473.039,1782.103,-0.152,0.934,-0.321,-1.801,4.028,-1.556,73.333,332.000,1.000,4.240,0.000
8924.428,6711.330,54104.910,46126.260,14188.030,5501.779,293.527,1587.679,-0.153,0.934,-0.324,-1.923,3.754,-1.556,73.333,333.000,1.000,0.010,0.000
8660.237,6468.095,53194.850,45288.660,13942.790,5288.714,110.896,1388.813,-0.153,0.933,-0.321,-2.014,3.418,-1.678,73.333,334.000,1.000,8.119,0.000
8396.739,6225.445,52286.590,44453.110,13698.240,5076.657,-70.191,1190.337,-0.155,0.933,-0.320,-2.075,3.052,-1.648,73.333,335.000,1.000,5.030,0.000
8134.922,5986.058,51383.240,43622.660,13457.970,4869.534,-246.839,995.600,-0.153,0.934,-0.323,-2.228,2.655,-1.770,73.333,336.000,1.000,2.593,0.000
7874.163,5749.671,50484.850,42797.380,13222.020,4667.449,-419.182,806.354,-0.152,0.934,-0.326,-2.380,2.289,-1.770,73.333,337.000,1.000,2.360,0.000
7612.752,5514.314,49588.540,41976.460,12987.740,4468.779,-590.674,621.746,-0.154,0.932,-0.325,-2.380,1.892,-1.709,73.333,338.000,1.000,7.669,0.000
7353.373,5280.525,48694.980,41162.080,12754.140,4274.232,-761.682,441.561,-0.154,0.929,-0.326,-2.563,1.678,-1.587,73.333,339.000,1.000,14.325,0.000
7098.065,5048.437,47805.620,40352.320,12520.620,4080.528,-932.185,263.252,-0.154,0.926,-0.325,-2.533,1.251,-1.495,73.333,340.000,1.000,0.014,0.000
6843.758,4816.636,46919.820,39542.360,12287.610,3885.254,-1103.237,82.490,-0.154,0.926,-0.326,-2.563,0.977,-1.434,73.333,341.000,1.000,1.813,0.000
6589.134,4585.979,46038.080,38733.110,12056.700,3692.065,-1273.000,-99.368,-0.155,0.927,-0.327,-2.716,0.763,-1.343,73.333,342.000,1.000,2.432,0.000
6337.801,4359.787,45163.330,37930.050,11829.930,3505.986,-1436.755,-274.873,-0.153,0.925,-0.329,-2.655,0.305,-1.221,73.333,343.000,1.000,2.569,0.000
6087.529,4134.813,44291.960,37131.090,11604.290,3323.418,-1596.952,-445.590,-0.150,0.928,-0.328,-2.777,-0.031,-1.160,73.333,344.000,1.000,4.982,0.000
5831.592,3902.944,43416.310,36329.110,11373.250,3133.270,-1763.005,-621.146,-0.142,0.926,-0.331,-2.899,-0.244,-1.068,73.333,345.000,1.000,2.433,0.000
5570.022,3663.888,42536.770,35521.940,11135.450,2931.197,-1938.036,-803.362,-0.137,0.925,-0.334,-2.838,-0.336,-0.977,73.333,346.000,1.000,3.165,0.000
5310.899,3426.944,41661.380,34716.510,10897.200,2726.109,-2114.033,-984.722,-0.130,0.921,-0.335,-2.808,-0.366,-0.824,73.333,347.000,1.000,0.010,0.000
5060.268,3198.855,40796.430,33922.680,10666.210,2528.503,-2283.016,-1158.847,-0.124,0.917,-0.336,-2.655,-0.122,-0.641,73.333,348.000,1.000,1.813,0.000
4811.621,2973.333,39936.350,33135.620,10439.380,2334.496,-2450.521,-1332.032,-0.115,0.916,-0.335,-2.380,0.092,-0.305,73.333,349.000,1.000,13.864,0.000
4561.510,2745.943,39076.830,32348.880,10212.170,2140.147,-2619.041,-1509.231,-0.113,0.920,-0.336,-2.106,0.458,-0.214,73.333,350.000,1.000,4.912,0.000
4316.742,2522.133,38224.380,31568.350,9988.905,1951.166,-2780.909,-1683.615,-0.111,0.922,-0.334,-1.923,0.946,-0.092,73.333,351.000,1.000,0.019,0.000
4073.720,2298.116,37375.610,30791.270,9765.656,1760.889,-2941.927,-1857.085,-0.112,0.924,-0.334,-1.770,1.556,-0.061,73.333,352.000,1.000,0.005,0.000
3828.243,2069.356,36524.560,30011.890,9536.880,1562.699,-3108.813,-2035.179,-0.113,0.927,-0.331,-1.709,2.106,-0.061,73.333,353.000,1.000,7.548,0.000
3587.892,1843.987,35678.280,29236.850,9309.998,1367.093,-3273.886,-2212.574,-0.112,0.931,-0.336,-1.740,2.716,-0.214,73.333,354.000,1.000,6.242,0.000
3354.035,1627.025,34840.000,28468.450,9089.979,1180.684,-3433.101,-2385.871,-0.111,0.936,-0.335,-1.709,3.357,-0.305,73.333,355.000,1.000,5.512,0.000
3117.709,1411.962,34002.420,27698.380,8871.013,996.904,-3591.402,-2560.334,-0.107,0.938,-0.338,-1.770,4.059,-0.519,73.333,356.000,1.000,0.009,0.000
2878.822,1197.045,33165.980,26929.220,8653.188,814.209,-3748.101,-2735.152,-0.108,0.945,-0.336,-1.770,4.791,-0.702,73.333,357.000,1.000,5.000,0.000
2642.528,984.453,32335.520,26168.360,8438.677,633.443,-3902.976,-2906.769,-0.118,0.951,-0.335,-1.892,5.585,-0.916,73.333,358.000,1.000,0.008,0.000
2403.165,766.942,31504.670,25408.570,8219.034,444.860,-4065.120,-3081.790,-0.129,0.955,-0.332,-2.258,6.073,-1.251,73.333,359.000,1.000,1.914,0.000
2159.949,544.473,30672.580,24647.720,7995.344,249.264,-4231.371,-3259.243,-0.137,0.959,-0.333,-2.655,6.500,-1.678,73.333,360.000,1.000,16.372,0.000
1921.497,326.681,29848.060,23894.450,7778.421,59.323,-4390.192,-3428.588,-0.140,0.961,-0.336,-3.052,6.714,-2.136,73.333,361.000,1.000,7.351,0.000
1687.139,112.519,29029.440,23146.430,7565.884,-126.305,-4546.467,-3592.703,-0.143,0.959,-0.333,-3.448,6.805,-2.594,73.333,362.000,1.000,0.008,0.000
1450.396,-105.993,28209.110,22396.100,7348.547,-317.813,-4710.211,-3761.069,-0.143,0.956,-0.334,-3.754,7.050,-2.991,73.333,363.000,1.000,0.003,0.000
1215.896,-323.954,27392.910,21648.790,7131.103,-509.923,-4873.021,-3927.748,-0.142,0.952,-0.336,-4.059,7.080,-3.326,73.333,364.000,1.000,2.539,0.000
987.341,-534.819,26586.570,20907.690,6919.944,-691.731,-5026.249,-4087.495,-0.144,0.946,-0.333,-4.303,7.172,-3.815,73.333,365.000,1.000,2.475,0.000
756.730,-744.961,25782.040,20165.190,6708.656,-866.291,-5179.342,-4249.199,-0.146,0.940,-0.331,-4.456,7.263,-4.028,73.333,366.000,1.000,2.561,0.000
520.500,-958.801,24974.740,19420.000,6493.126,-1039.941,-5338.432,-4416.857,-0.149,0.935,-0.332,-4.547,7.416,-4.272,73.333,367.000,1.000,2.474,0.000
282.774,-1172.385,24168.570,18677.190,6277.281,-1212.545,-5497.069,-4585.560,-0.157,0.935,-0.336,-4.608,7.324,-4.333,73.333,368.000,1.000,3.806,0.000
48.442,-1380.886,23367.660,17940.350,6065.880,-1382.431,-5649.453,-4750.476,-0.160,0.935,-0.338,-4.456,7.202,-4.395,73.333,369.000,1.000,8.768,0.000
-181.568,-1585.989,22571.650,17207.700,5858.063,-1552.051,-5797.516,-4911.341,-0.168,0.936,-0.331,-4.303,7.019,-4.425,73.333,370.000,1.000,9.811,0.000
-412.833,-1794.808,21775.250,16472.420,5647.064,-1727.410,-5948.045,-5073.617,-0.174,0.938,-0.335,-4.272,6.531,-4.150,73.333,371.000,1.000,0.014,0.000
-643.680,-2005.053,20980.780,15738.010,5435.841,-1904.603,-6098.704,-5236.109,-0.177,0.936,-0.338,-4.456,5.920,-3.784,73.333,372.000,1.000,0.005,0.000
-864.881,-2207.658,20197.640,15015.940,5234.780,-2072.097,-6240.396,-5390.104,-0.179,0.931,-0.333,-4.578,5.280,-3.387,73.333,373.000,1.000,3.128,0.000
-1079.948,-2405.800,19422.470,14303.480,5038.617,-2233.605,-6377.669,-5538.195,-0.182,0.930,-0.332,-4.517,4.669,-2.991,73.333,374.000,1.000,0.005,0.000
-1300.846,-2610.191,18642.160,13588.670,4832.851,-2404.393,-6524.419,-5692.912,-0.183,0.929,-0.333,-4.425,3.967,-2.686,73.333,375.000,1.000,10.728,0.000
-1529.383,-2822.561,17854.220,12869.130,4615.841,-2588.724,-6684.109,-5859.459,-0.186,0.928,-0.333,-4.272,3.174,-2.319,73.333,376.000,1.000,16.224,0.000
-1757.777,-3034.399,17067.490,12151.130,4397.471,-2776.244,-6846.718,-6030.924,-0.187,0.929,-0.332,-4.089,2.441,-2.045,73.333,377.000,1.000,0.021,0.000
-1982.469,-3240.388,16287.310,11437.750,4183.571,-2958.104,-7003.319,-6199.821,-0.184,0.930,-0.335,-3.967,1.526,-1.587,73.333,378.000,1.000,0.003,0.000
-2206.264,-3444.041,15512.190,10726.800,3972.194,-3135.140,-7154.070,-6364.896,-0.177,0.930,-0.336,-3.845,0.793,-1.190,73.333,379.000,1.000,5.529,0.000
-2430.676,-3648.597,14739.790,10017.070,3760.810,-3310.900,-7303.374,-6527.286,-0.168,0.930,-0.330,-3.906,0.092,-0.732,73.333,380.000,1.000,0.010,0.000
-2654.065,-3852.395,13970.590,9311.677,3550.686,-3485.270,-7452.495,-6687.526,-0.166,0.937,-0.327,-3.784,-0.427,-0.275,73.333,381.000,1.000,1.918,0.000
-2875.748,-4054.381,13205.530,8612.324,3343.523,-3658.287,-7600.858,-6846.057,-0.164,0.941,-0.331,-3.784,-0.916,0.000,73.333,382.000,1.000,2.600,0.000
-3098.853,-4257.660,12441.620,7913.819,3136.935,-3834.782,-7751.076,-7005.597,-0.162,0.948,-0.329,-3.967,-1.434,0.183,73.333,383.000,1.000,5.038,0.000
-3322.847,-4461.917,11678.690,7214.668,2931.054,-4014.591,-7902.147,-7166.078,-0.162,0.948,-0.327,-4.059,-1.862,0.275,73.333,384.000,1.000,4.964,0.000
-3542.749,-4662.979,10921.530,6521.024,2729.940,-4192.377,-8049.826,-7321.870,-0.158,0.951,-0.323,-4.181,-2.167,0.244,73.333,385.000,1.000,2.414,0.000
-3759.107,-4861.358,10169.970,5834.159,2532.360,-4368.889,-8194.681,-7471.169,-0.157,0.948,-0.322,-4.364,-2.441,0.275,73.333,386.000,1.000,3.117,0.000
-3975.728,-5060.029,9419.498,5149.087,2334.088,-4545.867,-8339.455,-7619.444,-0.150,0.947,-0.322,-4.425,-2.655,0.244,73.333,387.000,1.000,0.009,0.000
-4192.951,-5259.136,8669.855,4463.409,2134.988,-4720.897,-8486.004,-7771.111,-0.145,0.942,-0.322,-4.517,-2.563,0.275,73.333,388.000,1.000,1.916,0.000
-4406.698,-5453.851,7927.087,3782.313,1940.214,-4887.818,-8630.246,-7921.732,-0.139,0.937,-0.325,-4.456,-2.472,0.183,73.333,389.000,1.000,16.242,0.000
-4614.698,-5641.079,7193.838,3109.057,1751.950,-5044.030,-8767.100,-8067.675,-0.135,0.936,-0.322,-4.395,-2.289,0.183,73.333,390.000,1.000,2.484,0.000
-4818.573,-5823.188,6466.851,2439.990,1566.715,-5193.774,-8898.781,-8212.209,-0.131,0.934,-0.317,-4.211,-1.923,0.214,73.333,391.000,1.000,2.448,0.000
-5020.978,-6003.556,5743.175,1772.171,1381.990,-5340.848,-9029.406,-8357.396,-0.130,0.932,-0.317,-4.028,-1.617,0.214,73.333,392.000,1.000,2.522,0.000
-5232.844,-6192.630,5012.522,1097.711,1187.903,-5497.155,-9169.838,-8510.974,-0.130,0.929,-0.317,-3.815,-1.129,0.153,73.333,393.000,1.000,2.512,0.000
-5458.729,-6394.615,4270.404,413.787,979.344,-5668.434,-9324.397,-8675.533,-0.128,0.927,-0.317,-3.448,-0.671,0.061,73.333,394.000,1.000,3.695,0.000
-5682.647,-6595.318,3532.563,-265.237,772.460,-5837.417,-9475.263,-8834.709,-0.130,0.923,-0.319,-3.235,-0.153,0.061,73.333,395.000,1.000,4.401,0.000
-5896.802,-6788.828,2805.698,-932.456,575.802,-5997.302,-9613.419,-8980.938,-0.131,0.920,-0.320,-2.869,0.244,-0.153,73.333,396.000,1.000,0.010,0.000
-6108.148,-6980.836,2082.030,-1594.309,382.878,-6157.168,-9747.276,-9122.271,-0.131,0.920,-0.318,-2.472,0.793,-0.214,73.333,397.000,1.000,8.128,0.000
-6317.733,-7171.612,1361.089,-2252.785,192.822,-6316.837,-9878.863,-9262.683,-0.134,0.923,-0.316,-2.045,1.282,-0.458,73.333,398.000,1.000,3.100,0.000
-6524.462,-7360.979,644.263,-2908.391,5.220,-6475.076,-10008.940,-9404.604,-0.137,0.925,-0.315,-1.709,1.862,-0.702,73.333,399.000,1.000,0.006,0.000
-6732.213,-7552.217,-72.427,-3565.026,-185.685,-6637.033,-10144.230,-9552.903,-0.141,0.925,-0.315,-1.465,2.136,-0.885,73.333,400.000,1.000,8.185,0.000
-6941.893,-7745.498,-789.717,-4222.548,-381.377,-6803.665,-10284.930,-9706.194,-0.145,0.927,-0.318,-1.282,2.411,-1.099,73.333,401.000,1.000,2.501,0.000
-7147.956,-7934.556,-1501.768,-4875.437,-576.273,-6970.004,-10423.710,-9857.274,-0.147,0.927,-0.317,-0.977,2.747,-1.282,73.333,402.000,1.000,3.756,0.000
-7347.094,-8114.999,-2203.970,-5520.065,-764.854,-7130.593,-10555.630,-10001.460,-0.152,0.927,-0.317,-0.854,2.899,-1.556,73.333,403.000,1.000,16.836,0.000
-7543.360,-8291.657,-2899.720,-6159.541,-948.225,-7284.805,-10682.540,-10140.700,-0.155,0.928,-0.316,-0.671,3.052,-1.740,73.333,404.000,1.000,0.019,0.000
-7747.207,-8476.167,-3601.261,-6804.285,-1138.013,-7443.795,-10816.010,-10287.290,-0.156,0.930,-0.314,-0.458,3.082,-1.923,73.333,405.000,1.000,1.878,0.000
-7960.958,-8670.213,-4311.715,-7456.725,-1338.692,-7614.400,-10961.260,-10445.690,-0.154,0.931,-0.317,-0.305,3.052,-2.014,73.333,406.000,1.000,2.489,0.000
-8173.152,-8862.674,-5017.383,-8103.960,-1536.796,-7785.103,-11104.770,-10599.680,-0.157,0.935,-0.318,-0.214,2.991,-2.106,73.333,407.000,1.000,5.088,0.000
-8376.631,-9048.754,-5711.294,-8739.047,-1724.404,-7946.332,-11237.280,-10738.900,-0.158,0.935,-0.317,-0.305,2.899,-2.167,73.333,408.000,1.000,2.362,0.000
-8573.003,-9231.688,-6398.867,-9367.855,-1907.470,-8102.492,-11365.580,-10870.660,-0.158,0.933,-0.317,-0.305,2.716,-2.197,73.333,409.000,1.000,38.921,0.000
-8764.794,-9413.175,-7083.430,-9994.480,-2090.525,-8259.282,-11496.640,-11003.370,-0.156,0.934,-0.320,-0.427,2.716,-2.228,73.333,410.000,1.000,2.395,0.000
-8955.081,-9592.097,-7764.727,-10619.190,-2272.457,-8416.382,-11629.080,-11138.430,-0.158,0.932,-0.322,-0.427,2.472,-2.167,73.333,411.000,1.000,2.477,0.000
-9147.887,-9768.870,-8444.364,-11244.060,-2453.121,-8573.280,-11760.860,-11275.210,-0.162,0.933,-0.323,-0.366,2.197,-2.075,73.333,412.000,1.000,3.091,0.000
-9341.398,-9942.405,-9121.101,-11867.500,-2630.872,-8725.544,-11889.570,-11411.540,-0.164,0.933,-0.326,-0.305,1.892,-1.892,73.333,413.000,1.000,0.011,0.000
-9531.288,-10110.320,-9792.079,-12485.380,-2803.644,-8868.652,-12013.120,-11545.150,-0.165,0.933,-0.323,-0.397,1.526,-1.709,73.333,414.000,1.000,1.959,0.000
-9718.189,-10275.230,-10458.540,-13097.040,-2972.958,-9006.649,-12133.630,-11676.690,-0.165,0.933,-0.324,-0.610,1.160,-1.678,73.333,415.000,1.000,2.471,0.000
-9907.373,-10444.810,-11124.930,-13706.930,-3144.119,-9146.449,-12256.450,-11810.370,-0.165,0.933,-0.325,-0.641,0.732,-1.465,73.333,416.000,1.000,2.488,0.000
-10099.580,-10619.520,-11791.500,-14317.410,-3319.100,-9287.281,-12381.390,-11945.830,-0.164,0.935,-0.326,-0.824,0.275,-1.373,73.333,417.000,1.000,2.496,0.000
-10292.300,-10794.640,-12457.290,-14928.170,-3496.213,-9425.795,-12504.890,-12079.990,-0.165,0.935,-0.328,-0.916,-0.061,-1.282,73.333,418.000,1.000,2.449,0.000
-10490.770,-10975.400,-13128.630,-15544.560,-3679.897,-9569.457,-12633.350,-12219.200,-0.164,0.935,-0.329,-1.038,-0.488,-1.099,73.333,419.000,1.000,2.534,0.000
-10693.860,-11161.030,-13802.540,-16164.320,-3866.884,-9718.713,-12765.240,-12361.620,-0.162,0.933,-0.329,-1.251,-0.916,-0.885,73.333,420.000,1.000,10.021,0.000
-10892.380,-11342.660,-14469.360,-16778.660,-4048.359,-9864.970,-12891.430,-12498.680,-0.161,0.930,-0.325,-1.404,-1.160,-0.702,73.333,421.000,1.000,2.468,0.000
-11086.040,-11522.120,-15131.560,-17388.420,-4228.559,-10012.200,-13016.920,-12635.730,-0.158,0.929,-0.324,-1.556,-1.404,-0.610,73.333,422.000,1.000,2.519,0.000
-11276.900,-11700.560,-15790.750,-17994.140,-4410.901,-10163.350,-13144.450,-12775.450,-0.156,0.928,-0.328,-1.709,-1.740,-0.488,73.333,423.000,1.000,18.018,0.000
-11463.000,-11872.260,-16441.970,-18592.440,-4589.769,-10310.530,-13266.830,-12911.460,-0.154,0.926,-0.331,-1.831,-2.045,-0.427,73.333,424.000,1.000,0.016,0.000
-11646.050,-12037.970,-17087.040,-19185.170,-4764.396,-10452.830,-13385.460,-13044.280,-0.152,0.928,-0.331,-1.984,-2.258,-0.275,73.333,425.000,1.000,2.526,0.000
-11830.140,-12203.050,-17730.640,-19775.150,-4938.846,-10597.040,-13506.730,-13178.170,-0.151,0.928,-0.336,-2.136,-2.441,-0.153,73.333,426.000,1.000,0.006,0.000
-12018.070,-12371.750,-18374.230,-20364.940,-5115.508,-10746.010,-13631.270,-13314.810,-0.150,0.928,-0.336,-2.167,-2.594,-0.061,73.333,427.000,1.000,4.394,0.000
-12208.560,-12544.350,-19017.250,-20955.320,-5292.918,-10897.880,-13756.750,-13451.380,-0.148,0.926,-0.340,-2.228,-2.777,-0.061,73.333,428.000,1.000,2.574,0.000
-12398.540,-12717.820,-19659.170,-21544.020,-5469.887,-11051.700,-13882.190,-13584.500,-0.144,0.925,-0.336,-2.197,-2.777,-0.061,73.333,429.000,1.000,2.390,0.000
-12588.010,-12890.990,-20300.590,-22130.290,-5648.459,-11206.610,-14007.250,-13715.360,-0.142,0.924,-0.337,-2.258,-2.716,-0.061,73.333,430.000,1.000,3.137,0.000
-12774.890,-13062.560,-20938.520,-22712.170,-5826.147,-11358.270,-14130.240,-13844.150,-0.141,0.923,-0.336,-2.167,-2.563,0.000,73.333,431.000,1.000,0.010,0.000
-12956.160,-13230.580,-21568.600,-23287.390,-5997.672,-11504.740,-14251.600,-13970.030,-0.138,0.925,-0.338,-2.136,-2.350,-0.092,73.333,432.000,1.000,2.472,0.000
-13133.500,-13395.030,-22191.130,-23857.950,-6163.594,-11649.630,-14374.510,-14094.690,-0.139,0.925,-0.335,-2.167,-2.197,-0.061,73.333,433.000,1.000,0.006,0.000
-13310.070,-13557.090,-22809.460,-24426.430,-6327.552,-11795.400,-14498.660,-14219.250,-0.139,0.926,-0.336,-2.136,-1.953,0.000,73.333,434.000,1.000,1.959,0.000
-13483.470,-13714.260,-23422.530,-24989.400,-6487.207,-11936.520,-14616.080,-14338.150,-0.140,0.929,-0.333,-2.075,-1.801,-0.092,73.333,435.000,1.000,5.010,0.000
-13654.870,-13867.750,-24032.220,-25547.830,-6643.001,-12071.200,-14725.350,-14450.640,-0.143,0.932,-0.331,-2.075,-1.434,-0.153,73.333,436.000,1.000,2.400,0.000
-13835.170,-14026.450,-24648.670,-26112.850,-6804.785,-12207.850,-14837.800,-14568.000,-0.141,0.934,-0.328,-2.197,-1.312,-0.214,73.333,437.000,1.000,2.603,0.000
-14023.840,-14190.050,-25271.600,-26684.760,-6972.175,-12346.210,-14955.900,-14692.980,-0.142,0.938,-0.330,-2.350,-1.068,-0.214,73.333,438.000,1.000,3.030,0.000
-14210.070,-14352.130,-25891.660,-27253.170,-7136.635,-12479.270,-15073.060,-14818.870,-0.141,0.941,-0.329,-2.411,-0.793,-0.275,73.333,439.000,1.000,0.006,0.000
-14392.110,-14511.980,-26506.860,-27816.160,-7298.772,-12608.300,-15188.670,-14944.010,-0.142,0.944,-0.331,-2.502,-0.458,-0.336,73.333,440.000,1.000,1.950,0.000
-14570.750,-14669.410,-27118.040,-28376.130,-7461.350,-12735.830,-15304.060,-15068.550,-0.142,0.947,-0.330,-2.655,-0.214,-0.427,73.333,441.000,1.000,2.434,0.000
-14745.790,-14825.770,-27726.030,-28933.960,-7624.891,-12862.180,-15418.750,-15192.280,-0.144,0.948,-0.326,-2.808,0.275,-0.366,73.333,442.000,1.000,4.965,0.000
-14919.120,-14983.540,-28332.180,-29490.100,-7789.834,-12989.050,-15532.030,-15315.730,-0.144,0.951,-0.326,-2.838,0.580,-0.397,73.333,443.000,1.000,3.110,0.000
-15090.790,-15142.180,-28935.210,-30042.970,-7954.527,-13117.200,-15642.820,-15438.260,-0.143,0.949,-0.322,-3.052,0.824,-0.488,73.333,444.000,1.000,0.009,0.000
-15261.870,-15302.280,-29534.200,-30592.650,-8118.396,-13247.140,-15753.280,-15560.940,-0.144,0.948,-0.323,-3.174,1.221,-0.458,73.333,445.000,1.000,10.627,0.000
-15432.040,-15461.530,-30127.570,-31138.960,-8279.791,-13377.260,-15864.420,-15683.810,-0.143,0.948,-0.322,-3.235,1.648,-0.305,73.333,446.000,1.000,3.075,0.000
-15599.350,-15616.150,-30714.890,-31680.890,-8437.080,-13505.380,-15972.660,-15804.510,-0.143,0.944,-0.323,-3.418,1.892,-0.183,73.333,447.000,1.000,0.008,0.000
-15764.140,-15766.320,-31298.670,-32219.530,-8592.540,-13632.500,-16076.660,-15923.460,-0.144,0.941,-0.322,-3.540,2.136,-0.214,73.333,448.000,1.000,1.940,0.000
-15932.480,-15918.450,-31885.390,-32760.120,-8752.823,-13764.990,-16183.900,-16045.900,-0.144,0.939,-0.320,-3.632,2.472,-0.183,73.333,449.000,1.000,9.369,0.000
-16110.500,-16079.520,-32480.350,-33306.480,-8922.387,-13908.830,-16302.060,-16175.430,-0.144,0.940,-0.320,-3.571,2.777,-0.122,73.333,450.000,1.000,0.008,0.000
-16287.360,-16240.340,-33073.050,-33848.710,-9090.512,-14053.460,-16421.590,-16303.600,-0.145,0.939,-0.321,-3.510,3.082,-0.061,73.333,451.000,1.000,1.888,0.000
-16453.210,-16392.920,-33655.450,-34379.960,-9248.997,-14187.890,-16532.820,-16424.540,-0.144,0.933,-0.321,-3.418,3.448,0.000,73.333,452.000,1.000,3.668,0.000
-16616.970,-16546.000,-34236.680,-34909.610,-9406.960,-14321.110,-16643.740,-16545.660,-0.144,0.928,-0.319,-3.387,3.510,0.031,73.333,453.000,1.000,14.442,0.000
-16785.320,-16703.380,-34820.020,-35442.160,-9569.059,-14461.090,-16759.100,-16668.750,-0.144,0.923,-0.321,-3.296,3.723,-0.031,73.333,454.000,1.000,0.010,0.000
-16952.660,-16857.230,-35396.800,-35969.800,-9727.202,-14600.040,-16871.260,-16786.250,-0.145,0.921,-0.322,-3.052,4.059,0.000,73.333,455.000,1.000,6.874,0.000
-17117.000,-17005.690,-35965.500,-36490.450,-9878.646,-14733.630,-16978.160,-16896.630,-0.148,0.920,-0.323,-2.686,4.425,-0.092,73.333,456.000,1.000,8.071,0.000
-17283.130,-17155.760,-36532.710,-37009.610,-10029.780,-14869.690,-17086.310,-17005.290,-0.151,0.925,-0.322,-2.472,4.639,0.031,73.333,457.000,1.000,0.012,0.000
-17449.300,-17308.450,-37097.610,-37525.860,-10181.390,-15008.830,-17194.860,-17112.570,-0.152,0.928,-0.322,-2.319,4.822,-0.031,73.333,458.000,1.000,2.527,0.000
-17607.670,-17454.730,-37653.980,-38033.340,-10326.710,-15139.230,-17296.200,-17213.920,-0.157,0.930,-0.321,-2.136,4.791,-0.061,73.333,459.000,1.000,0.010,0.000
-17759.960,-17593.350,-38206.040,-38535.940,-10467.180,-15259.720,-17392.430,-17312.890,-0.155,0.932,-0.320,-1.923,4.944,-0.061,73.333,460.000,1.000,1.943,0.000
-17917.690,-17735.540,-38764.130,-39044.480,-10612.990,-15381.400,-17493.220,-17418.170,-0.156,0.934,-0.323,-1.953,4.913,-0.092,73.333,461.000,1.000,6.188,0.000
-18083.010,-17883.080,-39328.060,-39560.380,-10765.600,-15505.150,-17600.100,-17529.390,-0.156,0.935,-0.322,-1.953,4.700,-0.092,73.333,462.000,1.000,8.058,0.000
-18249.190,-18029.010,-39892.050,-40077.110,-10920.340,-15624.610,-17708.840,-17642.660,-0.159,0.939,-0.321,-1.801,4.608,-0.183,73.333,463.000,1.000,0.020,0.000
-18415.250,-18174.350,-40455.020,-40592.520,-11077.240,-15741.300,-17819.020,-17759.230,-0.158,0.939,-0.321,-1.740,4.456,-0.214,73.333,464.000,1.000,1.929,0.000
-18580.980,-18320.640,-41014.520,-41105.320,-11233.940,-15857.490,-17928.350,-17876.540,-0.160,0.939,-0.324,-1.770,4.272,-0.305,73.333,465.000,1.000,6.249,0.000
-18740.080,-18461.490,-41563.610,-41609.940,-11383.060,-15968.640,-18029.190,-17987.080,-0.161,0.937,-0.323,-1.801,4.059,-0.305,73.333,466.000,1.000,3.059,0.000
-18891.800,-18595.990,-42102.140,-42106.560,-11525.190,-16075.530,-18122.000,-18092.790,-0.163,0.936,-0.326,-1.892,3.906,-0.305,73.333,467.000,1.000,0.012,0.000
-19044.710,-18733.570,-42639.540,-42602.660,-11668.960,-16187.770,-18216.910,-18202.160,-0.162,0.935,-0.324,-1.831,3.632,-0.336,73.333,468.000,1.000,1.858,0.000
-19202.380,-18878.790,-43180.790,-43100.650,-11817.270,-16308.730,-18318.120,-18316.410,-0.161,0.933,-0.325,-1.892,3.357,-0.488,73.333,469.000,1.000,18.784,0.000
-19361.920,-19027.470,-43723.770,-43599.420,-11968.620,-16434.470,-18424.380,-18433.890,-0.162,0.933,-0.325,-1.892,3.021,-0.488,73.333,470.000,1.000,14.877,0.000
-19521.430,-19175.060,-44265.960,-44097.490,-12121.870,-16560.790,-18532.320,-18552.150,-0.161,0.932,-0.328,-1.862,2.625,-0.519,73.333,471.000,1.000,0.020,0.000
-19679.810,-19320.290,-44805.980,-44591.890,-12275.430,-16686.080,-18638.230,-18667.650,-0.161,0.933,-0.328,-1.892,2.319,-0.549,73.333,472.000,1.000,0.004,0.000
-19836.810,-19463.380,-45343.270,-45083.030,-12427.400,-16810.890,-18741.710,-18780.740,-0.161,0.931,-0.330,-1.892,1.892,-0.488,73.333,473.000,1.000,14.405,0.000
-19990.680,-19601.840,-45875.170,-45570.810,-12573.070,-16931.410,-18839.340,-18889.460,-0.160,0.931,-0.329,-2.014,1.648,-0.519,73.333,474.000,1.000,0.012,0.000
-20139.170,-19733.390,-46399.370,-46052.660,-12710.630,-17044.290,-18929.090,-18992.480,-0.159,0.934,-0.327,-1.984,1.343,-0.580,73.333,475.000,1.000,9.390,0.000
-20282.590,-19859.280,-46916.630,-46528.210,-12843.280,-17152.960,-19015.750,-19094.190,-0.158,0.934,-0.330,-1.984,1.160,-0.519,73.333,476.000,1.000,2.487,0.000
-20425.840,-19987.450,-47431.830,-47001.600,-12976.950,-17265.140,-19105.820,-19198.700,-0.157,0.933,-0.331,-2.014,0.885,-0.458,73.333,477.000,1.000,7.571,0.000
-20576.280,-20126.830,-47952.690,-47480.520,-13120.100,-17387.560,-19204.500,-19309.840,-0.157,0.934,-0.330,-2.014,0.610,-0.427,73.333,478.000,1.000,2.430,0.000
-20729.580,-20270.550,-48475.750,-47962.440,-13270.500,-17516.010,-19309.260,-19425.290,-0.158,0.933,-0.327,-2.136,0.244,-0.549,73.333,479.000,1.000,2.482,0.000
-20877.010,-20408.450,-48992.110,-48437.770,-13417.740,-17642.240,-19412.830,-19536.190,-0.159,0.933,-0.329,-2.167,0.031,-0.488,73.333,480.000,1.000,2.506,0.000
-21021.490,-20543.050,-49504.030,-48907.490,-13559.950,-17765.630,-19513.500,-19640.230,-0.160,0.932,-0.329,-2.136,-0.153,-0.519,73.333,481.000,1.000,4.980,0.000
-21164.620,-20674.700,-50012.530,-49372.800,-13696.300,-17884.080,-19609.190,-19737.530,-0.158,0.935,-0.333,-2.228,-0.336,-0.641,73.333,482.000,1.000,6.291,0.000
-21305.630,-20801.790,-50514.680,-49831.570,-13825.530,-17996.520,-19698.640,-19827.810,-0.158,0.938,-0.333,-2.380,-0.519,-0.519,73.333,483.000,1.000,2.500,0.000
-21447.870,-20927.400,-51012.470,-50287.080,-13952.150,-18106.890,-19786.150,-19914.590,-0.158,0.935,-0.329,-2.472,-0.702,-0.549,73.333,484.000,1.000,3.060,0.000
-21590.530,-21052.100,-51508.140,-50741.550,-14078.740,-18215.350,-19874.400,-20000.500,-0.154,0.937,-0.331,-2.502,-0.793,-0.488,73.333,485.000,1.000,0.011,0.000
-21735.820,-21180.540,-52008.330,-51199.840,-14210.320,-18326.270,-19968.460,-20092.280,-0.155,0.936,-0.332,-2.625,-0.824,-0.488,73.333,486.000,1.000,2.477,0.000
-21886.060,-21315.440,-52515.800,-51664.280,-14349.490,-18441.290,-20067.940,-20192.510,-0.151,0.935,-0.332,-2.655,-0.977,-0.549,73.333,487.000,1.000,0.007,0.000
-22032.880,-21447.290,-53019.130,-52125.110,-14486.550,-18551.010,-20163.620,-20291.810,-0.147,0.931,-0.330,-2.594,-0.885,-0.427,73.333,488.000,1.000,1.897,0.000
-22168.930,-21568.090,-53508.790,-52573.830,-14612.670,-18649.650,-20250.840,-20383.600,-0.140,0.928,-0.333,-2.563,-0.671,-0.488,73.333,489.000,1.000,2.559,0.000
-22298.520,-21682.800,-53988.890,-53014.110,-14731.450,-18740.850,-20329.630,-20469.120,-0.138,0.923,-0.333,-2.258,-0.427,-0.336,73.333,490.000,1.000,2.416,0.000
-22435.950,-21807.670,-54474.900,-53460.410,-14858.610,-18838.920,-20411.490,-20560.380,-0.137,0.921,-0.333,-2.136,-0.061,-0.183,73.333,491.000,1.000,5.604,0.000
-22585.590,-21946.520,-54972.360,-53918.010,-14999.470,-18949.880,-20505.530,-20664.520,-0.138,0.920,-0.335,-1.953,0.336,0.000,73.333,492.000,1.000,0.017,0.000
-22735.380,-22083.930,-55469.230,-54375.340,-15140.960,-19060.820,-20601.180,-20770.550,-0.139,0.917,-0.334,-1.709,0.671,0.000,73.333,493.000,1.000,1.904,0.000
-22880.180,-22214.180,-55960.190,-54827.020,-15277.140,-19166.090,-20691.190,-20872.180,-0.143,0.917,-0.332,-1.312,0.946,0.183,73.333,494.000,1.000,3.109,0.000
-23023.990,-22343.150,-56449.450,-55276.830,-15412.000,-19271.460,-20779.700,-20973.920,-0.145,0.919,-0.335,-1.068,1.343,0.244,73.333,495.000,1.000,0.007,0.000
-23165.170,-22470.070,-56935.050,-55722.630,-15544.320,-19375.570,-20865.730,-21074.160,-0.144,0.923,-0.331,-0.885,1.556,0.214,73.333,496.000,1.000,1.900,0.000
-23301.270,-22592.140,-57414.460,-56162.000,-15673.650,-19476.380,-20948.770,-21169.950,-0.144,0.926,-0.331,-0.641,1.740,0.061,73.333,497.000,1.000,13.757,0.000
-23435.330,-22712.940,-57891.430,-56598.350,-15804.930,-19579.380,-21034.320,-21265.880,-0.145,0.930,-0.330,-0.519,2.106,0.000,73.333,498.000,1.000,3.676,0.000
-23571.160,-22837.460,-58368.920,-57033.730,-15939.960,-19688.130,-21124.210,-21366.340,-0.144,0.933,-0.331,-0.427,2.350,-0.092,73.333,499.000,1.000,0.011,0.000
-23710.440,-22967.270,-58847.370,-57470.380,-16078.260,-19802.830,-21218.340,-21472.720,-0.146,0.937,-0.331,-0.397,2.594,-0.031,73.333,500.000,1.000,0.004,0.000
-23850.660,-23098.380,-59324.490,-57908.880,-16217.350,-19920.380,-21314.860,-21581.790,-0.147,0.936,-0.330,-0.366,2.838,-0.031,73.333,501.000,1.000,2.513,0.000
-23985.800,-23223.400,-59794.580,-58342.610,-16351.160,-20034.700,-21408.210,-21685.250,-0.147,0.938,-0.333,-0.488,2.930,-0.122,73.333,502.000,1.000,3.763,0.000
-24112.820,-23338.830,-60254.330,-58765.490,-16476.320,-20142.390,-21493.530,-21777.740,-0.149,0.938,-0.336,-0.488,3.174,-0.153,73.333,503.000,1.000,13.803,0.000
-24238.230,-23452.110,-60709.740,-59183.010,-16598.920,-20247.720,-21574.960,-21864.570,-0.148,0.941,-0.335,-0.671,3.296,-0.214,73.333,504.000,1.000,3.070,0.000
-24371.940,-23574.380,-61170.920,-59604.830,-16728.060,-20358.970,-21662.000,-21954.450,-0.150,0.941,-0.332,-0.885,3.479,-0.275,73.333,505.000,1.000,0.034,0.000
-24509.620,-23700.130,-61633.960,-60025.330,-16858.330,-20472.140,-21751.160,-22042.900,-0.151,0.941,-0.331,-0.946,3.662,-0.336,73.333,506.000,1.000,1.696,0.000
-24639.610,-23816.710,-62087.640,-60434.440,-16978.400,-20577.960,-21834.660,-22123.400,-0.153,0.941,-0.330,-1.160,3.754,-0.275,73.333,507.000,1.000,2.592,0.000
-24765.060,-23928.600,-62535.870,-60840.320,-17092.390,-20679.150,-21916.150,-22202.240,-0.153,0.941,-0.335,-1.343,3.754,-0.305,73.333,508.000,1.000,10.054,0.000
-24893.470,-24043.280,-62986.630,-61252.330,-17208.390,-20779.770,-21999.460,-22284.160,-0.153,0.939,-0.335,-1.526,3.784,-0.305,73.333,509.000,1.000,15.582,0.000
-25021.950,-24156.170,-63435.910,-61665.480,-17323.990,-20876.010,-22079.960,-22364.790,-0.156,0.940,-0.333,-1.740,3.754,-0.244,73.333,510.000,1.000,0.020,0.000
-25146.140,-24263.380,-63877.790,-62074.300,-17434.480,-20964.090,-22152.800,-22441.150,-0.153,0.939,-0.333,-1.831,3.784,-0.366,73.333,511.000,1.000,1.772,0.000
-25270.130,-24370.620,-64316.660,-62481.590,-17544.150,-21047.890,-22223.880,-22519.390,-0.153,0.938,-0.335,-1.953,3.723,-0.275,73.333,512.000,1.000,2.548,0.000
-25400.470,-24485.150,-64761.040,-62891.130,-17661.470,-21134.860,-22301.570,-22605.300,-0.152,0.938,-0.333,-2.197,3.601,-0.305,73.333,513.000,1.000,8.795,0.000
-25535.570,-24605.870,-65211.480,-63302.180,-17786.300,-21226.090,-22382.090,-22694.520,-0.152,0.937,-0.333,-2.289,3.693,-0.275,73.333,514.000,1.000,2.369,0.000
-25669.990,-24726.730,-65662.200,-63712.900,-17912.810,-21317.320,-22460.930,-22783.830,-0.150,0.935,-0.332,-2.441,3.479,-0.122,73.333,515.000,1.000,2.627,0.000
-25800.080,-24843.110,-66107.210,-64119.750,-18037.030,-21405.210,-22538.700,-22872.530,-0.152,0.933,-0.334,-2.502,3.357,0.000,73.333,516.000,1.000,2.441,0.000
-25925.250,-24954.840,-66545.050,-64519.790,-18157.130,-21489.970,-22613.000,-22956.580,-0.154,0.935,-0.332,-2.747,3.326,0.061,73.333,517.000,1.000,2.552,0.000
-26048.110,-25064.940,-66978.940,-64915.160,-18273.190,-21574.110,-22683.620,-23036.400,-0.154,0.935,-0.336,-2.808,3.143,0.000,73.333,518.000,1.000,2.388,0.000
-26172.260,-25177.250,-67412.700,-65310.410,-18389.310,-21662.800,-22755.580,-23117.700,-0.155,0.933,-0.336,-2.991,2.960,-0.061,73.333,519.000,1.000,2.614,0.000
-26298.910,-25293.120,-67847.470,-65706.770,-18509.530,-21759.270,-22832.040,-23203.260,-0.157,0.933,-0.336,-3.021,2.716,-0.153,73.333,520.000,1.000,3.047,0.000
-26427.040,-25410.040,-68282.580,-66103.320,-18633.430,-21860.850,-22912.180,-23292.790,-0.155,0.933,-0.333,-3.021,2.502,-0.183,73.333,521.000,1.000,0.008,0.000
-26556.180,-25526.820,-68717.950,-66501.880,-18759.960,-21965.990,-22995.540,-23386.230,-0.155,0.933,-0.332,-3.174,2.319,-0.275,73.333,522.000,1.000,10.591,0.000
-26684.130,-25643.360,-69151.770,-66901.500,-18887.370,-22073.910,-23081.940,-23481.350,-0.155,0.931,-0.332,-3.296,2.045,-0.305,73.333,523.000,1.000,3.151,0.000
-26807.770,-25756.460,-69579.690,-67296.040,-19011.330,-22179.670,-23167.860,-23574.340,-0.155,0.929,-0.333,-3.387,1.770,-0.366,73.333,524.000,1.000,0.012,0.000
-26925.610,-25861.820,-69998.440,-67680.790,-19127.780,-22277.670,-23247.310,-23662.160,-0.155,0.927,-0.332,-3.418,1.678,-0.397,73.333,525.000,1.000,1.848,0.000
-27040.650,-25963.630,-70411.810,-68058.340,-19239.310,-22369.950,-23320.200,-23744.840,-0.153,0.927,-0.335,-3.510,1.556,-0.275,73.333,526.000,1.000,11.384,0.000
-27158.220,-26070.770,-70826.260,-68434.520,-19351.720,-22463.630,-23393.070,-23825.650,-0.151,0.927,-0.331,-3.326,1.251,-0.214,73.333,527.000,1.000,2.997,0.000
-27277.590,-26181.650,-71240.360,-68809.380,-19463.800,-22558.820,-23467.930,-23904.900,-0.152,0.928,-0.333,-3.235,1.099,-0.153,73.333,528.000,1.000,0.011,0.000
-27395.760,-26290.140,-71651.180,-69181.980,-19573.640,-22652.820,-23543.160,-23981.610,-0.152,0.930,-0.331,-3.235,0.854,-0.305,73.333,529.000,1.000,1.939,0.000
-27514.780,-26399.220,-72062.580,-69555.380,-19685.600,-22749.030,-23619.650,-24057.960,-0.153,0.933,-0.333,-3.357,0.763,-0.275,73.333,530.000,1.000,7.450,0.000
-27636.250,-26512.450,-72476.910,-69930.570,-19800.830,-22847.490,-23696.690,-24134.690,-0.155,0.934,-0.333,-3.479,0.732,-0.244,73.333,531.000,1.000,11.820,0.000
-27757.390,-26624.350,-72890.480,-70305.050,-19915.390,-22942.520,-23772.440,-24211.510,-0.152,0.934,-0.331,-3.510,0.580,-0.244,73.333,532.000,1.000,0.010,0.000
-27873.640,-26727.700,-73297.240,-70674.090,-20025.740,-23030.390,-23845.080,-24287.720,-0.152,0.933,-0.334,-3.662,0.519,-0.214,73.333,533.000,1.000,6.252,0.000
-27984.570,-26823.980,-73696.250,-71036.800,-20132.390,-23111.610,-23914.730,-24363.090,-0.151,0.933,-0.329,-3.784,0.458,-0.153,73.333,534.000,1.000,0.015,0.000
-28094.410,-26919.820,-74092.880,-71399.930,-20238.470,-23189.540,-23984.230,-24439.150,-0.152,0.932,-0.333,-3.723,0.336,-0.153,73.333,535.000,1.000,1.885,0.000
-28204.610,-27016.370,-74489.180,-71765.660,-20344.010,-23266.380,-24053.470,-24515.310,-0.151,0.933,-0.330,-3.632,0.244,-0.153,73.333,536.000,1.000,5.107,0.000
-28316.160,-27113.990,-74886.230,-72130.850,-20451.340,-23346.210,-24124.630,-24592.940,-0.150,0.936,-0.328,-3.601,0.122,-0.122,73.333,537.000,1.000,2.462,0.000
-28431.510,-27218.640,-75286.550,-72496.150,-20564.850,-23435.070,-24202.040,-24675.120,-0.148,0.938,-0.327,-3.601,0.244,-0.031,73.333,538.000,1.000,2.361,0.000
-28548.210,-27329.560,-75686.440,-72860.930,-20680.650,-23529.140,-24280.060,-24758.390,-0.148,0.934,-0.327,-3.540,0.275,-0.031,73.333,539.000,1.000,3.867,0.000
-28660.980,-27436.020,-76079.620,-73220.940,-20792.100,-23618.220,-24350.260,-24837.050,-0.149,0.935,-0.328,-3.479,0.336,-0.122,73.333,540.000,1.000,6.747,0.000
-28770.640,-27535.990,-76467.040,-73576.310,-20900.330,-23702.610,-24416.040,-24912.340,-0.145,0.932,-0.329,-3.448,0.458,0.092,73.333,541.000,1.000,0.009,0.000
-28881.430,-27635.850,-76852.580,-73929.450,-21008.530,-23788.730,-24483.650,-24987.880,-0.144,0.930,-0.329,-3.326,0.610,0.214,73.333,542.000,1.000,8.238,0.000
-28993.310,-27737.090,-77236.660,-74280.650,-21116.570,-23877.890,-24553.190,-25064.490,-0.143,0.926,-0.327,-3.296,0.763,0.305,73.333,543.000,1.000,3.069,0.000
-29103.580,-27836.360,-77619.050,-74630.640,-21223.870,-23967.840,-24624.850,-25143.040,-0.145,0.927,-0.326,-3.113,1.068,0.275,73.333,544.000,1.000,0.008,0.000
-29211.250,-27933.610,-77999.660,-74979.520,-21330.130,-24057.910,-24698.710,-25222.990,-0.144,0.926,-0.326,-2.838,1.190,0.366,73.333,545.000,1.000,9.342,0.000
-29315.920,-28030.580,-78376.360,-75324.550,-21434.300,-24147.400,-24771.150,-25301.590,-0.146,0.927,-0.323,-2.625,1.373,0.305,73.333,546.000,1.000,2.610,0.000
-29417.980,-28125.120,-78748.050,-75664.390,-21535.590,-24232.600,-24837.750,-25376.580,-0.148,0.927,-0.321,-2.533,1.678,0.397,73.333,547.000,1.000,2.423,0.000
-29521.760,-28218.130,-79119.620,-76003.470,-21636.940,-24313.460,-24900.010,-25449.210,-0.149,0.929,-0.321,-2.411,1.892,0.397,73.333,548.000,1.000,13.801,0.000
-29628.920,-28312.710,-79494.370,-76344.730,-21741.280,-24394.250,-24964.000,-25522.940,-0.148,0.930,-0.322,-2.289,2.075,0.397,73.333,549.000,1.000,7.353,0.000
-29732.730,-28406.370,-79865.480,-76681.800,-21843.180,-24475.120,-25029.480,-25594.520,-0.147,0.932,-0.322,-2.075,2.289,0.244,73.333,550.000,1.000,0.011,0.000
-29831.010,-28498.300,-80229.210,-77011.980,-21938.980,-24555.400,-25093.520,-25660.810,-0.148,0.933,-0.327,-1.953,2.441,0.275,73.333,551.000,1.000,0.003,0.000
-29930.130,-28592.500,-80591.550,-77342.040,-22034.370,-24635.690,-25155.920,-25725.540,-0.146,0.933,-0.328,-1.801,2.533,0.214,73.333,552.000,1.000,2.611,0.000
-30031.720,-28686.030,-80954.950,-77674.300,-22131.720,-24712.920,-25216.640,-25790.540,-0.146,0.933,-0.326,-1.801,2.747,0.183,73.333,553.000,1.000,2.527,0.000
-30132.270,-28773.500,-81315.950,-78005.180,-22227.230,-24785.780,-25276.290,-25854.060,-0.145,0.934,-0.328,-1.831,2.838,0.183,73.333,554.000,1.000,2.487,0.000
-30234.100,-28860.840,-81676.780,-78335.790,-22322.990,-24859.950,-25338.330,-25918.910,-0.142,0.934,-0.329,-1.648,3.021,0.153,73.333,555.000,1.000,2.530,0.000
-30341.020,-28954.340,-82042.240,-78669.960,-22424.560,-24939.910,-25406.860,-25989.740,-0.142,0.935,-0.327,-1.587,3.021,0.214,73.333,556.000,1.000,6.229,0.000
-30448.060,-29048.750,-82407.830,-79005.470,-22528.730,-25020.510,-25477.860,-26063.000,-0.141,0.935,-0.327,-1.678,3.204,0.244,73.333,557.000,1.000,2.427,0.000
-30552.900,-29141.810,-82769.160,-79338.820,-22630.920,-25096.630,-25545.160,-26134.670,-0.142,0.936,-0.327,-1.678,3.387,0.244,73.333,558.000,1.000,9.268,0.000
-30659.750,-29237.900,-83128.020,-79668.600,-22731.430,-25169.570,-25608.340,-26204.790,-0.145,0.936,-0.332,-1.770,3.448,0.244,73.333,559.000,1.000,0.011,0.000
-30767.430,-29334.220,-83483.900,-79993.200,-22830.410,-25241.580,-25669.900,-26272.990,-0.144,0.934,-0.331,-1.770,3.601,0.122,73.333,560.000,1.000,1.984,0.000
-30870.570,-29425.090,-83834.290,-80312.420,-22926.430,-25313.780,-25731.150,-26338.320,-0.147,0.933,-0.330,-1.801,3.632,0.061,73.333,561.000,1.000,12.500,0.000
-30967.340,-29510.820,-84179.150,-80627.300,-23018.060,-25385.380,-25789.690,-26399.750,-0.151,0.934,-0.327,-1.862,3.479,-0.122,73.333,562.000,1.000,2.514,0.000
-31059.430,-29593.380,-84519.980,-80937.940,-23105.920,-25455.040,-25843.160,-26457.700,-0.154,0.934,-0.328,-1.923,3.265,-0.183,73.333,563.000,1.000,2.476,0.000
-31148.110,-29673.760,-84857.130,-81244.250,-23191.520,-25523.360,-25893.300,-26513.850,-0.156,0.929,-0.330,-1.892,3.052,-0.427,73.333,564.000,1.000,2.477,0.000
-31235.180,-29753.400,-85191.260,-81548.700,-23277.410,-25592.160,-25945.160,-26572.100,-0.157,0.923,-0.329,-1.923,2.930,-0.458,73.333,565.000,1.000,3.106,0.000
-31325.600,-29835.880,-85527.140,-81856.600,-23369.440,-25666.390,-26004.740,-26638.170,-0.156,0.918,-0.331,-1.831,2.686,-0.610,73.333,566.000,1.000,0.007,0.000
-31421.670,-29923.410,-85866.800,-82169.250,-23468.640,-25747.770,-26070.790,-26710.540,-0.156,0.917,-0.333,-1.831,2.502,-0.580,73.333,567.000,1.000,1.947,0.000
-31520.830,-30013.660,-86206.740,-82483.210,-23569.400,-25830.900,-26136.030,-26783.040,-0.153,0.921,-0.337,-1.709,2.319,-0.671,73.333,568.000,1.000,8.705,0.000
-31622.380,-30106.570,-86547.320,-82796.970,-23670.160,-25912.070,-26197.760,-26854.460,-0.153,0.928,-0.335,-1.678,2.136,-0.580,73.333,569.000,1.000,8.755,0.000
-31723.160,-30200.460,-86887.650,-83107.600,-23769.330,-25989.150,-26256.090,-26923.090,-0.154,0.935,-0.334,-1.678,2.045,-0.641,73.333,570.000,1.000,2.569,0.000
-31818.880,-30289.600,-87223.260,-83412.510,-23864.550,-26063.710,-26313.340,-26988.530,-0.156,0.939,-0.337,-1.862,1.892,-0.610,73.333,571.000,1.000,2.388,0.000
-31912.100,-30374.540,-87554.910,-83714.770,-23957.520,-26140.860,-26373.810,-27055.150,-0.158,0.940,-0.339,-1.984,1.587,-0.610,73.333,572.000,1.000,30.112,0.000
-32004.980,-30457.610,-87884.480,-84015.930,-24048.740,-26219.160,-26437.010,-27122.500,-0.159,0.936,-0.340,-2.106,1.343,-0.732,73.333,573.000,1.000,2.414,0.000
-32096.880,-30538.810,-88211.280,-84314.010,-24138.600,-26295.190,-26499.170,-27186.780,-0.154,0.929,-0.341,-2.228,1.038,-0.732,73.333,574.000,1.000,3.068,0.000
-32189.170,-30621.020,-88535.660,-84609.620,-24229.160,-26369.190,-26559.040,-27249.190,-0.154,0.926,-0.339,-2.380,1.007,-0.885,73.333,575.000,1.000,0.010,0.000
-32279.000,-30701.800,-88855.140,-84901.100,-24317.140,-26437.400,-26614.460,-27309.460,-0.154,0.927,-0.337,-2.319,0.793,-0.977,73.333,576.000,1.000,1.902,0.000
-32366.350,-30779.760,-89171.260,-85189.050,-24402.300,-26500.440,-26667.020,-27367.440,-0.154,0.929,-0.340,-2.411,0.763,-0.916,73.333,577.000,1.000,2.518,0.000
-32458.290,-30861.720,-89491.230,-85480.260,-24491.260,-26566.530,-26723.000,-27427.350,-0.153,0.934,-0.343,-2.472,0.641,-0.824,73.333,578.000,1.000,5.012,0.000
-32552.290,-30945.740,-89812.760,-85774.020,-24582.050,-26634.110,-26780.980,-27487.830,-0.153,0.936,-0.342,-2.441,0.580,-0.702,73.333,579.000,1.000,2.500,0.000
-32645.600,-31028.470,-90133.800,-86068.800,-24672.530,-26700.850,-26838.670,-27547.680,-0.150,0.940,-0.337,-2.441,0.427,-0.549,73.333,580.000,1.000,2.523,0.000
-32742.670,-31113.520,-90457.480,-86366.020,-24765.890,-26769.150,-26895.890,-27608.420,-0.149,0.945,-0.340,-2.533,0.397,-0.397,73.333,581.000,1.000,2.518,0.000
-32838.980,-31197.030,-90778.280,-86658.160,-24856.690,-26834.500,-26946.650,-27665.200,-0.148,0.948,-0.338,-2.808,0.305,-0.153,73.333,582.000,1.000,2.437,0.000
-32929.280,-31275.480,-91092.380,-86941.540,-24940.750,-26895.720,-26991.310,-27716.970,-0.141,0.947,-0.333,-3.143,0.366,0.031,73.333,583.000,1.000,2.484,0.000
-33017.320,-31353.110,-91403.790,-87223.020,-25023.470,-26958.410,-27039.080,-27771.120,-0.135,0.944,-0.332,-3.418,0.580,0.275,73.333,584.000,1.000,3.140,0.000
-33104.770,-31430.680,-91712.430,-87503.680,-25106.800,-27022.580,-27090.710,-27829.100,-0.132,0.941,-0.335,-3.601,1.007,0.458,73.333,585.000,1.000,0.014,0.000
-33194.810,-31510.600,-92020.760,-87784.400,-25192.760,-27088.740,-27143.960,-27889.740,-0.132,0.940,-0.336,-3.754,1.343,0.671,73.333,586.000,1.000,6.867,0.000
-33288.570,-31593.980,-92330.620,-88067.140,-25282.600,-27156.940,-27198.920,-27952.280,-0.137,0.944,-0.333,-3.754,1.587,0.854,73.333,587.000,1.000,11.292,0.000
-33376.270,-31671.830,-92633.170,-88343.880,-25367.390,-27219.790,-27250.010,-28010.420,-0.141,0.946,-0.331,-3.998,1.770,0.916,73.333,588.000,1.000,4.937,0.000
-33456.480,-31744.640,-92928.970,-88614.410,-25446.770,-27281.020,-27298.320,-28065.210,-0.146,0.944,-0.332,-4.089,1.923,0.946,73.333,589.000,1.000,3.146,0.000
-33537.450,-31820.540,-93227.660,-88886.900,-25530.120,-27350.990,-27350.580,-28122.720,-0.147,0.941,-0.324,-4.395,2.014,0.946,73.333,590.000,1.000,0.007,0.000
-33621.040,-31898.980,-93529.460,-89161.560,-25618.100,-27426.720,-27406.310,-28182.950,-0.149,0.936,-0.323,-4.578,2.014,0.916,73.333,591.000,1.000,1.866,0.000
-33706.060,-31978.030,-93830.710,-89436.800,-25707.790,-27501.880,-27463.570,-28245.950,-0.149,0.931,-0.323,-4.669,2.045,0.916,73.333,592.000,1.000,2.513,0.000
-33788.090,-32053.800,-94126.220,-89708.340,-25794.670,-27572.290,-27518.410,-28307.990,-0.149,0.927,-0.323,-4.669,2.167,0.824,73.333,593.000,1.000,2.505,0.000
-33866.130,-32124.460,-94414.770,-89972.800,-25875.880,-27637.640,-27567.890,-28364.250,-0.150,0.923,-0.323,-4.761,2.136,0.793,73.333,594.000,1.000,2.464,0.000
-33946.040,-32194.500,-94702.560,-90233.630,-25955.140,-27702.870,-27615.830,-28417.710,-0.150,0.924,-0.322,-4.700,1.984,0.641,73.333,595.000,1.000,2.517,0.000
-34024.840,-32262.740,-94988.480,-90488.950,-26031.210,-27765.770,-27663.510,-28470.040,-0.151,0.923,-0.323,-4.547,1.953,0.397,73.333,596.000,1.000,9.368,0.000
-34098.910,-32329.090,-95269.850,-90738.280,-26102.400,-27823.050,-27710.210,-28520.510,-0.150,0.925,-0.323,-4.486,1.831,0.336,73.333,597.000,1.000,0.012,0.000
-34169.790,-32394.260,-95547.360,-90986.200,-26171.330,-27877.030,-27754.800,-28568.150,-0.150,0.927,-0.323,-4.425,1.831,0.336,73.333,598.000,1.000,1.863,0.000
-34241.290,-32459.350,-95824.540,-91237.090,-26242.950,-27933.270,-27799.920,-28616.280,-0.148,0.927,-0.322,-4.395,1.648,0.244,73.333,599.000,1.000,3.713,0.000
-34321.730,-32533.740,-96110.290,-91497.520,-26324.650,-27997.510,-27852.940,-28673.480,-0.147,0.928,-0.322,-4.242,1.587,0.092,73.333,600.000,1.000,8.843,0.000
-34407.840,-32614.900,-96400.520,-91762.080,-26410.530,-28061.550,-27907.150,-28733.730,-0.144,0.926,-0.322,-4.181,1.495,0.122,73.333,601.000,1.000,3.017,0.000
-34489.380,-32690.670,-96683.720,-92018.630,-26489.310,-28115.100,-27952.940,-28785.320,-0.145,0.922,-0.324,-4.089,1.465,0.183,73.333,602.000,1.000,0.011,0.000
-34568.810,-32761.860,-96962.870,-92269.950,-26564.660,-28165.500,-27996.350,-28832.240,-0.145,0.921,-0.321,-3.998,1.343,0.275,73.333,603.000,1.000,5.629,0.000
-34649.900,-32832.040,-97242.290,-92521.270,-26641.440,-28220.960,-28042.080,-28880.400,-0.146,0.919,-0.322,-3.815,1.282,0.153,73.333,604.000,1.000,8.848,0.000
-34728.610,-32899.090,-97518.410,-92769.090,-26715.680,-28276.290,-28085.750,-28927.080,-0.144,0.919,-0.321,-3.662,1.251,0.183,73.333,605.000,1.000,3.058,0.000
-34805.840,-32966.570,-97793.750,-93015.350,-26789.070,-28329.400,-28127.960,-28973.090,-0.147,0.925,-0.322,-3.510,1.160,0.092,73.333,606.000,1.000,0.006,0.000
-34884.930,-33037.810,-98072.090,-93264.340,-26866.570,-28385.330,-28173.130,-29022.380,-0.148,0.929,-0.321,-3.357,1.190,0.031,73.333,607.000,1.000,2.388,0.000
-34964.590,-33110.210,-98350.550,-93512.880,-26946.090,-28443.760,-28219.720,-29073.560,-0.146,0.930,-0.318,-3.204,1.129,0.122,73.333,608.000,1.000,0.010,0.000
-35041.800,-33181.000,-98624.770,-93756.840,-27022.660,-28500.320,-28262.800,-29122.090,-0.145,0.934,-0.319,-3.021,1.129,0.244,73.333,609.000,1.000,1.992,0.000
-35117.410,-33250.680,-98894.630,-93998.660,-27096.340,-28555.570,-28303.610,-29168.770,-0.143,0.937,-0.318,-3.021,1.160,0.153,73.333,610.000,1.000,11.179,0.000
-35194.810,-33321.590,-99164.270,-94243.570,-27171.710,-28614.740,-28347.020,-29217.860,-0.142,0.937,-0.318,-3.021,1.251,0.153,73.333,611.000,1.000,3.094,0.000
-35271.000,-33390.950,-99432.970,-94488.620,-27248.840,-28677.580,-28392.450,-29267.880,-0.138,0.939,-0.319,-2.991,1.312,0.336,73.333,612.000,1.000,0.009,0.000
-35344.800,-33458.080,-99698.660,-94730.470,-27326.380,-28741.650,-28440.020,-29319.020,-0.138,0.939,-0.320,-2.991,1.343,0.519,73.333,613.000,1.000,5.661,0.000
-35418.140,-33524.030,-99960.870,-94969.730,-27402.260,-28803.390,-28487.450,-29370.450,-0.139,0.940,-0.323,-2.991,1.434,0.580,73.333,614.000,1.000,3.112,0.000
-35486.140,-33583.540,-100215.300,-95201.770,-27470.510,-28856.450,-28526.510,-29414.190,-0.140,0.938,-0.322,-2.869,1.556,0.671,73.333,615.000,1.000,0.011,0.000
-35547.270,-33635.920,-100462.000,-95425.160,-27531.930,-28903.360,-28558.130,-29449.800,-0.142,0.936,-0.321,-2.899,1.648,0.763,73.333,616.000,1.000,1.922,0.000
-35609.290,-33688.880,-100709.400,-95647.400,-27594.740,-28952.870,-28590.930,-29486.190,-0.142,0.935,-0.324,-2.930,1.770,0.732,73.333,617.000,1.000,18.743,0.000
-35678.800,-33750.080,-100963.400,-95875.050,-27664.340,-29008.650,-28628.980,-29529.200,-0.142,0.937,-0.326,-2.777,1.892,0.641,73.333,618.000,1.000,2.433,0.000
-35753.760,-33818.890,-101221.000,-96106.680,-27739.150,-29068.250,-28672.050,-29578.120,-0.142,0.939,-0.325,-2.777,1.953,0.427,73.333,619.000,1.000,2.619,0.000
-35828.960,-33887.320,-101476.200,-96336.680,-27813.820,-29127.410,-28716.970,-29627.640,-0.143,0.941,-0.325,-2.777,2.075,0.397,73.333,620.000,1.000,2.423,0.000
-35902.590,-33951.140,-101726.200,-96562.980,-27884.340,-29182.980,-28760.610,-29673.940,-0.141,0.942,-0.324,-2.869,2.289,0.427,73.333,621.000,1.000,5.009,0.000
-35970.090,-34008.160,-101967.700,-96782.700,-27946.630,-29231.440,-28801.900,-29715.700,-0.141,0.944,-0.323,-2.991,2.411,0.305,73.333,622.000,1.000,5.061,0.000
-36028.460,-34057.500,-102200.400,-96993.660,-28001.620,-29272.100,-28838.370,-29751.210,-0.141,0.942,-0.323,-2.960,2.533,0.183,73.333,623.000,1.000,2.495,0.000
-36088.540,-34109.730,-102436.400,-97206.150,-28061.520,-29313.350,-28873.820,-29787.800,-0.141,0.942,-0.325,-2.960,2.716,0.092,73.333,624.000,1.000,3.018,0.000
-36158.650,-34172.110,-102683.800,-97429.180,-28133.480,-29362.330,-28915.800,-29834.610,-0.139,0.942,-0.325,-2.991,2.808,-0.031,73.333,625.000,1.000,0.012,0.000
-36231.590,-34235.890,-102933.700,-97654.950,-28208.610,-29412.410,-28959.470,-29885.000,-0.140,0.942,-0.327,-2.991,2.899,-0.153,73.333,626.000,1.000,1.891,0.000
-36300.850,-34295.960,-103177.500,-97875.350,-28278.560,-29457.580,-28996.880,-29930.060,-0.140,0.940,-0.325,-2.991,3.052,-0.305,73.333,627.000,1.000,13.804,0.000
-36369.000,-34356.740,-103418.700,-98093.970,-28347.100,-29503.440,-29032.620,-29973.620,-0.137,0.938,-0.326,-3.082,3.143,-0.305,73.333,628.000,1.000,3.001,0.000
-36436.860,-34417.140,-103659.300,-98312.160,-28416.360,-29551.710,-29070.200,-30018.120,-0.135,0.937,-0.326,-3.082,3.326,-0.519,73.333,629.000,1.000,0.025,0.000
-36501.040,-34474.220,-103895.400,-98525.900,-28481.830,-29598.390,-29106.200,-30059.270,-0.137,0.935,-0.326,-2.899,3.540,-0.580,73.333,630.000,1.000,1.888,0.000
-36563.220,-34532.340,-104128.400,-98736.550,-28545.980,-29646.070,-29142.640,-30098.410,-0.137,0.934,-0.329,-2.930,3.937,-0.671,73.333,631.000,1.000,2.610,0.000
-36627.710,-34594.320,-104362.500,-98948.020,-28614.280,-29697.770,-29181.600,-30139.530,-0.137,0.932,-0.327,-2.869,4.089,-0.793,73.333,632.000,1.000,3.716,0.000
-36696.080,-34659.230,-104598.900,-99162.510,-28687.850,-29752.790,-29223.170,-30184.280,-0.135,0.930,-0.323,-2.716,4.242,-0.763,73.333,633.000,1.000,11.756,0.000
-36765.000,-34724.180,-104834.100,-99377.190,-28763.570,-29808.370,-29266.880,-30230.240,-0.136,0.930,-0.325,-2.472,4.547,-0.793,73.333,634.000,1.000,0.009,0.000
-36827.410,-34782.730,-105061.900,-99584.860,-28833.740,-29858.450,-29306.880,-30270.800,-0.137,0.929,-0.325,-2.380,4.608,-0.793,73.333,635.000,1.000,2.581,0.000
-36882.970,-34833.510,-105282.300,-99784.880,-28895.750,-29901.890,-29340.590,-30305.530,-0.139,0.927,-0.324,-2.319,4.669,-0.854,73.333,636.000,1.000,0.007,0.000
-36938.450,-34882.570,-105500.500,-99982.320,-28955.180,-29944.520,-29371.650,-30339.590,-0.140,0.929,-0.327,-2.014,4.730,-0.854,73.333,637.000,1.000,9.617,0.000
-36998.340,-34935.610,-105720.100,-100181.000,-29017.360,-29991.440,-29404.800,-30376.180,-0.143,0.926,-0.327,-1.770,4.791,-0.916,73.333,638.000,1.000,7.789,0.000
-37060.700,-34991.470,-105940.700,-100381.200,-29082.220,-30041.600,-29442.760,-30415.460,-0.145,0.927,-0.328,-1.556,4.852,-1.007,73.333,639.000,1.000,0.007,0.000
-37120.890,-35045.240,-106158.800,-100579.500,-29146.790,-30090.430,-29482.940,-30455.190,-0.146,0.927,-0.327,-1.404,4.852,-1.099,73.333,640.000,1.000,2.542,0.000
-37176.330,-35094.860,-106372.000,-100772.500,-29207.740,-30135.950,-29519.020,-30491.110,-0.151,0.931,-0.325,-1.190,4.883,-1.251,73.333,641.000,1.000,0.006,0.000
-37228.690,-35141.800,-106581.200,-100961.300,-29263.960,-30179.810,-29549.090,-30521.970,-0.153,0.935,-0.323,-1.129,4.730,-1.343,73.333,642.000,1.000,3.156,0.000
-37287.450,-35193.860,-106795.300,-101154.600,-29322.820,-30229.410,-29582.850,-30557.060,-0.153,0.937,-0.326,-1.282,4.486,-1.373,73.333,643.000,1.000,14.296,0.000
-37354.610,-35253.190,-107016.500,-101354.300,-29387.540,-30285.730,-29623.890,-30599.660,-0.151,0.938,-0.324,-1.251,4.272,-1.495,73.333,644.000,1.000,0.013,0.000
-37416.460,-35308.990,-107231.300,-101548.400,-29447.910,-30336.110,-29661.750,-30638.670,-0.146,0.938,-0.326,-1.190,4.211,-1.556,73.333,645.000,1.000,14.414,0.000
-37467.360,-35356.330,-107433.500,-101731.600,-29499.730,-30376.050,-29692.820,-30670.500,-0.144,0.938,-0.326,-1.312,4.120,-1.556,73.333,646.000,1.000,0.016,0.000
-37518.530,-35403.060,-107634.600,-101915.200,-29552.920,-30415.620,-29724.670,-30703.530,-0.145,0.937,-0.327,-1.465,3.998,-1.373,73.333,647.000,1.000,0.004,0.000
-37575.830,-35453.050,-107840.600,-102103.900,-29611.370,-30458.570,-29759.140,-30740.240,-0.146,0.938,-0.327,-1.617,3.876,-1.282,73.333,648.000,1.000,3.111,0.000
-37633.290,-35501.020,-108044.800,-102289.100,-29667.080,-30497.610,-29788.810,-30774.100,-0.151,0.938,-0.328,-1.678,3.693,-1.343,73.333,649.000,1.000,0.008,0.000
-37689.780,-35546.350,-108245.900,-102470.400,-29719.890,-30531.440,-29813.590,-30805.090,-0.151,0.939,-0.327,-1.801,3.632,-1.312,73.333,650.000,1.000,1.952,0.000
-37747.930,-35593.360,-108447.900,-102653.900,-29776.140,-30566.400,-29839.700,-30838.540,-0.153,0.941,-0.328,-2.014,3.326,-1.160,73.333,651.000,1.000,8.603,0.000
-37808.680,-35644.310,-108652.300,-102840.700,-29837.360,-30606.390,-29869.840,-30876.350,-0.155,0.941,-0.325,-2.136,2.991,-1.099,73.333,652.000,1.000,13.696,0.000
-37866.940,-35693.500,-108853.500,-103025.500,-29896.400,-30645.110,-29899.460,-30913.240,-0.155,0.941,-0.324,-2.258,2.808,-1.190,73.333,653.000,1.000,0.014,0.000
-37916.510,-35734.790,-109045.600,-103203.100,-29947.030,-30675.540,-29923.430,-30944.760,-0.154,0.943,-0.330,-2.472,2.411,-1.160,73.333,654.000,1.000,0.005,0.000
-37966.290,-35778.040,-109238.000,-103380.700,-29999.640,-30708.450,-29949.110,-30978.500,-0.157,0.942,-0.328,-2.747,2.167,-1.190,73.333,655.000,1.000,12.004,0.000
-38023.190,-35829.520,-109437.200,-103562.300,-30060.910,-30751.510,-29981.000,-31016.510,-0.156,0.942,-0.327,-2.960,1.801,-1.160,73.333,656.000,1.000,0.024,0.000
-38082.700,-35883.050,-109638.500,-103743.500,-30124.940,-30796.810,-30014.120,-31053.470,-0.157,0.944,-0.333,-3.143,1.434,-1.099,73.333,657.000,1.000,1.761,0.000
-38140.860,-35936.160,-109838.100,-103922.500,-30188.190,-30839.660,-30045.820,-31088.780,-0.158,0.944,-0.334,-3.448,1.129,-1.099,73.333,658.000,1.000,2.535,0.000
-38193.730,-35985.520,-110030.900,-104095.300,-30246.340,-30878.410,-30072.580,-31118.900,-0.161,0.942,-0.332,-3.723,0.397,-1.007,73.333,659.000,1.000,2.555,0.000
-38243.050,-36029.800,-110216.500,-104261.500,-30298.520,-30913.470,-30094.640,-31143.910,-0.158,0.943,-0.329,-3.967,0.092,-1.068,73.333,660.000,1.000,2.471,0.000
-38296.740,-36077.420,-110404.200,-104429.600,-30353.540,-30953.170,-30121.660,-31173.510,-0.159,0.945,-0.329,-4.089,-0.183,-1.038,73.333,661.000,1.000,2.519,0.000
-38353.970,-36130.660,-110597.400,-104603.200,-30415.090,-31001.320,-30158.460,-31211.760,-0.156,0.940,-0.327,-4.211,-0.488,-0.946,73.333,662.000,1.000,2.480,0.000
-38406.920,-36180.140,-110787.100,-104774.700,-30474.900,-31048.900,-30196.770,-31250.990,-0.152,0.938,-0.328,-4.364,-0.885,-0.977,73.333,663.000,1.000,11.794,0.000
-38455.630,-36223.860,-110970.000,-104940.900,-30529.700,-31092.130,-30230.790,-31285.500,-0.150,0.936,-0.327,-4.517,-1.160,-0.977,73.333,664.000,1.000,0.016,0.000
-38503.570,-36267.140,-111150.500,-105105.000,-30583.350,-31135.260,-30261.390,-31316.580,-0.147,0.932,-0.330,-4.578,-1.312,-0.916,73.333,665.000,1.000,1.892,0.000
-38548.930,-36309.170,-111327.300,-105265.900,-30633.930,-31175.290,-30286.820,-31344.190,-0.147,0.932,-0.330,-4.639,-1.434,-0.885,73.333,666.000,1.000,5.070,0.000
-38591.530,-36348.390,-111498.800,-105422.800,-30680.720,-31210.990,-30309.940,-31369.330,-0.144,0.928,-0.331,-4.547,-1.526,-0.977,73.333,667.000,1.000,2.473,0.000
-38636.020,-36389.110,-111671.000,-105579.600,-30729.690,-31249.160,-30337.280,-31396.340,-0.135,0.923,-0.329,-4.425,-1.465,-0.916,73.333,668.000,1.000,3.736,0.000
-38684.210,-36434.000,-111847.600,-105738.300,-30782.580,-31291.350,-30367.200,-31425.830,-0.132,0.921,-0.329,-4.242,-1.251,-0.824,73.333,669.000,1.000,16.806,0.000
-38732.290,-36479.030,-112024.400,-105897.000,-30835.030,-31333.260,-30395.990,-31455.500,-0.128,0.920,-0.327,-3.998,-1.007,-0.641,73.333,670.000,1.000,0.015,0.000
-38776.530,-36518.930,-112195.200,-106052.300,-30883.100,-31372.360,-30422.810,-31484.250,-0.131,0.918,-0.327,-3.815,-0.793,-0.610,73.333,671.000,1.000,2.549,0.000
-38816.250,-36553.860,-112359.500,-106202.100,-30925.090,-31407.230,-30445.380,-31510.810,-0.132,0.917,-0.324,-3.510,-0.519,-0.488,73.333,672.000,1.000,0.010,0.000
-38852.390,-36587.400,-112520.600,-106348.100,-30962.510,-31437.980,-30464.060,-31534.600,-0.132,0.916,-0.324,-2.991,-0.244,-0.305,73.333,673.000,1.000,6.887,0.000
-38888.520,-36622.190,-112681.800,-106494.700,-31000.780,-31468.610,-30484.000,-31558.910,-0.136,0.920,-0.326,-2.777,-0.122,-0.336,73.333,674.000,1.000,5.040,0.000
-38928.540,-36657.880,-112844.300,-106643.500,-31041.980,-31500.160,-30506.190,-31585.740,-0.137,0.923,-0.323,-2.472,0.183,-0.244,73.333,675.000,1.000,2.450,0.000
-38972.950,-36693.980,-113008.100,-106793.700,-31084.610,-31530.430,-30528.280,-31613.590,-0.138,0.926,-0.324,-2.228,0.488,-0.153,73.333,676.000,1.000,7.462,0.000
-39019.960,-36732.050,-113173.100,-106944.800,-31129.090,-31559.980,-30551.400,-31641.610,-0.139,0.927,-0.323,-2.106,0.580,-0.214,73.333,677.000,1.000,2.510,0.000
-39069.250,-36773.670,-113340.600,-107097.000,-31177.750,-31592.250,-30578.520,-31670.960,-0.140,0.928,-0.323,-1.770,0.885,-0.214,73.333,678.000,1.000,2.591,0.000
-39122.570,-36820.160,-113512.700,-107252.600,-31231.750,-31629.560,-30610.150,-31702.800,-0.136,0.929,-0.320,-1.617,1.099,-0.153,73.333,679.000,1.000,2.457,0.000
-39177.820,-36868.890,-113686.100,-107408.700,-31287.110,-31667.690,-30640.950,-31733.590,-0.140,0.932,-0.321,-1.495,1.434,-0.244,73.333,680.000,1.000,2.514,0.000
-39232.700,-36917.050,-113859.300,-107564.100,-31342.650,-31703.350,-30669.060,-31763.140,-0.139,0.935,-0.320,-1.373,1.526,-0.305,73.333,681.000,1.000,2.453,0.000
-39282.780,-36960.240,-114028.600,-107716.400,-31395.990,-31733.710,-30692.920,-31790.870,-0.141,0.936,-0.326,-1.282,1.740,-0.336,73.333,682.000,1.000,6.244,0.000
-39321.740,-36992.450,-114184.700,-107858.000,-31439.740,-31753.770,-30706.650,-31810.310,-0.141,0.937,-0.325,-1.190,1.923,-0.397,73.333,683.000,1.000,2.526,0.000
-39356.160,-37021.190,-114332.800,-107993.500,-31479.670,-31771.530,-30717.900,-31827.290,-0.142,0.939,-0.326,-1.190,2.228,-0.488,73.333,684.000,1.000,2.425,0.000
-39396.270,-37057.240,-114486.700,-108133.500,-31527.600,-31799.980,-30738.600,-31852.090,-0.142,0.937,-0.323,-1.190,2.472,-0.458,73.333,685.000,1.000,2.556,0.000
-39441.250,-37098.060,-114646.300,-108277.200,-31581.670,-31835.880,-30765.500,-31881.610,-0.142,0.936,-0.323,-1.160,2.686,-0.427,73.333,686.000,1.000,9.364,0.000
-39485.570,-37136.580,-114801.700,-108416.600,-31632.380,-31868.360,-30789.000,-31907.680,-0.140,0.938,-0.324,-1.099,2.991,-0.519,73.333,687.000,1.000,0.012,0.000
-39526.590,-37171.490,-114949.700,-108549.400,-31676.420,-31896.020,-30806.630,-31929.400,-0.140,0.939,-0.323,-1.160,3.174,-0.458,73.333,688.000,1.000,1.800,0.000
-39565.640,-37205.070,-115094.600,-108679.300,-31717.380,-31922.650,-30822.340,-31951.100,-0.141,0.938,-0.325,-1.129,3.387,-0.488,73.333,689.000,1.000,7.645,0.000
-39606.220,-37239.080,-115240.700,-108810.400,-31758.820,-31950.190,-30839.300,-31973.890,-0.141,0.937,-0.323,-1.160,3.510,-0.427,73.333,690.000,1.000,2.475,0.000
-39650.090,-37274.570,-115389.300,-108944.600,-31802.570,-31980.130,-30859.430,-31998.120,-0.142,0.936,-0.326,-1.190,3.723,-0.427,73.333,691.000,1.000,2.488,0.000
-39693.140,-37309.140,-115537.100,-109079.000,-31846.670,-32010.060,-30880.380,-32022.990,-0.143,0.937,-0.327,-1.251,3.784,-0.519,73.333,692.000,1.000,7.457,0.000
-39731.290,-37340.110,-115680.800,-109209.100,-31888.230,-32037.500,-30898.150,-32045.290,-0.143,0.936,-0.325,-1.251,3.998,-0.519,73.333,693.000,1.000,8.209,0.000
-39766.360,-37369.870,-115821.700,-109337.000,-31928.570,-32065.090,-30914.870,-32065.540,-0.143,0.937,-0.327,-1.495,4.089,-0.580,73.333,694.000,1.000,0.044,0.000
-39799.450,-37399.810,-115959.400,-109464.100,-31967.560,-32093.010,-30932.200,-32084.790,-0.144,0.938,-0.324,-1.495,4.242,-0.549,73.333,695.000,1.000,1.791,0.000
-39831.710,-37430.790,-116094.100,-109589.000,-32005.560,-32121.870,-30950.330,-32103.860,-0.145,0.938,-0.327,-1.556,4.303,-0.519,73.333,696.000,1.000,2.961,0.000
-39866.840,-37464.870,-116229.000,-109712.300,-32045.320,-32154.440,-30969.570,-32124.190,-0.146,0.940,-0.326,-1.648,4.364,-0.580,73.333,697.000,1.000,0.011,0.000
-39903.870,-37498.450,-116363.500,-109832.800,-32084.680,-32186.490,-30986.610,-32144.010,-0.147,0.941,-0.325,-1.831,4.364,-0.641,73.333,698.000,1.000,5.665,0.000
-39939.910,-37528.080,-116497.500,-109950.600,-32122.210,-32214.640,-31001.910,-32163.940,-0.151,0.942,-0.325,-1.862,4.242,-0.671,73.333,699.000,1.000,13.814,0.000
-39976.130,-37556.450,-116632.900,-110069.600,-32160.640,-32242.650,-31019.590,-32186.820,-0.153,0.943,-0.325,-2.075,4.059,-0.702,73.333,700.000,1.000,7.446,0.000
-40012.220,-37585.030,-116767.200,-110189.600,-32198.240,-32271.060,-31037.540,-32208.670,-0.152,0.940,-0.327,-2.258,3.906,-0.702,73.333,701.000,1.000,0.013,0.000
-40045.810,-37612.250,-116897.000,-110306.600,-32231.260,-32295.440,-31050.910,-32223.500,-0.151,0.939,-0.327,-2.441,3.723,-0.732,73.333,702.000,1.000,0.005,0.000
-40079.170,-37638.390,-117024.400,-110421.200,-32261.790,-32313.850,-31060.740,-32233.570,-0.153,0.938,-0.327,-2.533,3.601,-0.793,73.333,703.000,1.000,2.571,0.000
-40116.450,-37667.380,-117153.800,-110538.200,-32296.250,-32330.790,-31074.480,-32248.220,-0.154,0.935,-0.328,-2.777,3.387,-0.824,73.333,704.000,1.000,2.452,0.000
-40155.700,-37700.430,-117286.200,-110659.700,-32337.970,-32350.970,-31096.170,-32271.840,-0.157,0.933,-0.327,-2.869,3.174,-0.824,73.333,705.000,1.000,4.998,0.000
-40193.800,-37735.350,-117421.100,-110784.100,-32385.050,-32374.530,-31121.680,-32299.890,-0.159,0.932,-0.329,-2.930,2.777,-0.824,73.333,706.000,1.000,2.540,0.000
-40231.160,-37770.800,-117555.800,-110907.400,-32432.610,-32399.600,-31144.180,-32325.470,-0.161,0.932,-0.329,-3.082,2.563,-0.824,73.333,707.000,1.000,5.015,0.000
-40265.110,-37802.860,-117684.600,-111023.800,-32474.350,-32422.450,-31158.620,-32342.850,-0.158,0.930,-0.330,-3.113,2.258,-0.732,73.333,708.000,1.000,2.426,0.000
-40294.920,-37830.110,-117807.600,-111133.400,-32510.790,-32443.350,-31169.410,-32355.730,-0.156,0.929,-0.331,-3.204,1.953,-0.854,73.333,709.000,1.000,3.701,0.000
-40325.850,-37856.650,-117929.500,-111241.200,-32547.300,-32465.280,-31182.570,-32370.850,-0.154,0.928,-0.331,-3.296,1.709,-0.824,73.333,710.000,1.000,8.765,0.000
-40356.740,-37881.660,-118047.700,-111345.600,-32580.930,-32484.960,-31193.920,-32384.380,-0.154,0.926,-0.330,-3.082,1.434,-0.702,73.333,711.000,1.000,4.362,0.000
-40385.690,-37904.960,-118162.300,-111447.200,-32611.050,-32502.650,-31203.310,-32395.710,-0.155,0.926,-0.331,-3.113,1.099,-0.671,73.333,712.000,1.000,0.005,0.000
-40419.020,-37933.790,-118282.100,-111555.400,-32647.840,-32526.870,-31219.470,-32414.560,-0.154,0.927,-0.329,-3.021,0.977,-0.671,73.333,713.000,1.000,11.211,0.000
-40456.960,-37968.090,-118407.300,-111670.500,-32692.410,-32558.720,-31242.820,-32442.790,-0.154,0.927,-0.332,-3.143,0.702,-0.458,73.333,714.000,1.000,0.013,0.000
-40491.650,-37999.070,-118528.000,-111781.500,-32733.630,-32589.710,-31263.970,-32469.760,-0.154,0.926,-0.330,-3.082,0.397,-0.610,73.333,715.000,1.000,22.568,0.000
-40519.920,-38023.580,-118640.100,-111884.000,-32766.720,-32615.980,-31278.630,-32488.240,-0.157,0.927,-0.330,-2.930,0.153,-0.641,73.333,716.000,1.000,0.025,0.000
-40545.230,-38046.160,-118750.200,-111984.200,-32797.810,-32641.840,-31292.630,-32503.160,-0.156,0.931,-0.331,-2.869,-0.092,-0.549,73.333,717.000,1.000,0.003,0.000
-40570.280,-38069.580,-118863.000,-112085.600,-32830.540,-32668.760,-31308.830,-32519.250,-0.154,0.935,-0.329,-2.838,-0.275,-0.610,73.333,718.000,1.000,0.003,0.000
-40593.620,-38090.450,-118973.500,-112183.300,-32859.930,-32691.660,-31319.950,-32530.930,-0.154,0.938,-0.325,-2.838,-0.427,-0.580,73.333,719.000,1.000,1.984,0.000
-40614.270,-38106.070,-119077.000,-112274.200,-32882.860,-32708.090,-31322.880,-32535.580,-0.153,0.939,-0.328,-2.808,-0.641,-0.427,73.333,720.000,1.000,7.249,0.000
-40637.840,-38122.300,-119178.200,-112365.100,-32905.450,-32724.920,-31326.270,-32541.800,-0.150,0.941,-0.326,-2.716,-0.671,-0.397,73.333,721.000,1.000,0.011,0.000
-40669.140,-38144.920,-119282.600,-112461.100,-32932.750,-32747.570,-31336.540,-32554.900,-0.148,0.941,-0.327,-2.777,-0.763,-0.336,73.333,722.000,1.000,0.003,0.000
-40703.460,-38171.090,-119388.400,-112558.500,-32962.640,-32773.220,-31351.930,-32571.790,-0.148,0.939,-0.326,-2.869,-0.824,-0.183,73.333,723.000,1.000,2.540,0.000
-40733.380,-38195.890,-119492.100,-112651.500,-32991.060,-32797.880,-31366.880,-32585.990,-0.144,0.938,-0.329,-2.777,-0.732,-0.061,73.333,724.000,1.000,2.495,0.000
-40757.630,-38217.950,-119593.300,-112738.900,-33016.310,-32818.360,-31377.680,-32594.090,-0.143,0.937,-0.326,-2.686,-0.702,-0.061,73.333,725.000,1.000,2.498,0.000
-40781.650,-38240.170,-119695.500,-112826.600,-33042.460,-32834.720,-31387.240,-32601.500,-0.142,0.936,-0.325,-2.594,-0.580,-0.031,73.333,726.000,1.000,2.452,0.000
-40807.920,-38263.700,-119799.900,-112918.800,-33072.820,-32848.840,-31398.660,-32612.950,-0.142,0.934,-0.323,-2.563,-0.458,0.183,73.333,727.000,1.000,6.281,0.000
-40833.590,-38285.960,-119902.500,-113012.200,-33104.960,-32860.490,-31410.850,-32626.590,-0.141,0.933,-0.324,-2.472,-0.336,0.183,73.333,728.000,1.000,11.854,0.000
-40857.960,-38306.820,-120002.600,-113105.700,-33137.350,-32869.820,-31420.530,-32638.980,-0.142,0.931,-0.323,-2.350,-0.183,0.275,73.333,729.000,1.000,0.012,0.000
-40882.220,-38328.240,-120103.400,-113199.900,-33170.820,-32879.610,-31427.320,-32650.320,-0.143,0.928,-0.326,-2.136,-0.031,0.153,73.333,730.000,1.000,5.029,0.000
-40905.670,-38349.140,-120203.800,-113291.500,-33204.090,-32891.320,-31434.310,-32663.430,-0.141,0.927,-0.325,-2.075,0.244,0.214,73.333,731.000,1.000,0.008,0.000
-40930.440,-38370.520,-120303.300,-113380.200,-33237.630,-32906.510,-31445.780,-32680.650,-0.144,0.927,-0.328,-1.862,0.458,0.275,73.333,732.000,1.000,1.893,0.000
-40959.540,-38395.740,-120403.800,-113469.300,-33274.040,-32926.620,-31462.570,-32700.350,-0.142,0.926,-0.325,-1.617,0.610,0.183,73.333,733.000,1.000,30.023,0.000
-40989.230,-38422.330,-120503.000,-113557.500,-33310.520,-32947.330,-31478.900,-32716.770,-0.141,0.926,-0.326,-1.404,0.793,0.092,73.333,734.000,1.000,3.091,0.000
-41014.300,-38445.330,-120597.400,-113641.500,-33342.110,-32963.880,-31490.980,-32728.570,-0.141,0.926,-0.329,-1.251,1.007,-0.031,73.333,735.000,1.000,0.006,0.000
-41035.820,-38464.210,-120688.200,-113722.900,-33369.650,-32977.460,-31500.130,-32739.210,-0.139,0.930,-0.329,-1.038,1.251,-0.122,73.333,736.000,1.000,1.839,0.000
-41057.200,-38481.610,-120778.700,-113803.600,-33396.750,-32992.310,-31507.710,-32750.100,-0.137,0.932,-0.329,-0.885,1.556,-0.153,73.333,737.000,1.000,2.577,0.000
-41076.010,-38496.310,-120866.300,-113881.000,-33421.130,-33007.130,-31512.020,-32758.120,-0.137,0.932,-0.325,-0.854,1.740,-0.153,73.333,738.000,1.000,2.410,0.000
-41091.810,-38508.130,-120949.000,-113955.100,-33441.910,-33020.250,-31513.580,-32763.480,-0.138,0.936,-0.325,-0.671,1.831,-0.305,73.333,739.000,1.000,8.741,0.000
-41111.250,-38523.700,-121032.900,-114031.700,-33465.870,-33036.650,-31518.520,-32772.670,-0.138,0.934,-0.328,-0.732,2.075,-0.336,73.333,740.000,1.000,2.532,0.000
-41133.300,-38542.650,-121118.900,-114110.000,-33493.500,-33055.410,-31527.070,-32785.130,-0.141,0.936,-0.324,-0.854,2.289,-0.305,73.333,741.000,1.000,2.499,0.000
-41152.380,-38559.750,-121203.300,-114185.600,-33520.330,-33071.940,-31535.320,-32795.690,-0.143,0.936,-0.324,-0.885,2.472,-0.366,73.333,742.000,1.000,2.527,0.000
-41171.180,-38577.790,-121288.400,-114260.600,-33548.220,-33089.580,-31544.620,-32805.810,-0.144,0.938,-0.325,-1.038,2.502,-0.488,73.333,743.000,1.000,5.017,0.000
-41191.900,-38597.330,-121373.500,-114335.300,-33576.580,-33109.190,-31554.030,-32815.420,-0.144,0.937,-0.327,-1.129,2.441,-0.549,73.333,744.000,1.000,13.655,0.000
-41210.510,-38613.090,-121453.100,-114404.900,-33599.450,-33125.620,-31560.400,-32821.000,-0.146,0.938,-0.330,-1.251,2.594,-0.610,73.333,745.000,1.000,2.577,0.000
-41224.090,-38624.170,-121526.400,-114467.800,-33615.760,-33136.950,-31563.750,-32822.070,-0.149,0.939,-0.329,-1.343,2.472,-0.702,73.333,746.000,1.000,2.512,0.000
-41237.360,-38635.940,-121599.900,-114530.400,-33632.730,-33147.710,-31567.390,-32823.460,-0.151,0.937,-0.328,-1.526,2.502,-0.641,73.333,747.000,1.000,2.472,0.000
-41255.530,-38651.090,-121677.700,-114597.900,-33654.680,-33160.990,-31574.160,-32828.960,-0.151,0.938,-0.329,-1.740,2.319,-0.824,73.333,748.000,1.000,2.490,0.000
-41276.680,-38665.700,-121756.600,-114667.300,-33676.910,-33172.070,-31580.830,-32834.720,-0.154,0.939,-0.332,-1.923,2.167,-0.854,73.333,749.000,1.000,3.120,0.000
-41296.940,-38677.230,-121832.800,-114734.500,-33695.800,-33177.880,-31583.650,-32836.970,-0.153,0.939,-0.333,-2.167,1.984,-0.854,73.333,750.000,1.000,0.008,0.000
-41312.050,-38684.470,-121903.000,-114797.200,-33710.290,-33178.540,-31581.760,-32836.110,-0.156,0.936,-0.332,-2.258,1.801,-0.946,73.333,751.000,1.000,1.830,0.000
-41324.790,-38691.770,-121971.200,-114859.600,-33725.880,-33180.560,-31581.080,-32839.220,-0.154,0.939,-0.332,-2.502,1.617,-0.977,73.333,752.000,1.000,2.492,0.000
-41344.310,-38708.890,-122047.500,-114929.400,-33752.100,-33193.670,-31589.450,-32852.930,-0.155,0.937,-0.331,-2.686,1.434,-0.946,73.333,753.000,1.000,2.522,0.000
-41366.960,-38731.450,-122128.000,-115000.700,-33783.740,-33211.340,-31602.390,-32869.450,-0.155,0.938,-0.332,-2.777,1.160,-0.854,73.333,754.000,1.000,2.558,0.000
-41386.200,-38750.580,-122203.800,-115065.700,-33812.390,-33225.780,-31613.660,-32881.980,-0.156,0.938,-0.331,-3.021,1.068,-0.885,73.333,755.000,1.000,2.456,0.000
-41405.480,-38768.730,-122278.600,-115128.300,-33840.930,-33241.110,-31624.010,-32894.150,-0.156,0.937,-0.334,-3.143,0.702,-0.702,73.333,756.000,1.000,5.510,0.000
-41423.130,-38784.460,-122351.900,-115188.800,-33867.650,-33254.390,-31629.630,-32903.520,-0.156,0.939,-0.332,-3.387,0.519,-0.671,73.333,757.000,1.000,0.051,0.000
-41434.900,-38792.540,-122417.400,-115243.600,-33886.750,-33260.660,-31628.750,-32906.840,-0.157,0.940,-0.336,-3.601,0.183,-0.763,73.333,758.000,1.000,1.999,0.000
-41443.550,-38795.660,-122477.500,-115295.600,-33901.180,-33265.930,-31628.910,-32909.210,-0.159,0.938,-0.336,-3.784,-0.214,-0.641,73.333,759.000,1.000,5.506,0.000
-41452.720,-38800.410,-122538.400,-115349.900,-33918.010,-33275.370,-31632.650,-32913.560,-0.158,0.937,-0.334,-3.937,-0.549,-0.671,73.333,760.000,1.000,0.013,0.000
