EEG 1, EEG 2, EEG 3, EEG 4, EEG 5, EEG 6, EEG 7, EEG 8, ACC X, ACC Y, ACC Z, GYR X, GYR Y, GYR Z, BAT, CNT, VALID, DT, TRIG
750000.100,750000.100,121720.700,642822.700,750000.100,750000.100,750000.100,750000.100,-0.173,0.902,-0.308,0.000,0.000,0.000,73.333,1.000,1.000,0.000,0.000
750000.100,750000.100,190964.100,542545.100,480489.800,665176.300,750000.100,750000.100,-0.170,0.921,-0.320,0.000,0.000,0.000,73.333,2.000,1.000,13.092,0.000
536043.600,750000.100,354160.800,628476.900,-128807.800,291148.400,750000.100,660548.400,-0.172,0.927,-0.323,0.000,0.000,0.000,73.333,3.000,1.000,11.806,0.000
471902.700,750000.100,615667.800,696148.900,-280370.100,207106.600,750000.100,602927.100,-0.173,0.931,-0.324,0.000,0.000,0.000,73.333,4.000,1.000,0.013,0.000
498575.900,674640.300,572719.900,750000.100,-411013.600,252774.700,750000.100,671535.700,-0.173,0.934,-0.330,-2.899,5.157,-1.617,73.333,5.000,1.000,1.893,0.000
399908.100,376631.900,581182.500,750000.100,-748719.000,420161.100,750000.100,739850.900,-0.172,0.935,-0.332,-3.143,3.967,-0.488,73.333,6.000,1.000,2.563,0.000
411690.000,169770.800,671252.300,750000.100,-750000.100,516118.700,750000.100,750000.100,-0.168,0.935,-0.336,-2.380,1.526,0.183,73.333,7.000,1.000,2.463,0.000
750000.100,607003.300,750000.100,750000.100,225668.200,555495.900,750000.100,750000.100,-0.167,0.938,-0.337,-1.984,0.244,0.427,73.333,8.000,1.000,6.269,0.000
750000.100,750000.100,750000.100,750000.100,750000.100,750000.100,750000.100,750000.100,-0.167,0.939,-0.338,-1.892,-0.519,0.366,73.333,9.000,1.000,4.341,0.000
750000.100,750000.100,750000.100,750000.100,750000.100,750000.100,750000.100,750000.100,-0.164,0.937,-0.340,-2.075,-1.129,0.122,73.333,10.000,1.000,0.016,0.000
750000.100,750000.100,750000.100,750000.100,750000.100,750000.100,750000.100,750000.100,-0.160,0.935,-0.339,-2.228,-1.709,-0.122,73.333,11.000,1.000,15.676,0.000
750000.100,750000.100,750000.100,750000.100,750000.100,750000.100,750000.100,750000.100,-0.160,0.933,-0.340,-2.594,-2.106,-0.214,73.333,12.000,1.000,3.051,0.000
750000.100,750000.100,750000.100,750000.100,750000.100,750000.100,750000.100,750000.100,-0.158,0.930,-0.342,-2.655,-2.472,-0.427,73.333,13.000,1.000,0.015,0.000
750000.100,750000.100,750000.100,750000.100,750000.100,750000.100,696928.600,734068.000,-0.154,0.927,-0.342,-2.899,-2.716,-0.610,73.333,14.000,1.000,1.862,0.000
750000.100,744663.400,750000.100,750000.100,667681.800,635821.500,590169.300,621069.400,-0.155,0.928,-0.345,-2.960,-3.082,-0.946,73.333,15.000,1.000,2.572,0.000
683406.800,637385.900,750000.100,750000.100,571761.100,544312.800,505727.400,531692.500,-0.155,0.928,-0.345,-3.143,-3.204,-1.190,73.333,16.000,1.000,4.997,0.000
589589.300,549825.100,750000.100,750000.100,493237.000,469471.100,436578.700,458557.300,-0.152,0.928,-0.345,-3.204,-3.387,-1.343,73.333,17.000,1.000,2.404,0.000
511452.800,476804.800,750000.100,750000.100,427863.600,407127.800,379031.000,397704.700,-0.152,0.926,-0.346,-3.418,-3.387,-1.648,73.333,18.000,1.000,3.743,0.000
445960.900,415565.900,750000.100,750000.100,373269.300,355072.100,330871.000,346989.700,-0.150,0.924,-0.347,-3.540,-3.601,-1.862,73.333,19.000,1.000,6.887,0.000
391918.100,365131.900,750000.100,750000.100,328206.400,312194.700,290932.200,304989.900,-0.148,0.923,-0.343,-3.510,-3.418,-1.923,73.333,20.000,1.000,0.023,0.000
359401.200,334911.500,750000.100,750000.100,301003.300,286285.900,266888.300,279645.500,-0.147,0.921,-0.344,-3.662,-3.296,-2.075,73.333,21.000,1.000,1.885,0.000
346961.500,323294.800,750000.100,750000.100,290526.400,276344.400,257626.600,269882.300,-0.146,0.920,-0.345,-3.662,-3.143,-2.167,73.333,22.000,1.000,13.715,0.000
337552.500,314470.200,750000.100,750000.100,282630.300,268842.600,250662.900,262521.800,-0.146,0.918,-0.344,-3.723,-3.052,-1.984,73.333,23.000,1.000,3.078,0.000
328951.300,306424.300,750000.100,750000.100,275514.200,261988.700,244331.900,255873.600,-0.146,0.919,-0.346,-3.754,-2.716,-1.953,73.333,24.000,1.000,0.014,0.000
320975.500,298988.000,750000.100,750000.100,268942.400,255652.700,238451.300,249716.300,-0.147,0.921,-0.344,-3.754,-2.197,-1.740,73.333,25.000,1.000,1.947,0.000
313542.000,292073.300,750000.100,750000.100,262708.800,249749.100,232925.800,243899.500,-0.149,0.924,-0.342,-3.754,-1.770,-1.556,73.333,26.000,1.000,3.764,0.000
306634.000,285650.900,750000.100,750000.100,256832.800,244243.600,227745.300,238438.000,-0.150,0.924,-0.348,-3.784,-1.434,-1.434,73.333,27.000,1.000,3.643,0.000
300266.200,279724.300,750000.100,750000.100,251466.200,239173.800,222981.100,233442.100,-0.153,0.926,-0.345,-3.784,-1.007,-1.343,73.333,28.000,1.000,14.339,0.000
294414.700,274261.600,750000.100,750000.100,246633.700,234541.300,218646.800,228926.000,-0.156,0.925,-0.345,-3.784,-0.671,-1.221,73.333,29.000,1.000,0.014,0.000
288942.300,269148.400,750000.100,750000.100,242129.800,230220.400,214613.400,224705.000,-0.155,0.927,-0.348,-3.662,-0.275,-1.099,73.333,30.000,1.000,4.443,0.000
283769.500,264340.800,750000.100,750000.100,237788.200,226126.400,210767.400,220650.600,-0.155,0.928,-0.348,-3.540,0.122,-0.916,73.333,31.000,1.000,5.080,0.000
278912.100,259835.600,750000.100,750000.100,233651.700,222270.600,207133.500,216813.400,-0.156,0.928,-0.345,-3.448,0.458,-0.763,73.333,32.000,1.000,2.449,0.000
274407.000,255649.300,750000.100,750000.100,229847.100,218686.600,203764.000,213287.000,-0.156,0.927,-0.347,-3.357,0.946,-0.610,73.333,33.000,1.000,2.515,0.000
270229.800,251748.000,750000.100,750000.100,226411.700,215394.700,200683.500,210083.400,-0.156,0.927,-0.340,-3.296,1.282,-0.305,73.333,34.000,1.000,2.488,0.000
266293.900,248063.300,750000.100,750000.100,223188.300,212295.900,197800.300,207069.800,-0.157,0.925,-0.339,-3.204,1.831,-0.122,73.333,35.000,1.000,4.364,0.000
262549.200,244591.200,750000.100,750000.100,220043.800,209330.700,195029.300,204145.700,-0.156,0.924,-0.339,-3.174,2.319,0.122,73.333,36.000,1.000,0.019,0.000
258992.500,241294.300,750000.100,750000.100,216992.300,206492.000,192357.300,201321.400,-0.154,0.925,-0.338,-3.052,2.777,0.336,73.333,37.000,1.000,8.151,0.000
255696.800,238211.000,750000.100,741098.600,214199.200,203864.400,189892.300,198743.000,-0.152,0.926,-0.341,-3.113,3.113,0.671,73.333,38.000,1.000,2.988,0.000
252648.800,235369.700,750000.100,731424.900,211699.100,201452.400,187653.100,196419.400,-0.151,0.928,-0.339,-2.960,3.632,0.885,73.333,39.000,1.000,0.013,0.000
249737.700,232634.500,750000.100,722262.500,209326.400,199154.800,185530.600,194205.500,-0.151,0.927,-0.341,-3.052,4.242,1.251,73.333,40.000,1.000,8.157,0.000
246954.100,230041.000,750000.100,713529.300,206978.100,196922.200,183457.600,192020.000,-0.154,0.925,-0.339,-2.991,4.578,1.617,73.333,41.000,1.000,2.559,0.000
244293.500,227573.400,750000.100,705215.600,204678.300,194774.500,181447.900,189895.900,-0.157,0.924,-0.341,-3.082,5.066,1.862,73.333,42.000,1.000,2.484,0.000
241818.400,225267.400,750000.100,697420.900,202577.700,192785.500,179593.700,187959.500,-0.158,0.923,-0.344,-2.930,5.402,2.014,73.333,43.000,1.000,13.804,0.000
239530.800,223108.000,745831.900,690132.900,200711.400,190963.700,177912.400,186224.500,-0.157,0.921,-0.345,-2.838,5.585,2.197,73.333,44.000,1.000,9.228,0.000
237348.300,221057.500,738165.800,683207.800,198948.100,189236.500,176320.200,184571.600,-0.157,0.921,-0.346,-2.777,6.073,2.258,73.333,45.000,1.000,0.022,0.000
235228.600,219099.200,730842.300,676553.800,197170.900,187544.200,174753.400,182924.300,-0.159,0.925,-0.344,-2.686,6.317,2.289,73.333,46.000,1.000,1.877,0.000
233206.800,217236.700,723867.900,670203.900,195422.900,185919.900,173235.800,181319.200,-0.157,0.929,-0.346,-2.655,6.561,2.411,73.333,47.000,1.000,2.552,0.000
231330.400,215489.900,717282.800,664236.500,193832.300,184415.100,171818.800,179844.800,-0.157,0.932,-0.347,-2.625,6.714,2.441,73.333,48.000,1.000,2.451,0.000
229582.900,213831.100,711064.800,658637.400,192420.200,183028.400,170528.900,178520.500,-0.158,0.934,-0.348,-2.655,6.805,2.411,73.333,49.000,1.000,5.011,0.000
227915.000,212271.200,705150.600,653293.100,191084.000,181719.300,169315.100,177253.900,-0.157,0.933,-0.346,-2.777,6.836,2.380,73.333,50.000,1.000,2.516,0.000
226296.300,210774.200,699483.300,648135.300,189719.500,180433.600,168113.800,175974.700,-0.159,0.929,-0.346,-2.991,6.836,2.289,73.333,51.000,1.000,2.501,0.000
224761.000,209364.400,694079.800,643205.400,188370.100,179200.100,166952.700,174730.800,-0.162,0.921,-0.346,-3.174,6.592,2.319,73.333,52.000,1.000,2.504,0.000
223311.500,207995.800,688944.400,638551.900,187127.800,178042.900,165855.000,173579.700,-0.165,0.915,-0.345,-3.052,6.470,2.167,73.333,53.000,1.000,8.754,0.000
221963.100,206729.400,684096.800,634195.300,186046.000,176987.800,164873.000,172566.000,-0.167,0.911,-0.343,-2.991,6.317,1.831,73.333,54.000,1.000,3.097,0.000
220660.800,205508.000,679464.400,630025.900,185013.900,175979.900,163941.500,171592.500,-0.170,0.906,-0.341,-3.052,5.890,1.740,73.333,55.000,1.000,0.011,0.000
219369.400,204321.200,674987.900,625954.800,183921.700,174961.500,162985.500,170573.000,-0.173,0.904,-0.346,-2.838,5.402,1.312,73.333,56.000,1.000,5.587,0.000
218129.600,203187.400,670700.100,622041.800,182824.000,173970.700,162045.100,169566.100,-0.174,0.911,-0.350,-2.625,5.005,0.916,73.333,57.000,1.000,2.523,0.000
216969.900,202109.700,666624.800,618351.300,181827.500,173046.100,161171.600,168650.400,-0.171,0.922,-0.349,-2.411,4.303,0.671,73.333,58.000,1.000,2.464,0.000
215925.700,201123.100,662795.600,614922.700,180998.900,172229.400,160415.800,167872.000,-0.171,0.929,-0.348,-2.350,3.632,0.366,73.333,59.000,1.000,6.317,0.000
214919.500,200173.400,659129.600,611632.600,180207.900,171445.600,159695.000,167121.400,-0.174,0.933,-0.345,-2.533,2.930,0.031,73.333,60.000,1.000,9.338,0.000
213918.200,199261.700,655580.300,608411.900,179355.900,170653.600,158954.600,166326.800,-0.177,0.933,-0.343,-2.869,2.258,-0.305,73.333,61.000,1.000,0.015,0.000
212943.100,198360.300,652157.100,605294.600,178476.600,169860.400,158208.200,165521.000,-0.179,0.936,-0.345,-2.960,1.617,-0.519,73.333,62.000,1.000,2.463,0.000
212051.500,197535.900,648921.800,602369.500,177700.200,169132.500,157529.800,164809.100,-0.179,0.941,-0.344,-3.418,0.916,-0.793,73.333,63.000,1.000,0.015,0.000
211230.700,196740.300,645869.500,599641.600,177056.100,168484.600,156941.600,164210.800,-0.176,0.944,-0.351,-3.754,-0.031,-0.977,73.333,64.000,1.000,11.824,0.000
210437.200,195980.600,642937.300,597019.500,176443.600,167862.100,156377.600,163634.500,-0.173,0.948,-0.348,-3.967,-0.793,-1.129,73.333,65.000,1.000,2.554,0.000
209647.800,195260.500,640090.400,594445.400,175772.400,167233.300,155794.800,163014.800,-0.168,0.951,-0.348,-4.395,-1.465,-1.251,73.333,66.000,1.000,2.514,0.000
208873.000,194552.600,637338.100,591945.200,175073.000,166604.900,155206.000,162387.000,-0.162,0.953,-0.344,-4.761,-2.045,-1.129,73.333,67.000,1.000,2.430,0.000
208165.400,193892.100,634729.800,589592.400,174461.000,166033.200,154673.700,161840.700,-0.157,0.955,-0.347,-5.127,-2.502,-0.946,73.333,68.000,1.000,6.355,0.000
207537.400,193293.700,632289.600,587426.500,173987.100,165545.200,154227.900,161396.700,-0.154,0.955,-0.346,-5.585,-2.838,-0.732,73.333,69.000,1.000,5.509,0.000
206916.500,192706.400,629934.400,585325.600,173525.600,165059.500,153794.300,160953.900,-0.151,0.956,-0.344,-6.134,-3.082,-0.458,73.333,70.000,1.000,0.009,0.000
206280.500,192127.300,627635.400,583235.400,172989.900,164551.900,153325.900,160452.900,-0.149,0.955,-0.345,-6.592,-3.326,-0.092,73.333,71.000,1.000,2.065,0.000
205648.500,191553.100,625394.900,581186.100,172409.900,164042.700,152840.400,159922.800,-0.144,0.952,-0.344,-6.958,-3.265,0.336,73.333,72.000,1.000,8.604,0.000
205077.200,191004.300,623267.500,579270.900,171906.200,163569.100,152396.900,159457.900,-0.141,0.947,-0.347,-7.233,-3.082,0.641,73.333,73.000,1.000,4.372,0.000
204592.700,190546.200,621298.000,577522.000,171544.400,163193.000,152045.500,159102.100,-0.138,0.944,-0.346,-7.324,-2.808,0.885,73.333,74.000,1.000,0.008,0.000
204120.700,190105.500,619405.700,575835.100,171202.300,162833.300,151719.700,158763.100,-0.133,0.940,-0.344,-7.324,-2.594,1.343,73.333,75.000,1.000,11.250,0.000
203592.800,189620.400,617499.700,574102.000,170737.600,162395.400,151314.200,158322.500,-0.128,0.935,-0.340,-7.416,-2.197,1.892,73.333,76.000,1.000,0.010,0.000
203112.200,189188.400,615684.400,572441.500,170275.500,161998.300,150932.800,157897.200,-0.123,0.928,-0.336,-7.233,-1.526,2.472,73.333,77.000,1.000,8.712,0.000
202681.100,188785.400,613966.900,570901.100,169889.700,161651.300,150598.100,157544.100,-0.124,0.922,-0.331,-7.172,-0.488,3.235,73.333,78.000,1.000,0.009,0.000
202279.400,188386.900,612332.900,569468.400,169589.000,161338.300,150311.100,157258.400,-0.131,0.919,-0.329,-7.019,0.305,3.998,73.333,79.000,1.000,8.688,0.000
201883.500,188003.900,610756.700,568074.400,169299.500,161031.900,150037.500,156981.500,-0.140,0.917,-0.331,-6.836,1.068,4.639,73.333,80.000,1.000,0.016,0.000
201467.100,187630.200,609199.300,566662.100,168936.800,160699.600,149721.700,156639.600,-0.149,0.916,-0.330,-6.653,1.587,5.219,73.333,81.000,1.000,2.507,0.000
201054.500,187261.300,607680.300,565272.100,168538.200,160363.000,149395.400,156278.000,-0.159,0.922,-0.327,-6.409,1.953,5.585,73.333,82.000,1.000,0.005,0.000
200684.200,186915.400,606240.300,563982.900,168203.700,160062.500,149105.900,155978.200,-0.169,0.923,-0.328,-6.256,2.289,5.890,73.333,83.000,1.000,10.720,0.000
200374.500,186615.400,604903.700,562818.200,167987.900,159828.700,148892.800,155770.100,-0.179,0.923,-0.326,-6.104,2.319,5.890,73.333,84.000,1.000,13.657,0.000
200074.100,186328.400,603614.300,561686.800,167785.900,159605.500,148696.100,155567.200,-0.184,0.924,-0.321,-5.920,2.228,5.798,73.333,85.000,1.000,0.009,0.000
199742.600,186033.300,602327.900,560521.800,167500.000,159345.000,148455.900,155298.000,-0.187,0.922,-0.323,-5.859,2.075,5.676,73.333,86.000,1.000,0.003,0.000
199406.600,185733.600,601061.100,559363.800,167163.200,159063.200,148183.600,154997.200,-0.185,0.921,-0.326,-5.768,1.892,5.280,73.333,87.000,1.000,8.169,0.000
199127.200,185469.300,599879.200,558311.800,166904.600,158832.900,147958.400,154764.900,-0.182,0.918,-0.326,-5.707,1.678,4.761,73.333,88.000,1.000,0.023,0.000
198885.200,185225.700,598770.900,557360.100,166740.400,158645.700,147797.100,154619.500,-0.180,0.918,-0.328,-5.402,1.343,4.395,73.333,89.000,1.000,6.809,0.000
198651.000,184993.700,597701.100,556436.900,166591.900,158471.400,147653.800,154483.100,-0.174,0.917,-0.328,-5.341,1.068,4.028,73.333,90.000,1.000,2.563,0.000
198374.500,184741.100,596614.400,555461.200,166350.300,158244.400,147445.300,154263.400,-0.170,0.915,-0.332,-5.280,0.793,3.845,73.333,91.000,1.000,2.531,0.000
198094.200,184494.300,595552.400,554489.100,166071.700,158013.800,147227.300,154021.900,-0.160,0.916,-0.332,-5.157,0.702,3.632,73.333,92.000,1.000,24.975,0.000
197871.400,184288.600,594570.200,553616.900,165874.600,157834.100,147061.300,153853.400,-0.155,0.918,-0.334,-4.974,0.702,3.571,73.333,93.000,1.000,3.021,0.000
197692.800,184105.900,593657.800,552841.100,165773.800,157702.600,146950.700,153760.000,-0.148,0.922,-0.339,-4.974,0.793,3.418,73.333,94.000,1.000,0.011,0.000
197501.800,183916.900,592761.300,552064.800,165663.200,157562.300,146826.200,153634.900,-0.142,0.923,-0.340,-4.883,0.916,3.387,73.333,95.000,1.000,9.480,0.000
197296.100,183743.100,591871.900,551254.900,165487.300,157408.200,146674.500,153453.900,-0.140,0.924,-0.340,-4.883,1.068,3.326,73.333,96.000,1.000,3.602,0.000
197073.200,183557.200,590978.800,550431.500,165252.300,157221.000,146491.500,153241.700,-0.136,0.920,-0.339,-4.974,1.190,3.357,73.333,97.000,1.000,0.007,0.000
196886.400,183379.400,590137.400,549683.000,165072.900,157061.600,146337.800,153079.100,-0.133,0.918,-0.342,-4.944,1.343,3.296,73.333,98.000,1.000,0.003,0.000
196740.900,183224.500,589360.400,549019.600,164985.000,156950.500,146232.100,152978.300,-0.131,0.918,-0.343,-4.822,1.648,3.113,73.333,99.000,1.000,2.687,0.000
196590.800,183076.700,588602.900,548368.400,164903.300,156846.500,146143.900,152881.600,-0.132,0.920,-0.340,-4.700,1.923,3.021,73.333,100.000,1.000,2.313,0.000
196414.900,182924.500,587832.700,547672.700,164742.300,156705.800,146010.000,152725.600,-0.129,0.922,-0.343,-4.425,2.411,2.716,73.333,101.000,1.000,2.580,0.000
196215.300,182750.800,587047.100,546952.900,164511.900,156529.600,145827.200,152521.900,-0.133,0.925,-0.342,-4.364,2.686,2.411,73.333,102.000,1.000,5.609,0.000
196058.000,182597.800,586318.900,546313.700,164350.200,156389.000,145684.200,152382.900,-0.135,0.928,-0.340,-4.211,2.960,2.136,73.333,103.000,1.000,0.013,0.000
195951.200,182486.800,585672.300,545774.800,164302.700,156317.700,145621.200,152334.200,-0.136,0.935,-0.340,-4.028,3.143,1.678,73.333,104.000,1.000,6.906,0.000
195829.700,182366.900,585031.800,545230.700,164246.800,156235.900,145552.200,152270.800,-0.137,0.938,-0.338,-4.028,3.479,1.312,73.333,105.000,1.000,2.538,0.000
195681.000,182230.800,584370.400,544632.100,164106.300,156118.700,145438.300,152134.100,-0.138,0.940,-0.333,-4.150,3.723,1.099,73.333,106.000,1.000,4.934,0.000
195538.400,182117.400,583724.400,544031.300,163933.300,155998.100,145311.200,151983.000,-0.139,0.944,-0.336,-4.242,4.120,0.885,73.333,107.000,1.000,2.499,0.000
195409.800,181998.100,583101.100,543479.800,163800.100,155888.200,145198.800,151869.000,-0.140,0.943,-0.329,-4.211,4.364,0.793,73.333,108.000,1.000,9.335,0.000
195309.000,181882.600,582519.900,543002.400,163748.100,155811.500,145130.600,151813.800,-0.143,0.942,-0.326,-4.333,4.547,0.610,73.333,109.000,1.000,1.886,0.000
195222.600,181785.200,581972.600,542546.900,163719.300,155755.700,145085.900,151774.100,-0.146,0.941,-0.328,-4.364,4.730,0.610,73.333,110.000,1.000,5.591,0.000
195096.100,181678.000,581393.600,542023.200,163598.700,155652.100,144989.500,151666.300,-0.147,0.939,-0.327,-4.425,4.913,0.549,73.333,111.000,1.000,0.014,0.000
194962.800,181568.000,580814.700,541495.300,163435.400,155534.100,144874.000,151538.200,-0.150,0.940,-0.325,-4.333,5.005,0.458,73.333,112.000,1.000,1.802,0.000
194858.600,181465.200,580275.400,541027.100,163326.500,155439.300,144784.600,151459.000,-0.153,0.940,-0.324,-4.272,5.127,0.275,73.333,113.000,1.000,2.575,0.000
194795.400,181391.100,579793.400,540642.100,163316.300,155396.000,144759.500,151458.400,-0.156,0.938,-0.323,-4.242,5.096,0.244,73.333,114.000,1.000,7.429,0.000
194719.600,181312.600,579316.600,540250.200,163306.500,155353.200,144739.400,151451.200,-0.157,0.934,-0.325,-4.303,5.157,0.092,73.333,115.000,1.000,2.416,0.000
194614.700,181226.900,578817.900,539804.400,163215.800,155274.400,144671.100,151370.000,-0.162,0.929,-0.325,-4.150,5.035,-0.031,73.333,116.000,1.000,5.049,0.000
194495.300,181129.300,578306.800,539327.300,163067.900,155165.500,144566.900,151244.600,-0.162,0.926,-0.326,-4.028,4.944,-0.305,73.333,117.000,1.000,5.571,0.000
194408.300,181044.500,577835.200,538914.400,162977.000,155085.300,144493.800,151169.000,-0.160,0.925,-0.325,-3.754,4.730,-0.427,73.333,118.000,1.000,0.013,0.000
194370.300,180996.800,577426.400,538587.100,162992.100,155060.900,144476.900,151167.800,-0.162,0.926,-0.328,-3.632,4.425,-0.519,73.333,119.000,1.000,1.947,0.000
194325.500,180952.500,577028.300,538262.700,163010.700,155045.700,144472.800,151163.200,-0.162,0.925,-0.328,-3.540,4.211,-0.549,73.333,120.000,1.000,2.475,0.000
194228.400,180878.600,576581.500,537857.600,162920.700,154978.200,144407.800,151073.800,-0.161,0.925,-0.328,-3.418,3.845,-0.671,73.333,121.000,1.000,3.080,0.000
194131.600,180802.500,576130.000,537435.200,162782.500,154891.600,144303.700,150944.700,-0.159,0.922,-0.330,-3.357,3.571,-0.671,73.333,122.000,1.000,0.006,0.000
194065.400,180737.400,575719.000,537073.900,162703.600,154830.600,144233.500,150871.000,-0.159,0.921,-0.330,-3.021,3.296,-0.671,73.333,123.000,1.000,4.407,0.000
194038.500,180695.000,575359.500,536789.500,162717.500,154812.700,144224.200,150875.100,-0.164,0.918,-0.333,-2.838,2.899,-0.641,73.333,124.000,1.000,2.494,0.000
194002.700,180652.100,574999.900,536496.800,162727.100,154795.900,144210.100,150867.800,-0.166,0.917,-0.333,-2.563,2.502,-0.702,73.333,125.000,1.000,7.532,0.000
193914.300,180583.400,574598.900,536128.700,162639.000,154731.500,144145.600,150785.000,-0.168,0.918,-0.331,-2.441,1.984,-0.671,73.333,126.000,1.000,3.071,0.000
193832.000,180525.000,574201.100,535750.900,162516.500,154658.100,144065.700,150677.900,-0.167,0.918,-0.333,-2.167,1.404,-0.671,73.333,127.000,1.000,0.012,0.000
193787.600,180483.300,573847.200,535441.500,162457.400,154616.500,144018.400,150630.700,-0.166,0.920,-0.332,-2.106,0.610,-0.641,73.333,128.000,1.000,1.898,0.000
193776.300,180456.500,573537.600,535201.600,162488.000,154618.000,144024.400,150652.000,-0.161,0.923,-0.335,-1.801,0.183,-0.458,73.333,129.000,1.000,5.003,0.000
193748.000,180422.800,573218.500,534943.600,162508.000,154610.400,144021.100,150657.100,-0.158,0.930,-0.336,-1.740,-0.336,-0.336,73.333,130.000,1.000,2.430,0.000
193674.700,180366.600,572856.800,534615.600,162433.900,154556.700,143966.200,150588.000,-0.157,0.936,-0.333,-1.709,-0.702,-0.122,73.333,131.000,1.000,8.838,0.000
193584.400,180298.000,572478.100,534260.600,162305.200,154477.700,143875.400,150477.700,-0.157,0.938,-0.335,-1.831,-1.068,0.092,73.333,132.000,1.000,3.008,0.000
193535.200,180247.300,572141.500,533975.100,162244.100,154431.400,143829.800,150438.000,-0.158,0.940,-0.336,-1.984,-1.556,0.214,73.333,133.000,1.000,0.007,0.000
193522.400,180216.600,571850.000,533762.000,162272.300,154429.000,143831.500,150466.400,-0.159,0.942,-0.337,-2.228,-1.953,0.366,73.333,134.000,1.000,1.966,0.000
193500.700,180189.800,571558.400,533537.900,162299.100,154425.300,143839.700,150487.200,-0.161,0.943,-0.336,-2.472,-2.411,0.427,73.333,135.000,1.000,11.212,0.000
193444.600,180146.900,571230.900,533243.400,162239.900,154383.800,143806.500,150439.400,-0.161,0.944,-0.337,-2.899,-2.899,0.519,73.333,136.000,1.000,3.021,0.000
193370.600,180085.800,570883.800,532922.900,162124.200,154310.300,143731.000,150349.500,-0.159,0.944,-0.336,-3.143,-3.326,0.641,73.333,137.000,1.000,0.011,0.000
193328.900,180043.500,570578.100,532661.700,162073.900,154270.200,143691.100,150317.900,-0.155,0.941,-0.335,-3.357,-3.723,0.549,73.333,138.000,1.000,5.702,0.000
193319.900,180017.800,570318.600,532466.700,162112.300,154272.000,143703.900,150353.800,-0.151,0.938,-0.333,-3.540,-3.967,0.336,73.333,139.000,1.000,9.396,0.000
193305.500,179997.100,570065.600,532267.700,162150.500,154274.800,143721.600,150378.000,-0.149,0.937,-0.339,-3.784,-4.242,0.397,73.333,140.000,1.000,0.012,0.000
193247.700,179957.200,569774.300,531998.800,162095.200,154230.600,143683.000,150325.700,-0.146,0.935,-0.338,-3.967,-4.486,0.366,73.333,141.000,1.000,3.736,0.000
193184.500,179918.900,569471.800,531707.600,161994.400,154168.800,143618.500,150239.600,-0.147,0.936,-0.335,-4.059,-4.608,0.275,73.333,142.000,1.000,0.010,0.000
193154.700,179891.900,569202.600,531471.100,161954.000,154139.600,143584.800,150201.100,-0.145,0.934,-0.338,-4.150,-4.761,0.183,73.333,143.000,1.000,13.218,0.000
193161.000,179884.600,568979.900,531306.800,162004.800,154156.000,143607.800,150235.800,-0.145,0.933,-0.339,-4.242,-4.822,0.244,73.333,144.000,1.000,9.808,0.000
193158.400,179876.900,568755.000,531133.600,162050.100,154163.400,143625.900,150259.700,-0.144,0.931,-0.341,-4.333,-4.822,0.336,73.333,145.000,1.000,0.014,0.000
193117.600,179855.900,568490.100,530889.400,162002.600,154133.600,143597.100,150206.700,-0.140,0.930,-0.340,-4.364,-4.791,0.244,73.333,146.000,1.000,0.004,0.000
193071.300,179828.100,568213.400,530624.600,161907.500,154085.900,143539.300,150122.900,-0.137,0.927,-0.340,-4.364,-4.700,0.244,73.333,147.000,1.000,5.706,0.000
193052.000,179798.600,567960.900,530406.800,161860.500,154046.300,143496.200,150085.000,-0.135,0.927,-0.337,-4.364,-4.547,0.305,73.333,148.000,1.000,0.014,0.000
193058.800,179785.500,567747.100,530252.900,161899.600,154049.600,143507.800,150115.600,-0.130,0.925,-0.336,-4.333,-4.333,0.397,73.333,149.000,1.000,1.901,0.000
193045.000,179768.400,567530.900,530088.000,161933.500,154051.800,143518.600,150133.800,-0.125,0.923,-0.337,-4.150,-3.906,0.305,73.333,150.000,1.000,2.448,0.000
192998.300,179739.400,567277.200,529851.600,161879.800,154013.600,143481.500,150079.600,-0.124,0.921,-0.334,-3.815,-3.418,0.397,73.333,151.000,1.000,8.740,0.000
192942.200,179694.300,567002.600,529587.400,161774.300,153952.400,143413.100,149989.900,-0.127,0.921,-0.333,-3.662,-2.808,0.458,73.333,152.000,1.000,6.803,0.000
192919.200,179662.200,566763.600,529386.900,161731.800,153922.100,143374.500,149957.200,-0.130,0.925,-0.330,-3.540,-2.319,0.549,73.333,153.000,1.000,0.011,0.000
192932.800,179660.700,566576.200,529262.700,161787.600,153946.400,143402.100,150006.000,-0.130,0.927,-0.333,-3.296,-1.831,0.610,73.333,154.000,1.000,2.541,0.000
192928.300,179653.600,566379.000,529116.100,161828.100,153965.600,143425.400,150040.800,-0.130,0.928,-0.330,-3.113,-1.404,0.549,73.333,155.000,1.000,0.013,0.000
192890.100,179630.300,566143.100,528897.200,161779.100,153941.700,143391.700,149991.800,-0.131,0.931,-0.331,-3.113,-0.885,0.702,73.333,156.000,1.000,8.176,0.000
192842.500,179599.000,565889.900,528651.900,161686.200,153893.600,143332.500,149914.000,-0.131,0.931,-0.330,-2.960,-0.366,0.732,73.333,157.000,1.000,6.811,0.000
192836.300,179585.800,565679.300,528476.100,161663.600,153881.800,143313.700,149903.000,-0.131,0.934,-0.327,-2.899,0.244,0.732,73.333,158.000,1.000,0.008,0.000
192854.300,179588.000,565502.800,528365.700,161722.200,153903.900,143345.500,149959.500,-0.132,0.934,-0.329,-2.930,0.763,0.793,73.333,159.000,1.000,21.197,0.000
192851.400,179573.300,565311.800,528225.800,161766.100,153910.600,143368.800,149994.400,-0.135,0.934,-0.327,-2.960,1.282,1.007,73.333,160.000,1.000,0.016,0.000
192804.400,179535.700,565074.600,528012.600,161712.100,153866.600,143334.100,149950.800,-0.138,0.935,-0.326,-2.808,1.709,0.824,73.333,161.000,1.000,2.473,0.000
192761.300,179511.700,564842.300,527789.000,161625.900,153814.600,143276.900,149880.100,-0.141,0.937,-0.325,-2.655,2.228,0.824,73.333,162.000,1.000,0.008,0.000
192746.500,179488.400,564643.000,527620.800,161599.000,153791.400,143254.500,149866.100,-0.142,0.940,-0.326,-2.625,2.563,0.793,73.333,163.000,1.000,2.495,0.000
192771.700,179495.400,564493.300,527521.900,161667.700,153819.900,143292.500,149926.900,-0.143,0.943,-0.325,-2.655,2.930,0.732,73.333,164.000,1.000,0.006,0.000
192788.000,179507.100,564338.700,527407.900,161728.600,153845.300,143328.400,149968.800,-0.144,0.944,-0.324,-2.716,3.265,0.702,73.333,165.000,1.000,1.942,0.000
192756.000,179494.200,564134.200,527211.900,161690.600,153821.900,143305.100,149926.800,-0.146,0.944,-0.324,-2.808,3.510,0.702,73.333,166.000,1.000,12.446,0.000
192723.900,179482.400,563920.900,526999.900,161612.200,153785.600,143261.600,149861.100,-0.149,0.941,-0.323,-2.899,3.754,0.549,73.333,167.000,1.000,2.622,0.000
192712.800,179468.100,563725.700,526833.900,161581.900,153767.900,143240.500,149837.300,-0.152,0.937,-0.324,-3.082,3.998,0.549,73.333,168.000,1.000,11.183,0.000
192739.300,179477.600,563578.000,526735.800,161640.900,153796.500,143267.500,149880.400,-0.150,0.934,-0.326,-2.960,4.089,0.427,73.333,169.000,1.000,2.457,0.000
192747.100,179476.300,563417.800,526617.400,161685.900,153815.600,143293.300,149911.600,-0.150,0.935,-0.325,-3.113,4.272,0.366,73.333,170.000,1.000,2.517,0.000
192708.800,179450.600,563209.300,526421.000,161633.400,153784.800,143258.300,149859.000,-0.150,0.933,-0.325,-3.052,4.242,0.336,73.333,171.000,1.000,5.022,0.000
192665.300,179427.900,562996.300,526210.300,161543.800,153739.100,143204.800,149785.200,-0.149,0.935,-0.328,-3.052,4.303,0.214,73.333,172.000,1.000,4.966,0.000
192646.900,179409.600,562810.900,526051.800,161506.000,153715.600,143171.300,149755.600,-0.150,0.937,-0.326,-3.143,4.242,0.183,73.333,173.000,1.000,2.437,0.000
192670.500,179413.600,562676.400,525966.100,161567.400,153743.200,143206.500,149808.000,-0.150,0.939,-0.325,-3.265,4.211,0.153,73.333,174.000,1.000,8.831,0.000
192687.400,179421.000,562538.400,525865.800,161628.500,153773.600,143239.500,149847.900,-0.150,0.940,-0.322,-3.387,4.059,0.092,73.333,175.000,1.000,7.541,0.000
192663.000,179406.200,562352.600,525692.900,161594.400,153763.600,143220.200,149814.500,-0.153,0.940,-0.325,-3.571,3.845,0.000,73.333,176.000,1.000,5.484,0.000
192625.000,179389.400,562150.500,525492.900,161509.800,153730.800,143171.300,149745.000,-0.156,0.941,-0.327,-3.845,3.479,-0.031,73.333,177.000,1.000,0.013,0.000
192621.000,179383.100,561980.900,525350.900,161486.800,153727.200,143155.700,149727.500,-0.157,0.942,-0.327,-3.998,3.174,-0.244,73.333,178.000,1.000,4.496,0.000
192648.700,179391.300,561848.100,525273.700,161553.800,153763.300,143193.300,149782.400,-0.158,0.941,-0.328,-4.120,2.960,-0.275,73.333,179.000,1.000,5.035,0.000
192661.000,179398.800,561711.200,525179.600,161614.700,153796.600,143234.300,149831.400,-0.159,0.941,-0.326,-4.364,2.472,-0.427,73.333,180.000,1.000,7.428,0.000
192615.400,179371.100,561516.900,524998.300,161564.800,153765.600,143201.500,149789.400,-0.162,0.939,-0.326,-4.395,1.862,-0.549,73.333,181.000,1.000,2.532,0.000
192568.400,179339.400,561312.300,524800.100,161475.800,153716.300,143143.600,149720.000,-0.163,0.937,-0.328,-4.547,1.434,-0.671,73.333,182.000,1.000,2.464,0.000
192558.600,179324.600,561148.000,524664.700,161453.200,153693.200,143124.300,149713.300,-0.164,0.935,-0.325,-4.791,0.702,-0.793,73.333,183.000,1.000,4.946,0.000
192580.300,179323.900,561027.800,524588.700,161517.600,153706.400,143156.800,149777.100,-0.163,0.935,-0.326,-4.852,0.031,-0.977,73.333,184.000,1.000,2.530,0.000
192601.000,179331.400,560909.100,524505.700,161582.600,153728.200,143197.000,149834.500,-0.164,0.934,-0.327,-5.035,-0.519,-1.038,73.333,185.000,1.000,2.494,0.000
192580.300,179316.300,560741.200,524349.000,161550.700,153702.300,143177.700,149804.100,-0.165,0.936,-0.330,-5.127,-1.190,-1.129,73.333,186.000,1.000,3.066,0.000
192539.500,179289.700,560548.000,524156.200,161464.200,153644.900,143124.100,149736.200,-0.164,0.937,-0.329,-5.157,-1.892,-1.282,73.333,187.000,1.000,0.009,0.000
192543.500,179285.500,560398.100,524031.100,161449.200,153629.200,143105.400,149723.600,-0.162,0.934,-0.324,-5.310,-2.350,-1.556,73.333,188.000,1.000,1.937,0.000
192565.800,179283.600,560275.900,523957.400,161510.200,153643.300,143130.800,149772.200,-0.160,0.929,-0.325,-5.402,-2.899,-1.648,73.333,189.000,1.000,2.527,0.000
192577.600,179293.700,560151.200,523869.300,161565.800,153664.300,143163.500,149810.900,-0.155,0.925,-0.326,-5.493,-3.387,-1.617,73.333,190.000,1.000,2.455,0.000
192549.000,179287.000,559985.500,523712.500,161528.800,153646.400,143148.700,149774.300,-0.151,0.918,-0.327,-5.402,-3.784,-1.709,73.333,191.000,1.000,8.762,0.000
192513.300,179275.000,559807.600,523529.800,161449.300,153614.300,143103.400,149704.000,-0.149,0.913,-0.326,-5.341,-4.059,-1.770,73.333,192.000,1.000,5.030,0.000
192514.900,179276.700,559665.900,523407.200,161435.200,153615.400,143094.000,149696.300,-0.145,0.908,-0.330,-5.188,-4.272,-1.709,73.333,193.000,1.000,2.430,0.000
192541.300,179286.800,559554.400,523338.900,161496.700,153644.200,143126.800,149746.300,-0.141,0.906,-0.331,-4.883,-4.272,-1.709,73.333,194.000,1.000,3.037,0.000
192550.300,179289.800,559432.400,523248.300,161541.400,153669.900,143149.400,149767.500,-0.139,0.910,-0.335,-4.456,-4.333,-1.556,73.333,195.000,1.000,0.008,0.000
192519.300,179274.100,559266.900,523082.300,161496.100,153647.100,143120.300,149719.300,-0.135,0.917,-0.338,-3.967,-4.089,-1.434,73.333,196.000,1.000,6.904,0.000
192474.900,179244.500,559080.400,522892.800,161403.100,153601.500,143060.900,149640.800,-0.132,0.924,-0.336,-3.632,-4.028,-1.312,73.333,197.000,1.000,2.554,0.000
192480.300,179244.500,558945.000,522781.300,161387.900,153602.500,143054.200,149632.700,-0.130,0.925,-0.333,-3.296,-3.876,-1.068,73.333,198.000,1.000,2.463,0.000
192509.200,179255.500,558842.600,522725.800,161451.800,153633.300,143085.700,149686.300,-0.131,0.929,-0.329,-3.265,-3.418,-0.854,73.333,199.000,1.000,3.110,0.000
192521.400,179260.400,558722.600,522645.200,161501.900,153659.900,143116.900,149721.700,-0.136,0.930,-0.332,-3.052,-3.021,-0.580,73.333,200.000,1.000,0.055,0.000
192489.500,179244.300,558557.700,522492.400,161459.100,153645.100,143099.600,149686.700,-0.140,0.936,-0.334,-2.960,-2.563,-0.305,73.333,201.000,1.000,1.791,0.000
192443.300,179222.800,558377.400,522314.500,161369.400,153603.100,143050.000,149621.600,-0.143,0.940,-0.329,-2.869,-2.319,0.000,73.333,202.000,1.000,9.423,0.000
192444.300,179215.800,558236.400,522205.000,161354.300,153602.000,143043.800,149627.500,-0.145,0.944,-0.323,-2.777,-2.014,0.183,73.333,203.000,1.000,0.009,0.000
192465.500,179219.400,558129.200,522147.400,161420.700,153636.000,143084.300,149694.600,-0.147,0.949,-0.324,-2.655,-1.709,0.336,73.333,204.000,1.000,1.859,0.000
192485.200,179234.700,558030.200,522079.700,161491.600,153671.900,143132.400,149755.300,-0.146,0.954,-0.328,-2.686,-1.312,0.519,73.333,205.000,1.000,3.690,0.000
192459.300,179220.500,557879.000,521934.300,161460.200,153645.800,143114.800,149725.800,-0.144,0.958,-0.323,-2.838,-0.977,0.824,73.333,206.000,1.000,9.379,0.000
192421.500,179195.600,557704.300,521755.400,161375.400,153595.000,143060.300,149654.100,-0.144,0.967,-0.319,-2.960,-0.641,1.038,73.333,207.000,1.000,0.016,0.000
192423.800,179188.300,557571.400,521639.400,161358.900,153576.200,143044.200,149645.200,-0.146,0.969,-0.318,-3.265,-0.366,1.099,73.333,208.000,1.000,1.938,0.000
192470.300,179211.900,557494.600,521601.600,161441.100,153609.800,143091.800,149713.900,-0.146,0.970,-0.316,-3.601,-0.031,1.099,73.333,209.000,1.000,7.413,0.000
192490.500,179222.400,557402.900,521538.400,161507.400,153633.700,143129.800,149758.800,-0.147,0.968,-0.317,-4.120,0.336,1.190,73.333,210.000,1.000,9.379,0.000
192463.500,179215.000,557255.500,521396.300,161472.700,153607.100,143103.800,149715.800,-0.149,0.962,-0.317,-4.547,0.641,1.282,73.333,211.000,1.000,0.012,0.000
192432.300,179198.700,557095.600,521233.400,161398.300,153567.000,143058.000,149649.200,-0.151,0.958,-0.319,-4.822,0.885,1.343,73.333,212.000,1.000,8.765,0.000
192427.800,179191.800,556963.100,521119.600,161379.300,153547.700,143043.200,149634.200,-0.150,0.955,-0.322,-5.035,1.068,1.129,73.333,213.000,1.000,0.007,0.000
192457.700,179202.500,556873.900,521071.200,161446.000,153572.000,143074.200,149684.500,-0.148,0.950,-0.317,-5.096,1.129,1.007,73.333,214.000,1.000,8.734,0.000
192465.300,179205.000,556763.500,520995.100,161491.900,153584.000,143100.600,149711.500,-0.147,0.944,-0.317,-5.341,1.312,0.977,73.333,215.000,1.000,0.016,0.000
192429.600,179186.300,556605.700,520843.800,161445.900,153556.800,143077.900,149666.900,-0.143,0.937,-0.315,-5.524,1.556,0.732,73.333,216.000,1.000,2.415,0.000
192388.900,179161.100,556438.900,520672.800,161354.500,153503.200,143005.500,149583.600,-0.142,0.930,-0.318,-5.524,1.801,0.641,73.333,217.000,1.000,0.013,0.000
192395.600,179169.300,556321.700,520572.400,161345.200,153512.100,143004.700,149580.100,-0.138,0.924,-0.320,-5.463,2.197,0.641,73.333,218.000,1.000,18.223,0.000
192429.400,179187.600,556241.000,520530.900,161417.400,153554.100,143049.500,149639.700,-0.136,0.919,-0.320,-5.402,2.411,0.824,73.333,219.000,1.000,16.815,0.000
192446.700,179192.000,556141.300,520463.900,161467.500,153573.400,143069.900,149671.800,-0.135,0.918,-0.322,-5.157,2.594,0.854,73.333,220.000,1.000,0.015,0.000
192423.200,179182.100,556000.900,520325.100,161428.300,153559.700,143053.200,149633.200,-0.135,0.914,-0.322,-5.005,2.930,0.824,73.333,221.000,1.000,0.005,0.000
192391.600,179168.000,555846.700,520163.800,161346.200,153535.700,143012.800,149570.600,-0.132,0.911,-0.323,-4.730,3.143,0.854,73.333,222.000,1.000,0.006,0.000
192388.700,179164.200,555720.400,520055.300,161323.400,153536.300,143001.900,149561.000,-0.132,0.910,-0.323,-4.486,3.510,1.038,73.333,223.000,1.000,1.927,0.000
192414.600,179175.700,555628.600,520009.300,161386.000,153575.300,143042.600,149620.400,-0.134,0.907,-0.321,-4.242,3.967,1.068,73.333,224.000,1.000,4.947,0.000
192424.900,179177.900,555526.400,519944.400,161435.000,153602.000,143076.900,149662.600,-0.135,0.909,-0.321,-3.845,4.333,1.160,73.333,225.000,1.000,3.089,0.000
192391.600,179161.400,555379.200,519801.800,161393.500,153584.900,143058.700,149632.500,-0.137,0.908,-0.320,-3.479,4.700,1.251,73.333,226.000,1.000,0.016,0.000
192352.300,179141.900,555219.500,519641.700,161314.300,153549.400,143012.600,149574.700,-0.138,0.911,-0.322,-3.204,4.913,1.312,73.333,227.000,1.000,13.201,0.000
192362.300,179149.300,555109.300,519555.200,161313.100,153550.900,143012.200,149584.900,-0.144,0.917,-0.322,-2.930,4.944,1.221,73.333,228.000,1.000,2.373,0.000
192404.600,179173.300,555038.800,519528.900,161394.000,153590.400,143061.800,149659.100,-0.145,0.922,-0.320,-2.747,5.157,1.251,73.333,229.000,1.000,7.583,0.000
192416.200,179176.400,554943.600,519464.500,161446.500,153607.900,143089.700,149698.000,-0.150,0.926,-0.319,-2.625,5.249,1.282,73.333,230.000,1.000,2.436,0.000
192382.400,179150.800,554802.000,519326.100,161407.700,153573.800,143061.500,149658.900,-0.150,0.932,-0.319,-2.533,5.280,1.190,73.333,231.000,1.000,3.018,0.000
192356.800,179135.700,554658.900,519179.600,161335.200,153530.800,143015.300,149597.900,-0.154,0.937,-0.320,-2.502,5.249,1.038,73.333,232.000,1.000,0.006,0.000
192368.600,179140.200,554554.100,519095.000,161329.200,153524.000,143009.100,149600.200,-0.154,0.939,-0.317,-2.563,5.127,0.977,73.333,233.000,1.000,1.906,0.000
192415.500,179165.900,554494.300,519075.700,161412.800,153561.000,143058.300,149669.300,-0.156,0.942,-0.318,-2.655,4.913,0.977,73.333,234.000,1.000,7.654,0.000
192421.200,179159.600,554397.300,519013.700,161461.800,153569.700,143083.000,149701.800,-0.155,0.943,-0.319,-2.899,4.700,0.702,73.333,235.000,1.000,2.352,0.000
192396.400,179148.100,554262.800,518881.300,161424.200,153540.700,143063.100,149666.500,-0.157,0.942,-0.319,-3.143,4.547,0.641,73.333,236.000,1.000,3.194,0.000
192365.300,179132.400,554113.000,518724.000,161340.900,153496.100,143010.300,149594.800,-0.158,0.942,-0.320,-3.357,4.303,0.397,73.333,237.000,1.000,0.011,0.000
192348.700,179111.600,553983.600,518617.100,161311.200,153473.800,142985.700,149575.600,-0.160,0.943,-0.323,-3.601,4.028,0.122,73.333,238.000,1.000,2.463,0.000
192371.300,179111.800,553898.100,518572.900,161366.100,153492.000,143011.300,149618.800,-0.159,0.942,-0.319,-3.876,3.693,-0.092,73.333,239.000,1.000,0.007,0.000
192400.700,179134.200,553824.100,518525.800,161429.000,153525.000,143049.300,149659.500,-0.160,0.943,-0.320,-4.089,3.326,-0.305,73.333,240.000,1.000,1.949,0.000
192383.100,179132.800,553704.100,518400.400,161398.800,153513.900,143035.600,149622.200,-0.159,0.943,-0.322,-4.242,2.930,-0.519,73.333,241.000,1.000,3.625,0.000
192364.400,179131.900,553578.400,518260.200,161335.300,153495.400,143004.300,149569.600,-0.162,0.945,-0.320,-4.456,2.594,-0.671,73.333,242.000,1.000,14.442,0.000
192362.700,179129.000,553468.800,518163.100,161318.600,153492.700,142992.300,149558.200,-0.159,0.946,-0.321,-4.700,2.167,-0.885,73.333,243.000,1.000,0.016,0.000
192395.800,179148.300,553398.200,518128.300,161388.100,153536.200,143028.200,149608.900,-0.158,0.944,-0.322,-4.822,1.831,-0.946,73.333,244.000,1.000,2.386,0.000
192417.500,179163.500,553319.100,518074.100,161446.500,153575.500,143066.500,149647.900,-0.158,0.944,-0.324,-4.852,1.434,-1.068,73.333,245.000,1.000,0.010,0.000
192380.800,179142.300,553178.300,517933.200,161395.800,153555.000,143038.200,149598.400,-0.159,0.945,-0.325,-4.913,1.068,-1.038,73.333,246.000,1.000,4.512,0.000
192341.200,179123.200,553028.800,517779.300,161311.500,153525.300,142991.200,149533.100,-0.159,0.947,-0.323,-5.005,0.702,-1.007,73.333,247.000,1.000,2.478,0.000
192340.800,179123.200,552916.800,517692.400,161296.800,153532.400,142989.200,149536.200,-0.162,0.950,-0.321,-5.127,0.305,-0.885,73.333,248.000,1.000,2.466,0.000
192363.800,179124.600,552833.900,517655.100,161357.300,153565.500,143027.000,149593.400,-0.164,0.953,-0.321,-5.310,0.031,-0.916,73.333,249.000,1.000,13.790,0.000
192372.500,179122.300,552742.900,517598.300,161407.300,153589.000,143060.900,149637.900,-0.166,0.952,-0.317,-5.554,-0.366,-0.824,73.333,250.000,1.000,3.084,0.000
192352.100,179120.300,552623.300,517482.100,161377.500,153574.200,143053.900,149621.100,-0.166,0.953,-0.320,-5.554,-0.763,-0.916,73.333,251.000,1.000,0.017,0.000
192320.300,179104.400,552485.900,517335.500,161299.200,153533.700,143001.400,149554.100,-0.166,0.952,-0.319,-5.676,-1.190,-0.793,73.333,252.000,1.000,1.822,0.000
192316.000,179092.200,552379.500,517245.200,161281.000,153515.400,142980.200,149543.700,-0.164,0.950,-0.316,-5.554,-1.465,-0.732,73.333,253.000,1.000,2.511,0.000
192349.400,179103.300,552320.100,517223.300,161355.500,153540.700,143016.800,149610.300,-0.159,0.947,-0.315,-5.554,-1.709,-0.641,73.333,254.000,1.000,25.025,0.000
192371.000,179118.300,552249.600,517174.600,161417.100,153567.100,143056.600,149655.800,-0.153,0.941,-0.315,-5.310,-1.923,-0.275,73.333,255.000,1.000,2.413,0.000
192349.500,179105.400,552127.600,517052.300,161377.800,153537.200,143033.200,149619.900,-0.146,0.938,-0.313,-5.127,-1.892,0.000,73.333,256.000,1.000,2.555,0.000
192319.600,179089.400,551992.800,516907.900,161302.500,153486.800,142980.800,149554.100,-0.142,0.933,-0.313,-4.822,-1.801,0.244,73.333,257.000,1.000,4.961,0.000
192325.800,179093.500,551896.900,516828.400,161295.200,153483.300,142976.000,149555.300,-0.140,0.932,-0.313,-4.486,-1.648,0.793,73.333,258.000,1.000,5.016,0.000
192358.000,179106.300,551836.300,516805.300,161368.200,153515.500,143017.900,149616.900,-0.138,0.927,-0.311,-3.967,-1.343,1.129,73.333,259.000,1.000,2.551,0.000
192372.800,179117.100,551763.600,516757.500,161423.500,153535.200,143051.400,149658.000,-0.138,0.925,-0.308,-3.479,-1.129,1.434,73.333,260.000,1.000,2.413,0.000
192350.200,179113.800,551650.200,516635.700,161388.700,153517.000,143033.500,149622.900,-0.138,0.923,-0.309,-3.052,-0.793,1.801,73.333,261.000,1.000,2.472,0.000
192316.700,179096.500,551519.400,516487.700,161307.500,153478.300,142984.500,149554.700,-0.138,0.919,-0.309,-2.563,-0.458,1.984,73.333,262.000,1.000,2.541,0.000
192321.500,179098.500,551426.300,516405.300,161296.300,153476.600,142975.700,149550.100,-0.138,0.918,-0.311,-1.984,-0.031,2.106,73.333,263.000,1.000,5.558,0.000
192358.400,179114.700,551370.900,516385.900,161369.000,153517.900,143017.300,149612.400,-0.137,0.918,-0.310,-1.465,0.275,2.075,73.333,264.000,1.000,0.006,0.000
192369.500,179117.300,551292.100,516330.200,161416.300,153542.500,143043.900,149642.300,-0.137,0.922,-0.307,-1.007,0.580,2.075,73.333,265.000,1.000,1.874,0.000
192344.800,179107.600,551173.600,516206.100,161376.400,153531.500,143022.400,149600.500,-0.138,0.921,-0.312,-0.519,1.007,2.014,73.333,266.000,1.000,2.493,0.000
192313.400,179094.000,551042.700,516064.100,161297.200,153504.000,142977.200,149534.400,-0.137,0.922,-0.309,0.000,1.221,1.923,73.333,267.000,1.000,3.140,0.000
192311.400,179088.000,550943.400,515978.500,161282.200,153499.800,142959.900,149525.800,-0.135,0.925,-0.314,0.244,1.648,1.709,73.333,268.000,1.000,0.008,0.000
192346.400,179105.100,550885.100,515959.800,161356.300,153545.900,142999.100,149585.100,-0.131,0.928,-0.313,0.458,2.045,1.526,73.333,269.000,1.000,1.912,0.000
192358.100,179113.800,550806.800,515908.500,161403.800,153577.700,143028.700,149616.700,-0.130,0.931,-0.314,0.702,2.441,1.373,73.333,270.000,1.000,6.200,0.000
192338.400,179114.100,550696.300,515791.200,161369.700,153574.300,143017.500,149587.100,-0.132,0.935,-0.310,0.946,2.838,1.282,73.333,271.000,1.000,3.160,0.000
192302.900,179100.200,550567.100,515653.300,161290.700,153550.100,142979.600,149533.200,-0.132,0.936,-0.312,0.854,3.143,1.221,73.333,272.000,1.000,0.028,0.000
192292.500,179086.100,550457.900,515563.400,161264.100,153538.500,142965.300,149525.700,-0.134,0.938,-0.311,0.977,3.418,1.007,73.333,273.000,1.000,1.837,0.000
192315.800,179088.100,550387.500,515529.700,161322.500,153562.400,142999.100,149582.700,-0.133,0.940,-0.312,1.007,3.601,0.763,73.333,274.000,1.000,11.290,0.000
192332.800,179098.800,550317.900,515491.500,161379.400,153592.300,143042.100,149634.100,-0.132,0.940,-0.314,1.038,3.815,0.397,73.333,275.000,1.000,6.742,0.000
192301.000,179080.500,550198.800,515370.500,161338.600,153566.400,143021.100,149599.900,-0.134,0.939,-0.315,1.068,4.028,0.153,73.333,276.000,1.000,0.010,0.000
192263.200,179053.600,550067.600,515230.600,161256.000,153517.500,142971.700,149537.700,-0.135,0.938,-0.316,0.946,4.211,-0.122,73.333,277.000,1.000,9.538,0.000
192268.700,179050.700,549980.700,515159.700,161251.000,153508.500,142964.700,149541.300,-0.135,0.937,-0.320,0.916,4.364,-0.336,73.333,278.000,1.000,2.375,0.000
192307.200,179069.600,549934.100,515149.900,161330.100,153542.000,143011.600,149611.200,-0.135,0.939,-0.321,0.793,4.395,-0.641,73.333,279.000,1.000,3.128,0.000
192318.100,179072.000,549861.700,515102.200,161378.200,153550.800,143035.800,149644.600,-0.138,0.941,-0.322,0.763,4.547,-0.793,73.333,280.000,1.000,0.009,0.000
192296.400,179068.100,549754.500,514983.800,161343.700,153525.500,143015.000,149605.900,-0.140,0.939,-0.323,0.641,4.547,-0.977,73.333,281.000,1.000,3.135,0.000
192262.700,179050.800,549627.300,514842.700,161262.800,153470.700,142961.500,149537.000,-0.143,0.941,-0.322,0.610,4.425,-1.190,73.333,282.000,1.000,14.432,0.000
192267.400,179053.000,549541.300,514767.100,161254.600,153459.500,142949.300,149532.100,-0.147,0.941,-0.322,0.610,4.395,-1.404,73.333,283.000,1.000,0.016,0.000
192302.900,179070.400,549495.900,514753.800,161331.500,153491.100,142988.200,149592.500,-0.146,0.941,-0.324,0.519,4.089,-1.465,73.333,284.000,1.000,2.406,0.000
192327.400,179086.500,549437.300,514717.000,161390.900,153520.600,143023.800,149631.900,-0.149,0.938,-0.322,0.305,3.937,-1.648,73.333,285.000,1.000,0.012,0.000
192298.900,179071.900,549322.400,514591.500,161342.600,153491.900,142989.800,149578.800,-0.149,0.936,-0.322,0.153,3.815,-1.740,73.333,286.000,1.000,11.210,0.000
192279.500,179067.200,549207.900,514467.500,161269.900,153464.200,142946.900,149516.500,-0.154,0.937,-0.323,-0.061,3.662,-1.984,73.333,287.000,1.000,0.017,0.000
192287.700,179071.600,549124.600,514401.000,161265.700,153471.600,142943.700,149515.700,-0.156,0.935,-0.322,-0.153,3.235,-1.984,73.333,288.000,1.000,3.738,0.000
192320.900,179090.200,549075.200,514388.700,161340.600,153520.900,142993.000,149574.200,-0.158,0.938,-0.323,-0.275,2.838,-1.984,73.333,289.000,1.000,0.010,0.000
192345.100,179110.000,549020.400,514357.800,161405.700,153564.900,143037.500,149618.000,-0.158,0.938,-0.326,-0.549,2.441,-2.106,73.333,290.000,1.000,13.707,0.000
192318.300,179097.500,548908.200,514236.900,161361.900,153549.100,143016.600,149574.300,-0.159,0.938,-0.327,-0.763,2.075,-2.045,73.333,291.000,1.000,0.011,0.000
192286.800,179081.900,548784.900,514100.500,161281.600,153519.700,142971.400,149510.000,-0.159,0.939,-0.325,-0.854,1.678,-2.045,73.333,292.000,1.000,2.551,0.000
192287.000,179078.500,548692.600,514025.700,161262.800,153510.900,142950.500,149504.200,-0.159,0.942,-0.327,-1.068,1.251,-2.014,73.333,293.000,1.000,0.010,0.000
192297.800,179074.000,548620.200,513994.100,161311.100,153529.300,142971.200,149554.500,-0.161,0.942,-0.326,-1.465,0.854,-1.862,73.333,294.000,1.000,13.706,0.000
192308.500,179078.700,548550.200,513953.800,161359.800,153557.700,143003.700,149600.000,-0.159,0.940,-0.330,-1.617,0.488,-1.831,73.333,295.000,1.000,0.012,0.000
192277.800,179062.500,548434.400,513835.800,161312.600,153531.700,142970.800,149562.100,-0.157,0.938,-0.328,-1.831,0.061,-1.862,73.333,296.000,1.000,2.492,0.000
192244.800,179044.700,548309.400,513704.200,161231.000,153489.800,142927.200,149509.000,-0.152,0.934,-0.322,-2.045,-0.153,-1.587,73.333,297.000,1.000,0.007,0.000
192246.900,179041.300,548221.900,513631.400,161221.400,153487.300,142925.400,149516.500,-0.148,0.931,-0.327,-2.106,-0.244,-1.404,73.333,298.000,1.000,16.003,0.000
192279.200,179053.400,548173.100,513615.800,161296.100,153522.300,142971.800,149583.500,-0.145,0.929,-0.327,-2.167,-0.275,-1.160,73.333,299.000,1.000,5.895,0.000
192296.700,179063.800,548116.000,513579.500,161354.200,153540.500,143007.900,149629.300,-0.144,0.932,-0.330,-2.106,-0.397,-1.007,73.333,300.000,1.000,0.020,0.000
192274.500,179054.500,548014.600,513468.900,161320.000,153514.800,142988.000,149596.600,-0.141,0.935,-0.331,-2.167,-0.519,-0.854,73.333,301.000,1.000,0.008,0.000
192238.900,179034.400,547893.300,513333.600,161245.400,153479.400,142944.200,149535.500,-0.143,0.940,-0.331,-2.258,-0.397,-0.610,73.333,302.000,1.000,2.498,0.000
192242.600,179036.000,547809.600,513265.000,161238.600,153478.200,142940.300,149535.100,-0.146,0.945,-0.335,-2.380,-0.397,-0.397,73.333,303.000,1.000,2.506,0.000
192281.300,179058.300,547766.200,513262.100,161321.300,153517.800,142994.200,149603.400,-0.151,0.949,-0.332,-2.411,-0.275,-0.153,73.333,304.000,1.000,2.527,0.000
192288.800,179058.800,547694.600,513216.900,161366.300,153527.200,143014.000,149628.300,-0.150,0.947,-0.329,-2.594,-0.305,-0.122,73.333,305.000,1.000,2.495,0.000
192267.200,179048.200,547590.900,513106.300,161322.300,153498.000,142979.900,149578.200,-0.149,0.938,-0.328,-3.021,-0.244,-0.122,73.333,306.000,1.000,3.714,0.000
192239.100,179030.700,547475.400,512976.800,161240.900,153454.400,142932.600,149511.600,-0.146,0.929,-0.323,-2.960,-0.122,-0.153,73.333,307.000,1.000,6.291,0.000
192250.800,179039.100,547405.900,512918.000,161241.900,153458.500,142933.700,149515.600,-0.141,0.918,-0.323,-2.808,0.061,-0.092,73.333,308.000,1.000,9.253,0.000
192286.300,179058.000,547369.800,512914.700,161320.900,153500.300,142980.200,149578.000,-0.138,0.916,-0.324,-2.533,0.366,0.092,73.333,309.000,1.000,0.017,0.000
192309.600,179074.000,547320.900,512886.600,161382.700,153533.500,143020.100,149617.600,-0.137,0.918,-0.325,-2.167,0.641,0.122,73.333,310.000,1.000,4.657,0.000
192280.400,179062.400,547213.600,512770.900,161336.300,153509.900,142990.500,149567.100,-0.135,0.925,-0.326,-1.862,0.854,0.244,73.333,311.000,1.000,2.206,0.000
192246.800,179044.500,547094.000,512636.900,161251.400,153469.200,142932.700,149492.300,-0.134,0.930,-0.324,-1.678,1.312,0.458,73.333,312.000,1.000,3.098,0.000
192259.500,179048.500,547020.400,512571.800,161246.700,153474.000,142929.800,149495.500,-0.135,0.938,-0.325,-1.373,1.617,0.610,73.333,313.000,1.000,0.007,0.000
192301.100,179072.000,546981.200,512564.500,161323.500,153521.100,142979.100,149562.500,-0.136,0.942,-0.324,-1.312,2.045,0.824,73.333,314.000,1.000,8.186,0.000
192311.600,179076.600,546916.600,512524.400,161371.300,153548.700,143010.800,149599.200,-0.135,0.944,-0.322,-1.282,2.380,0.824,73.333,315.000,1.000,6.844,0.000
192284.100,179063.900,546806.500,512412.500,161322.500,153526.400,142981.700,149556.800,-0.136,0.943,-0.322,-1.221,2.686,0.824,73.333,316.000,1.000,0.010,0.000
192253.700,179049.500,546691.000,512287.700,161243.800,153489.700,142936.400,149499.400,-0.137,0.938,-0.325,-1.282,2.991,0.763,73.333,317.000,1.000,4.441,0.000
192261.900,179051.000,546616.900,512226.100,161239.000,153489.400,142929.800,149505.100,-0.138,0.934,-0.326,-1.129,3.265,0.671,73.333,318.000,1.000,2.430,0.000
192295.000,179068.600,546576.600,512218.700,161312.000,153526.200,142970.900,149574.400,-0.142,0.931,-0.327,-0.885,3.540,0.549,73.333,319.000,1.000,3.850,0.000
192301.600,179073.700,546516.300,512177.100,161358.800,153541.100,142994.000,149612.900,-0.142,0.930,-0.328,-0.671,3.723,0.519,73.333,320.000,1.000,9.247,0.000
192277.500,179064.200,546418.800,512071.200,161324.500,153524.400,142978.900,149584.600,-0.141,0.934,-0.329,-0.427,3.937,0.305,73.333,321.000,1.000,0.009,0.000
192242.900,179043.900,546303.100,511941.200,161246.200,153487.400,142936.600,149525.400,-0.141,0.938,-0.323,-0.366,4.120,0.183,73.333,322.000,1.000,1.878,0.000
192245.700,179041.000,546225.800,511874.700,161237.800,153484.300,142935.800,149529.300,-0.139,0.945,-0.319,-0.427,4.211,0.092,73.333,323.000,1.000,3.784,0.000
192281.900,179059.000,546188.900,511871.300,161316.100,153527.300,142982.300,149593.000,-0.137,0.948,-0.318,-0.488,4.456,0.000,73.333,324.000,1.000,14.320,0.000
192294.700,179064.000,546127.300,511831.800,161364.300,153544.700,143007.800,149624.200,-0.137,0.949,-0.319,-0.641,4.639,-0.031,73.333,325.000,1.000,0.016,0.000
192276.300,179055.700,546030.400,511728.900,161324.400,153519.800,142983.100,149582.800,-0.139,0.948,-0.318,-0.946,4.791,-0.244,73.333,326.000,1.000,8.128,0.000
192255.100,179046.300,545923.300,511605.200,161251.400,153480.900,142939.100,149520.800,-0.143,0.944,-0.321,-1.190,4.883,-0.336,73.333,327.000,1.000,2.622,0.000
192247.800,179031.900,545830.800,511524.300,161227.200,153452.200,142913.800,149501.100,-0.146,0.941,-0.323,-1.251,4.791,-0.458,73.333,328.000,1.000,2.425,0.000
192282.100,179043.600,545794.900,511521.200,161303.200,153482.200,142957.900,149565.200,-0.151,0.938,-0.323,-1.404,4.761,-0.702,73.333,329.000,1.000,2.701,0.000
192306.300,179062.200,545752.300,511498.400,161364.600,153507.600,142996.300,149609.500,-0.151,0.938,-0.323,-1.404,4.669,-0.916,73.333,330.000,1.000,2.224,0.000
192293.500,179064.000,545666.400,511402.500,161332.800,153490.200,142981.100,149576.600,-0.152,0.938,-0.321,-1.556,4.486,-1.190,73.333,331.000,1.000,2.630,0.000
192251.500,179035.700,545545.100,511263.700,161240.100,153434.800,142918.200,149494.500,-0.152,0.934,-0.321,-1.801,4.028,-1.556,73.333,332.000,1.000,4.240,0.000
192259.100,179034.200,545471.000,511198.500,161230.400,153426.300,142910.900,149487.600,-0.153,0.934,-0.324,-1.923,3.754,-1.556,73.333,333.000,1.000,0.010,0.000
192285.900,179042.800,545426.300,511183.800,161296.400,153451.200,142946.600,149537.500,-0.153,0.933,-0.321,-2.014,3.418,-1.678,73.333,334.000,1.000,8.119,0.000
192299.400,179052.400,545372.700,511151.300,161349.300,153475.000,142977.800,149569.100,-0.155,0.933,-0.320,-2.075,3.052,-1.648,73.333,335.000,1.000,5.030,0.000
192280.500,179048.800,545280.700,511051.000,161314.000,153460.000,142962.800,149533.000,-0.153,0.934,-0.323,-2.228,2.655,-1.770,73.333,336.000,1.000,2.593,0.000
192237.500,179024.600,545160.300,510916.500,161229.000,153415.700,142909.300,149463.400,-0.152,0.934,-0.326,-2.380,2.289,-1.770,73.333,337.000,1.000,2.360,0.000
192242.500,179027.100,545085.400,510861.100,161225.100,153422.700,142906.500,149469.500,-0.154,0.932,-0.325,-2.380,1.892,-1.709,73.333,338.000,1.000,7.669,0.000
192275.800,179041.800,545046.300,510860.300,161296.900,153461.600,142950.000,149536.800,-0.154,0.929,-0.326,-2.563,1.678,-1.587,73.333,339.000,1.000,14.325,0.000
192294.500,179056.100,544997.400,510833.100,161353.700,153490.600,142983.200,149577.900,-0.154,0.926,-0.325,-2.533,1.251,-1.495,73.333,340.000,1.000,0.014,0.000
192268.800,179047.700,544900.800,510728.100,161315.000,153476.400,142961.600,149536.700,-0.154,0.926,-0.326,-2.563,0.977,-1.434,73.333,341.000,1.000,1.813,0.000
192241.500,179037.400,544797.000,510608.500,161240.800,153451.200,142921.500,149481.900,-0.155,0.927,-0.327,-2.716,0.763,-1.343,73.333,342.000,1.000,2.432,0.000
192248.300,179042.700,544728.500,510551.300,161239.300,153463.700,142927.200,149495.700,-0.153,0.925,-0.329,-2.655,0.305,-1.221,73.333,343.000,1.000,2.569,0.000
192274.500,179052.800,544686.000,510544.800,161310.600,153504.500,142970.600,149559.000,-0.150,0.928,-0.328,-2.777,-0.031,-1.160,73.333,344.000,1.000,4.982,0.000
192274.600,179046.500,544622.400,510503.500,161351.400,153512.600,142988.300,149590.500,-0.142,0.926,-0.331,-2.899,-0.244,-1.068,73.333,345.000,1.000,2.433,0.000
192246.600,179034.800,544522.900,510389.000,161303.700,153485.800,142959.900,149550.300,-0.137,0.925,-0.334,-2.838,-0.336,-0.977,73.333,346.000,1.000,3.165,0.000
192216.700,179018.700,544415.200,510269.300,161222.100,153446.900,142914.500,149494.500,-0.130,0.921,-0.335,-2.808,-0.366,-0.824,73.333,347.000,1.000,0.010,0.000
192226.400,179027.000,544351.000,510218.300,161224.800,153453.300,142914.300,149506.900,-0.124,0.917,-0.336,-2.655,-0.122,-0.641,73.333,348.000,1.000,1.813,0.000
192240.600,179023.500,544297.400,510200.300,161283.600,153471.800,142938.600,149553.800,-0.115,0.916,-0.335,-2.380,0.092,-0.305,73.333,349.000,1.000,13.864,0.000
192269.500,179045.900,544261.700,510185.700,161349.000,153510.800,142986.400,149603.000,-0.113,0.920,-0.336,-2.106,0.458,-0.214,73.333,350.000,1.000,4.912,0.000
192249.200,179036.900,544172.600,510088.200,161310.700,153490.900,142966.100,149566.800,-0.111,0.922,-0.334,-1.923,0.946,-0.092,73.333,351.000,1.000,0.019,0.000
192208.900,179006.500,544052.800,509954.900,161216.000,153433.100,142906.300,149493.100,-0.112,0.924,-0.334,-1.770,1.556,-0.061,73.333,352.000,1.000,0.005,0.000
192226.600,179011.300,543989.800,509904.100,161214.000,153435.600,142908.500,149499.100,-0.113,0.927,-0.331,-1.709,2.106,-0.061,73.333,353.000,1.000,7.548,0.000
192266.200,179029.500,543957.900,509908.000,161291.500,153475.400,142952.000,149560.200,-0.112,0.931,-0.336,-1.740,2.716,-0.214,73.333,354.000,1.000,6.242,0.000
192287.200,179048.100,543912.400,509877.800,161348.400,153505.600,142988.300,149596.600,-0.111,0.936,-0.335,-1.709,3.357,-0.305,73.333,355.000,1.000,5.512,0.000
192259.500,179036.900,543813.400,509766.800,161305.000,153483.900,142966.100,149548.600,-0.107,0.938,-0.338,-1.770,4.059,-0.519,73.333,356.000,1.000,0.009,0.000
192243.600,179038.400,543721.900,509662.500,161241.800,153463.200,142936.400,149498.100,-0.108,0.945,-0.336,-1.770,4.791,-0.702,73.333,357.000,1.000,5.000,0.000
192244.900,179032.200,543647.000,509602.000,161227.900,153450.800,142919.300,149490.600,-0.118,0.951,-0.335,-1.892,5.585,-0.916,73.333,358.000,1.000,0.008,0.000
192266.000,179036.000,543602.100,509593.500,161292.300,153470.800,142949.300,149538.800,-0.129,0.955,-0.332,-2.258,6.073,-1.251,73.333,359.000,1.000,1.914,0.000
192285.500,179050.300,543560.400,509574.200,161353.300,153496.500,142988.600,149582.400,-0.137,0.959,-0.333,-2.655,6.500,-1.678,73.333,360.000,1.000,16.372,0.000
192272.700,179053.200,543480.600,509485.500,161325.900,153486.300,142978.100,149557.900,-0.140,0.961,-0.336,-3.052,6.714,-2.136,73.333,361.000,1.000,7.351,0.000
192231.500,179022.400,543362.800,509353.700,161233.800,153427.800,142911.200,149483.000,-0.143,0.959,-0.333,-3.448,6.805,-2.594,73.333,362.000,1.000,0.008,0.000
192242.400,179021.200,543297.400,509305.100,161227.700,153417.300,142902.100,149491.200,-0.143,0.956,-0.334,-3.754,7.050,-2.991,73.333,363.000,1.000,0.003,0.000
192282.500,179040.900,543274.400,509311.200,161309.900,153456.400,142952.300,149563.000,-0.142,0.952,-0.336,-4.059,7.080,-3.326,73.333,364.000,1.000,2.539,0.000
192298.100,179054.100,543232.200,509281.100,161365.600,153492.100,142987.300,149601.900,-0.144,0.946,-0.333,-4.303,7.172,-3.815,73.333,365.000,1.000,2.475,0.000
192272.700,179046.100,543142.600,509176.500,161325.300,153483.200,142961.300,149563.000,-0.146,0.940,-0.331,-4.456,7.263,-4.028,73.333,366.000,1.000,2.561,0.000
192232.700,179022.500,543032.900,509049.300,161237.500,153447.900,142907.000,149493.900,-0.149,0.935,-0.332,-4.547,7.416,-4.272,73.333,367.000,1.000,2.474,0.000
192238.600,179028.900,542968.400,508996.400,161235.000,153456.300,142905.900,149499.700,-0.157,0.935,-0.336,-4.608,7.324,-4.333,73.333,368.000,1.000,3.806,0.000
192272.600,179047.500,542939.400,508999.100,161315.000,153498.900,142953.400,149564.400,-0.160,0.935,-0.338,-4.456,7.202,-4.395,73.333,369.000,1.000,8.768,0.000
192287.700,179060.100,542895.400,508964.900,161369.400,153530.100,142991.600,149605.500,-0.168,0.936,-0.331,-4.303,7.019,-4.425,73.333,370.000,1.000,9.811,0.000
192254.600,179044.100,542797.800,508849.700,161321.300,153506.500,142964.800,149559.900,-0.174,0.938,-0.335,-4.272,6.531,-4.150,73.333,371.000,1.000,0.014,0.000
192238.700,179039.300,542707.900,508741.700,161257.500,153486.600,142935.300,149513.200,-0.177,0.936,-0.338,-4.456,5.920,-3.784,73.333,372.000,1.000,0.005,0.000
192260.400,179050.200,542657.800,508703.500,161267.500,153501.500,142944.200,149532.500,-0.179,0.931,-0.333,-4.578,5.280,-3.387,73.333,373.000,1.000,3.128,0.000
192294.300,179063.100,542626.000,508706.300,161339.100,153536.500,142988.000,149598.800,-0.182,0.930,-0.332,-4.517,4.669,-2.991,73.333,374.000,1.000,0.005,0.000
192300.000,179061.500,542568.300,508670.200,161376.500,153544.800,143002.700,149621.300,-0.183,0.929,-0.333,-4.425,3.967,-2.686,73.333,375.000,1.000,10.728,0.000
192275.000,179048.000,542474.400,508566.200,161326.500,153516.900,142971.000,149571.700,-0.186,0.928,-0.333,-4.272,3.174,-2.319,73.333,376.000,1.000,16.224,0.000
192244.300,179031.600,542367.300,508446.700,161239.300,153473.000,142915.700,149499.800,-0.187,0.929,-0.332,-4.089,2.441,-2.045,73.333,377.000,1.000,0.021,0.000
192256.800,179037.400,542308.300,508401.200,161235.400,153475.400,142917.800,149505.400,-0.184,0.930,-0.335,-3.967,1.526,-1.587,73.333,378.000,1.000,0.003,0.000
192282.600,179044.000,542271.700,508396.200,161299.200,153501.600,142954.400,149560.900,-0.177,0.930,-0.336,-3.845,0.793,-1.190,73.333,379.000,1.000,5.529,0.000
192295.100,179053.000,542224.600,508366.100,161344.400,153523.500,142983.300,149594.000,-0.168,0.930,-0.330,-3.906,0.092,-0.732,73.333,380.000,1.000,0.010,0.000
192268.500,179042.500,542134.900,508267.600,161298.600,153504.300,142958.500,149549.800,-0.166,0.937,-0.327,-3.784,-0.427,-0.275,73.333,381.000,1.000,1.918,0.000
192236.500,179024.000,542032.000,508151.700,161215.500,153460.600,142905.800,149485.300,-0.164,0.941,-0.331,-3.784,-0.916,0.000,73.333,382.000,1.000,2.600,0.000
192238.100,179019.700,541964.400,508097.600,161207.400,153447.700,142896.800,149484.500,-0.162,0.948,-0.329,-3.967,-1.434,0.183,73.333,383.000,1.000,5.038,0.000
192274.500,179036.000,541938.800,508105.700,161287.300,153480.300,142942.800,149550.400,-0.162,0.948,-0.327,-4.059,-1.862,0.275,73.333,384.000,1.000,4.964,0.000
192286.000,179042.200,541894.200,508079.800,161338.500,153491.600,142969.000,149591.300,-0.158,0.951,-0.323,-4.181,-2.167,0.244,73.333,385.000,1.000,2.414,0.000
192261.200,179032.700,541805.800,507983.000,161296.900,153465.400,142946.900,149556.800,-0.157,0.948,-0.322,-4.364,-2.441,0.275,73.333,386.000,1.000,3.117,0.000
192226.600,179010.100,541698.100,507862.500,161213.400,153418.600,142891.400,149489.400,-0.150,0.947,-0.322,-4.425,-2.655,0.244,73.333,387.000,1.000,0.009,0.000
192240.600,179016.700,541644.700,507820.300,161217.900,153420.500,142887.000,149499.100,-0.145,0.942,-0.322,-4.517,-2.563,0.275,73.333,388.000,1.000,1.916,0.000
192283.000,179043.700,541630.600,507838.700,161308.900,153474.200,142945.200,149575.600,-0.139,0.937,-0.325,-4.456,-2.472,0.183,73.333,389.000,1.000,16.242,0.000
192302.300,179061.500,541594.800,507813.700,161365.100,153505.400,142979.700,149611.900,-0.135,0.936,-0.322,-4.395,-2.289,0.183,73.333,390.000,1.000,2.484,0.000
192291.000,179069.300,541523.400,507725.100,161337.100,153511.000,142971.600,149580.700,-0.131,0.934,-0.317,-4.211,-1.923,0.214,73.333,391.000,1.000,2.448,0.000
192262.000,179056.800,541426.900,507608.300,161260.300,153481.900,142922.900,149514.500,-0.130,0.932,-0.317,-4.028,-1.617,0.214,73.333,392.000,1.000,2.522,0.000
192237.900,179031.900,541338.200,507533.800,161225.200,153452.900,142885.400,149487.900,-0.130,0.929,-0.317,-3.815,-1.129,0.153,73.333,393.000,1.000,2.512,0.000
192268.400,179049.000,541314.600,507539.100,161300.800,153496.200,142930.700,149554.500,-0.128,0.927,-0.317,-3.448,-0.671,0.061,73.333,394.000,1.000,3.695,0.000
192284.600,179061.000,541277.800,507516.200,161355.300,153530.200,142971.800,149599.900,-0.130,0.923,-0.319,-3.235,-0.153,0.061,73.333,395.000,1.000,4.401,0.000
192253.100,179046.300,541185.300,507415.300,161307.800,153507.100,142949.000,149563.400,-0.131,0.920,-0.320,-2.869,0.244,-0.153,73.333,396.000,1.000,0.010,0.000
192223.800,179032.000,541086.500,507303.600,161233.100,153475.500,142907.400,149507.100,-0.131,0.920,-0.318,-2.472,0.793,-0.214,73.333,397.000,1.000,8.128,0.000
192227.300,179025.300,541023.600,507255.900,161229.300,153470.000,142905.900,149511.000,-0.134,0.923,-0.316,-2.045,1.282,-0.458,73.333,398.000,1.000,3.100,0.000
192261.600,179041.300,540998.800,507262.800,161307.400,153506.800,142951.700,149573.400,-0.137,0.925,-0.315,-1.709,1.862,-0.702,73.333,399.000,1.000,0.006,0.000
192268.200,179041.000,540950.100,507229.200,161349.000,153520.700,142975.900,149599.700,-0.141,0.925,-0.315,-1.465,2.136,-0.885,73.333,400.000,1.000,8.185,0.000
192246.300,179033.300,540864.100,507132.100,161303.100,153498.700,142955.100,149558.900,-0.145,0.927,-0.318,-1.282,2.411,-1.099,73.333,401.000,1.000,2.501,0.000
192225.100,179027.400,540772.900,507024.000,161226.200,153459.800,142910.800,149496.500,-0.147,0.927,-0.317,-0.977,2.747,-1.282,73.333,402.000,1.000,3.756,0.000
192236.000,179033.000,540720.600,506983.200,161227.400,153460.600,142911.800,149504.800,-0.152,0.927,-0.317,-0.854,2.899,-1.556,73.333,403.000,1.000,16.836,0.000
192271.100,179050.500,540700.000,506992.000,161306.800,153501.600,142962.600,149570.400,-0.155,0.928,-0.316,-0.671,3.052,-1.740,73.333,404.000,1.000,0.019,0.000
192257.300,179033.800,540629.800,506937.900,161324.100,153493.400,142963.100,149570.500,-0.156,0.930,-0.314,-0.458,3.082,-1.923,73.333,405.000,1.000,1.878,0.000
192232.200,179027.600,540545.900,506840.900,161278.900,153468.300,142940.200,149530.600,-0.154,0.931,-0.317,-0.305,3.052,-2.014,73.333,406.000,1.000,2.489,0.000
192201.900,179009.200,540451.900,506734.800,161202.700,153429.900,142897.200,149476.700,-0.157,0.935,-0.318,-0.214,2.991,-2.106,73.333,407.000,1.000,5.088,0.000
192214.100,179009.800,540397.200,506694.300,161202.800,153428.000,142897.000,149491.700,-0.158,0.935,-0.317,-0.305,2.899,-2.167,73.333,408.000,1.000,2.362,0.000
192254.000,179021.900,540376.300,506704.900,161278.700,153460.000,142938.600,149561.700,-0.158,0.933,-0.317,-0.305,2.716,-2.197,73.333,409.000,1.000,38.921,0.000
192273.700,179030.400,540337.600,506680.000,161326.500,153477.600,142963.200,149594.400,-0.156,0.934,-0.320,-0.427,2.716,-2.228,73.333,410.000,1.000,2.395,0.000
192247.300,179022.600,540252.300,506579.300,161280.700,153450.100,142937.700,149555.300,-0.158,0.932,-0.322,-0.427,2.472,-2.167,73.333,411.000,1.000,2.477,0.000
192226.100,179017.900,540163.900,506473.600,161213.000,153417.100,142895.500,149500.500,-0.162,0.933,-0.323,-0.366,2.197,-2.075,73.333,412.000,1.000,3.091,0.000
192239.000,179028.000,540114.600,506433.400,161220.500,153429.600,142899.300,149511.600,-0.164,0.933,-0.326,-0.305,1.892,-1.892,73.333,413.000,1.000,0.011,0.000
192286.300,179061.000,540104.700,506454.200,161313.100,153483.100,142955.000,149586.300,-0.165,0.933,-0.323,-0.397,1.526,-1.709,73.333,414.000,1.000,1.959,0.000
192299.500,179068.800,540064.500,506429.800,161365.100,153510.300,142984.000,149616.300,-0.165,0.933,-0.324,-0.610,1.160,-1.678,73.333,415.000,1.000,2.471,0.000
192265.000,179050.600,539973.900,506326.300,161312.800,153487.300,142951.600,149566.100,-0.165,0.933,-0.325,-0.641,0.732,-1.465,73.333,416.000,1.000,2.488,0.000
192252.800,179055.400,539897.400,506233.200,161254.800,153480.400,142928.600,149526.700,-0.164,0.935,-0.326,-0.824,0.275,-1.373,73.333,417.000,1.000,2.496,0.000
192242.700,179038.800,539822.400,506171.900,161236.800,153475.800,142912.000,149517.500,-0.165,0.935,-0.328,-0.916,-0.061,-1.282,73.333,418.000,1.000,2.449,0.000
192267.800,179043.600,539791.400,506170.800,161307.500,153512.100,142951.000,149575.900,-0.164,0.935,-0.329,-1.038,-0.488,-1.099,73.333,419.000,1.000,2.534,0.000
192271.900,179043.700,539744.900,506134.500,161351.800,153537.300,142982.000,149607.300,-0.162,0.933,-0.329,-1.251,-0.916,-0.885,73.333,420.000,1.000,10.021,0.000
192241.500,179024.900,539653.100,506028.000,161298.800,153511.400,142952.800,149558.200,-0.161,0.930,-0.325,-1.404,-1.160,-0.702,73.333,421.000,1.000,2.468,0.000
192213.800,179006.500,539555.500,505915.900,161215.700,153469.600,142903.900,149492.100,-0.158,0.929,-0.324,-1.556,-1.404,-0.610,73.333,422.000,1.000,2.519,0.000
192226.400,179011.600,539506.500,505878.100,161214.800,153475.000,142908.700,149501.500,-0.156,0.928,-0.328,-1.709,-1.740,-0.488,73.333,423.000,1.000,18.018,0.000
192265.500,179033.100,539489.700,505888.300,161293.900,153519.800,142960.200,149565.100,-0.154,0.926,-0.331,-1.831,-2.045,-0.427,73.333,424.000,1.000,0.016,0.000
192277.600,179041.300,539448.500,505862.800,161337.000,153536.500,142982.600,149590.700,-0.152,0.928,-0.331,-1.984,-2.258,-0.275,73.333,425.000,1.000,2.526,0.000
192243.400,179026.800,539360.500,505762.300,161280.600,153501.600,142951.300,149537.200,-0.151,0.928,-0.336,-2.136,-2.441,-0.153,73.333,426.000,1.000,0.006,0.000
192215.200,179012.800,539272.100,505655.700,161204.900,153464.200,142908.400,149476.300,-0.150,0.928,-0.336,-2.167,-2.594,-0.061,73.333,427.000,1.000,4.394,0.000
192219.000,179009.000,539215.400,505613.600,161200.700,153454.500,142902.200,149484.300,-0.148,0.926,-0.340,-2.228,-2.777,-0.061,73.333,428.000,1.000,2.574,0.000
192248.400,179020.100,539190.200,505620.300,161270.500,153481.300,142943.900,149547.100,-0.144,0.925,-0.336,-2.197,-2.777,-0.061,73.333,429.000,1.000,2.390,0.000
192253.100,179019.000,539142.300,505590.600,161305.200,153491.100,142966.100,149575.000,-0.142,0.924,-0.337,-2.258,-2.716,-0.061,73.333,430.000,1.000,3.137,0.000
192226.000,179003.100,539058.500,505495.700,161255.000,153459.800,142935.800,149530.400,-0.141,0.923,-0.336,-2.167,-2.563,0.000,73.333,431.000,1.000,0.010,0.000
192210.600,178998.600,538982.900,505403.000,161191.500,153426.900,142892.800,149481.700,-0.138,0.925,-0.338,-2.136,-2.350,-0.092,73.333,432.000,1.000,2.472,0.000
192218.900,178998.900,538934.600,505363.700,161192.300,153418.000,142880.700,149488.400,-0.139,0.925,-0.335,-2.167,-2.197,-0.061,73.333,433.000,1.000,0.006,0.000
192260.100,179022.200,538925.400,505383.500,161277.900,153456.000,142928.600,149561.700,-0.139,0.926,-0.336,-2.136,-1.953,0.000,73.333,434.000,1.000,1.959,0.000
192287.000,179044.900,538902.600,505375.200,161341.900,153489.500,142974.000,149614.600,-0.140,0.929,-0.333,-2.075,-1.801,-0.092,73.333,435.000,1.000,5.010,0.000
192244.100,179023.400,538807.900,505268.500,161284.200,153453.100,142938.400,149564.800,-0.143,0.932,-0.331,-2.075,-1.434,-0.153,73.333,436.000,1.000,2.400,0.000
192207.500,179014.000,538714.500,505156.500,161211.200,153422.000,142896.000,149509.000,-0.141,0.934,-0.328,-2.197,-1.312,-0.214,73.333,437.000,1.000,2.603,0.000
192212.000,179015.800,538660.400,505115.800,161217.700,153431.000,142892.700,149517.000,-0.142,0.938,-0.330,-2.350,-1.068,-0.214,73.333,438.000,1.000,3.030,0.000
192242.700,179033.400,538639.100,505126.400,161298.700,153478.900,142941.000,149582.400,-0.141,0.941,-0.329,-2.411,-0.793,-0.275,73.333,439.000,1.000,0.006,0.000
192251.200,179043.800,538597.400,505098.400,161344.300,153507.000,142967.500,149612.200,-0.142,0.944,-0.331,-2.502,-0.458,-0.336,73.333,440.000,1.000,1.950,0.000
192222.200,179031.300,538509.100,504997.500,161290.700,153487.900,142937.700,149563.700,-0.142,0.947,-0.330,-2.655,-0.214,-0.427,73.333,441.000,1.000,2.434,0.000
192194.500,179018.900,538418.500,504888.800,161214.600,153461.900,142894.800,149504.700,-0.144,0.948,-0.326,-2.808,0.275,-0.366,73.333,442.000,1.000,4.965,0.000
192207.900,179022.100,538368.300,504851.500,161216.300,153471.500,142897.200,149514.200,-0.144,0.951,-0.326,-2.838,0.580,-0.397,73.333,443.000,1.000,3.110,0.000
192245.100,179034.400,538350.800,504863.400,161292.900,153514.200,142947.000,149578.700,-0.143,0.949,-0.322,-3.052,0.824,-0.488,73.333,444.000,1.000,0.009,0.000
192257.600,179037.600,538315.500,504839.000,161336.300,153538.000,142973.800,149606.000,-0.144,0.948,-0.323,-3.174,1.221,-0.458,73.333,445.000,1.000,10.627,0.000
192233.300,179027.600,538238.400,504744.100,161288.900,153514.900,142947.700,149558.600,-0.143,0.948,-0.322,-3.235,1.648,-0.305,73.333,446.000,1.000,3.075,0.000
192210.100,179019.000,538157.100,504642.000,161217.900,153486.200,142914.600,149502.700,-0.143,0.944,-0.323,-3.418,1.892,-0.183,73.333,447.000,1.000,0.008,0.000
192231.400,179034.400,538118.600,504611.100,161227.300,153495.600,142922.600,149513.000,-0.144,0.941,-0.322,-3.540,2.136,-0.214,73.333,448.000,1.000,1.940,0.000
192240.500,179024.900,538076.300,504601.400,161278.700,153507.000,142947.500,149556.800,-0.144,0.939,-0.320,-3.632,2.472,-0.183,73.333,449.000,1.000,9.369,0.000
192248.400,179029.300,538034.900,504575.700,161317.800,153515.500,142966.300,149580.100,-0.144,0.940,-0.320,-3.571,2.777,-0.122,73.333,450.000,1.000,0.008,0.000
192229.000,179021.900,537958.300,504487.500,161271.200,153491.900,142943.300,149536.000,-0.145,0.939,-0.321,-3.510,3.082,-0.061,73.333,451.000,1.000,1.888,0.000
192206.700,179010.000,537869.600,504384.800,161198.000,153459.000,142900.200,149473.500,-0.144,0.933,-0.321,-3.418,3.448,0.000,73.333,452.000,1.000,3.668,0.000
192210.600,179002.300,537810.300,504339.100,161189.300,153443.000,142886.800,149473.000,-0.144,0.928,-0.319,-3.387,3.510,0.031,73.333,453.000,1.000,14.442,0.000
192240.400,179012.800,537790.000,504350.100,161263.200,153468.500,142928.200,149536.800,-0.144,0.923,-0.321,-3.296,3.723,-0.031,73.333,454.000,1.000,0.010,0.000
192256.600,179025.600,537761.400,504336.000,161315.300,153488.900,142959.600,149576.400,-0.145,0.921,-0.322,-3.052,4.059,0.000,73.333,455.000,1.000,6.874,0.000
192223.500,179010.400,537678.900,504239.700,161265.300,153451.500,142926.400,149534.200,-0.148,0.920,-0.323,-2.686,4.425,-0.092,73.333,456.000,1.000,8.071,0.000
192194.500,178992.400,537595.100,504140.600,161192.800,153402.200,142881.400,149482.800,-0.151,0.925,-0.322,-2.472,4.639,0.031,73.333,457.000,1.000,0.012,0.000
192214.500,178999.900,537561.400,504119.100,161207.700,153407.700,142891.000,149509.000,-0.152,0.928,-0.322,-2.319,4.822,-0.031,73.333,458.000,1.000,2.527,0.000
192260.100,179028.500,537554.400,504145.100,161297.800,153453.000,142945.800,149588.400,-0.157,0.930,-0.321,-2.136,4.791,-0.061,73.333,459.000,1.000,0.010,0.000
192270.100,179034.200,537514.300,504123.600,161343.000,153471.900,142973.100,149621.600,-0.155,0.932,-0.320,-1.923,4.944,-0.061,73.333,460.000,1.000,1.943,0.000
192231.500,179015.700,537424.600,504018.400,161286.500,153441.700,142936.600,149573.200,-0.156,0.934,-0.323,-1.953,4.913,-0.092,73.333,461.000,1.000,6.188,0.000
192203.900,179008.900,537334.100,503911.600,161214.100,153419.800,142895.300,149519.400,-0.156,0.935,-0.322,-1.953,4.700,-0.092,73.333,462.000,1.000,8.058,0.000
192212.000,179013.900,537280.400,503870.900,161210.700,153431.300,142887.900,149523.000,-0.159,0.939,-0.321,-1.801,4.608,-0.183,73.333,463.000,1.000,0.020,0.000
192231.800,179018.300,537248.600,503870.800,161274.400,153468.800,142923.000,149576.200,-0.158,0.939,-0.321,-1.740,4.456,-0.214,73.333,464.000,1.000,1.929,0.000
192246.600,179033.800,537217.700,503852.300,161324.000,153503.800,142955.100,149612.600,-0.160,0.939,-0.324,-1.770,4.272,-0.305,73.333,465.000,1.000,6.249,0.000
192227.200,179032.800,537148.800,503763.900,161282.600,153495.900,142941.700,149573.700,-0.161,0.937,-0.323,-1.801,4.059,-0.305,73.333,466.000,1.000,3.059,0.000
192202.100,179024.500,537068.900,503659.800,161210.100,153468.400,142900.900,149511.000,-0.163,0.936,-0.326,-1.892,3.906,-0.305,73.333,467.000,1.000,0.012,0.000
192210.300,179019.700,537020.200,503624.100,161211.400,153469.300,142900.800,149516.600,-0.162,0.935,-0.324,-1.831,3.632,-0.336,73.333,468.000,1.000,1.858,0.000
192238.300,179024.400,536997.300,503631.100,161280.000,153498.600,142935.800,149568.600,-0.161,0.933,-0.325,-1.892,3.357,-0.488,73.333,469.000,1.000,18.784,0.000
192242.900,179025.000,536955.600,503601.300,161315.100,153511.200,142952.400,149586.500,-0.162,0.933,-0.325,-1.892,3.021,-0.488,73.333,470.000,1.000,14.877,0.000
192214.800,179013.300,536876.300,503508.400,161261.300,153486.400,142926.300,149540.700,-0.161,0.932,-0.328,-1.862,2.625,-0.519,73.333,471.000,1.000,0.020,0.000
192182.400,178994.400,536784.600,503400.300,161176.700,153441.600,142875.400,149472.700,-0.161,0.933,-0.328,-1.892,2.319,-0.549,73.333,472.000,1.000,0.004,0.000
192195.900,179000.900,536740.400,503365.600,161183.800,153447.100,142880.200,149482.300,-0.161,0.931,-0.330,-1.892,1.892,-0.488,73.333,473.000,1.000,14.405,0.000
192229.000,179016.300,536723.600,503378.800,161263.700,153485.800,142932.300,149549.700,-0.160,0.931,-0.329,-2.014,1.648,-0.519,73.333,474.000,1.000,0.012,0.000
192249.700,179039.500,536698.800,503365.300,161318.300,153517.900,142969.600,149581.300,-0.159,0.934,-0.327,-1.984,1.343,-0.580,73.333,475.000,1.000,9.390,0.000
192234.700,179042.500,536634.900,503283.200,161281.900,153499.100,142951.900,149540.200,-0.158,0.934,-0.330,-1.984,1.160,-0.519,73.333,476.000,1.000,2.487,0.000
192200.300,179015.800,536544.600,503173.900,161199.800,153452.700,142903.500,149472.400,-0.157,0.933,-0.331,-2.014,0.885,-0.458,73.333,477.000,1.000,7.571,0.000
192203.000,179006.500,536488.800,503126.100,161186.800,153437.700,142889.500,149463.700,-0.157,0.934,-0.330,-2.014,0.610,-0.427,73.333,478.000,1.000,2.430,0.000
192245.500,179024.800,536480.100,503145.900,161263.200,153469.100,142931.100,149526.200,-0.158,0.933,-0.327,-2.136,0.244,-0.549,73.333,479.000,1.000,2.482,0.000
192257.300,179030.600,536446.000,503126.300,161304.400,153479.400,142950.900,149555.700,-0.159,0.933,-0.329,-2.167,0.031,-0.488,73.333,480.000,1.000,2.506,0.000
192236.800,179027.100,536375.300,503038.300,161261.500,153454.900,142927.300,149518.900,-0.160,0.932,-0.329,-2.136,-0.153,-0.519,73.333,481.000,1.000,4.980,0.000
192218.700,179021.400,536302.700,502949.800,161200.700,153425.400,142893.800,149475.700,-0.158,0.935,-0.333,-2.228,-0.336,-0.641,73.333,482.000,1.000,6.291,0.000
192224.400,179021.900,536260.500,502916.900,161208.000,153421.000,142893.000,149492.800,-0.158,0.938,-0.333,-2.380,-0.519,-0.519,73.333,483.000,1.000,2.500,0.000
192262.700,179044.800,536255.900,502941.500,161295.000,153464.900,142943.900,149573.300,-0.158,0.935,-0.329,-2.472,-0.702,-0.549,73.333,484.000,1.000,3.060,0.000
192278.200,179061.700,536229.200,502928.400,161349.700,153490.700,142971.000,149615.900,-0.154,0.937,-0.331,-2.502,-0.793,-0.488,73.333,485.000,1.000,0.011,0.000
192237.400,179039.100,536135.600,502820.800,161287.200,153452.800,142927.300,149558.500,-0.155,0.936,-0.332,-2.625,-0.824,-0.488,73.333,486.000,1.000,2.477,0.000
192212.000,179028.900,536054.900,502722.200,161219.700,153430.300,142896.000,149512.400,-0.151,0.935,-0.332,-2.655,-0.977,-0.549,73.333,487.000,1.000,0.007,0.000
192226.400,179034.900,536013.900,502690.500,161226.800,153435.400,142887.600,149519.000,-0.147,0.931,-0.330,-2.594,-0.885,-0.427,73.333,488.000,1.000,1.897,0.000
192282.300,179074.900,536024.900,502729.700,161332.000,153504.100,142958.800,149609.900,-0.140,0.928,-0.333,-2.563,-0.671,-0.488,73.333,489.000,1.000,2.559,0.000
192295.500,179084.500,535995.400,502712.400,161379.200,153533.900,142993.200,149646.100,-0.138,0.923,-0.333,-2.258,-0.427,-0.336,73.333,490.000,1.000,2.416,0.000
192245.800,179047.600,535896.300,502596.600,161307.300,153491.200,142946.100,149578.400,-0.137,0.921,-0.333,-2.136,-0.061,-0.183,73.333,491.000,1.000,5.604,0.000
192213.900,179029.700,535809.200,502489.800,161230.300,153461.000,142904.500,149517.200,-0.138,0.920,-0.335,-1.953,0.336,0.000,73.333,492.000,1.000,0.017,0.000
192221.800,179030.200,535762.300,502451.700,161232.300,153467.900,142905.900,149523.300,-0.139,0.917,-0.334,-1.709,0.671,0.000,73.333,493.000,1.000,1.904,0.000
192253.200,179045.000,535745.800,502463.700,161309.500,153509.400,142953.200,149585.600,-0.143,0.917,-0.332,-1.312,0.946,0.183,73.333,494.000,1.000,3.109,0.000
192264.900,179055.200,535711.500,502442.600,161355.700,153534.900,142984.500,149613.200,-0.145,0.919,-0.335,-1.068,1.343,0.244,73.333,495.000,1.000,0.007,0.000
192235.500,179043.800,535631.900,502347.100,161303.700,153514.100,142960.500,149565.300,-0.144,0.923,-0.331,-0.885,1.556,0.214,73.333,496.000,1.000,1.900,0.000
192208.400,179029.700,535544.600,502241.500,161222.400,153477.500,142915.200,149502.900,-0.144,0.926,-0.331,-0.641,1.740,0.061,73.333,497.000,1.000,13.757,0.000
192219.600,179029.800,535498.900,502209.400,161220.900,153475.500,142912.000,149504.500,-0.145,0.930,-0.330,-0.519,2.106,0.000,73.333,498.000,1.000,3.676,0.000
192253.500,179041.500,535485.100,502228.200,161294.500,153507.600,142953.600,149561.100,-0.144,0.933,-0.331,-0.427,2.350,-0.092,73.333,499.000,1.000,0.011,0.000
192261.100,179043.700,535447.500,502200.600,161328.900,153515.600,142970.700,149575.500,-0.146,0.937,-0.331,-0.397,2.594,-0.031,73.333,500.000,1.000,0.004,0.000
192226.600,179023.700,535363.000,502095.600,161266.700,153476.100,142930.100,149513.600,-0.147,0.936,-0.330,-0.366,2.838,-0.031,73.333,501.000,1.000,2.513,0.000
192210.300,179019.300,535290.300,502004.400,161197.500,153438.800,142890.800,149461.500,-0.147,0.938,-0.333,-0.488,2.930,-0.122,73.333,502.000,1.000,3.763,0.000
192232.000,179032.800,535260.000,501982.900,161208.600,153443.500,142900.400,149479.300,-0.149,0.938,-0.336,-0.488,3.174,-0.153,73.333,503.000,1.000,13.803,0.000
192263.900,179042.800,535248.300,502001.700,161282.600,153470.200,142938.000,149543.500,-0.148,0.941,-0.335,-0.671,3.296,-0.214,73.333,504.000,1.000,3.070,0.000
192261.600,179038.200,535205.400,501976.200,161315.800,153475.500,142958.100,149573.100,-0.150,0.941,-0.332,-0.885,3.479,-0.275,73.333,505.000,1.000,0.034,0.000
192240.100,179036.000,535138.200,501900.500,161275.400,153449.200,142930.900,149539.800,-0.151,0.941,-0.331,-0.946,3.662,-0.336,73.333,506.000,1.000,1.696,0.000
192220.800,179029.700,535065.200,501810.900,161212.300,153414.500,142891.400,149492.800,-0.153,0.941,-0.330,-1.160,3.754,-0.275,73.333,507.000,1.000,2.592,0.000
192230.500,179031.100,535022.400,501777.100,161221.900,153415.500,142889.600,149507.800,-0.153,0.941,-0.335,-1.343,3.754,-0.305,73.333,508.000,1.000,10.054,0.000
192269.400,179055.500,535016.600,501800.700,161310.200,153461.100,142938.600,149584.900,-0.153,0.939,-0.335,-1.526,3.784,-0.305,73.333,509.000,1.000,15.582,0.000
192282.900,179072.400,534992.400,501783.300,161366.000,153492.900,142977.100,149628.100,-0.156,0.940,-0.333,-1.740,3.754,-0.244,73.333,510.000,1.000,0.020,0.000
192259.300,179069.500,534924.500,501691.500,161327.900,153482.500,142959.000,149589.900,-0.153,0.939,-0.333,-1.831,3.784,-0.366,73.333,511.000,1.000,1.772,0.000
192225.800,179052.600,534840.500,501588.200,161253.700,153456.100,142912.400,149527.700,-0.153,0.938,-0.335,-1.953,3.723,-0.275,73.333,512.000,1.000,2.548,0.000
192230.500,179049.500,534790.900,501553.800,161253.400,153464.300,142914.300,149538.600,-0.152,0.938,-0.333,-2.197,3.601,-0.305,73.333,513.000,1.000,8.795,0.000
192259.000,179059.700,534771.700,501566.500,161328.700,153510.800,142967.300,149606.000,-0.152,0.937,-0.333,-2.289,3.693,-0.275,73.333,514.000,1.000,2.369,0.000
192263.500,179066.300,534733.900,501539.700,161366.700,153540.700,142990.200,149628.200,-0.150,0.935,-0.332,-2.441,3.479,-0.122,73.333,515.000,1.000,2.627,0.000
192237.000,179057.500,534659.900,501449.600,161315.800,153526.900,142970.100,149586.600,-0.152,0.933,-0.334,-2.502,3.357,0.000,73.333,516.000,1.000,2.441,0.000
192213.100,179047.300,534581.100,501355.300,161247.500,153505.200,142935.700,149536.400,-0.154,0.935,-0.332,-2.747,3.326,0.061,73.333,517.000,1.000,2.552,0.000
192225.100,179049.600,534538.700,501325.900,161255.600,153515.700,142943.900,149549.600,-0.154,0.935,-0.336,-2.808,3.143,0.000,73.333,518.000,1.000,2.388,0.000
192252.800,179056.200,534521.100,501339.900,161327.100,153545.700,142987.900,149613.000,-0.155,0.933,-0.336,-2.991,2.960,-0.061,73.333,519.000,1.000,2.614,0.000
192258.600,179060.400,534484.400,501318.200,161364.200,153562.400,143013.100,149637.300,-0.157,0.933,-0.336,-3.021,2.716,-0.153,73.333,520.000,1.000,3.047,0.000
192219.500,179042.000,534397.700,501213.600,161300.300,153523.400,142975.700,149576.300,-0.155,0.933,-0.333,-3.021,2.502,-0.183,73.333,521.000,1.000,0.008,0.000
192191.700,179024.900,534312.700,501106.700,161219.400,153477.300,142925.100,149510.200,-0.155,0.933,-0.332,-3.174,2.319,-0.275,73.333,522.000,1.000,10.591,0.000
192199.800,179020.200,534263.900,501068.400,161214.300,153465.400,142913.600,149510.000,-0.155,0.931,-0.332,-3.296,2.045,-0.305,73.333,523.000,1.000,3.151,0.000
192239.500,179043.200,534261.000,501093.500,161296.500,153502.800,142961.100,149574.300,-0.155,0.929,-0.333,-3.387,1.770,-0.366,73.333,524.000,1.000,0.012,0.000
192253.700,179060.600,534234.800,501080.000,161342.700,153525.700,142993.100,149602.800,-0.155,0.927,-0.332,-3.418,1.678,-0.397,73.333,525.000,1.000,1.848,0.000
192222.400,179043.700,534157.800,500988.700,161288.200,153494.700,142963.900,149554.200,-0.153,0.927,-0.335,-3.510,1.556,-0.275,73.333,526.000,1.000,11.384,0.000
192195.300,179024.400,534077.900,500894.900,161216.300,153453.600,142917.400,149497.100,-0.151,0.927,-0.331,-3.326,1.251,-0.214,73.333,527.000,1.000,2.997,0.000
192210.800,179029.100,534043.600,500873.800,161229.800,153458.600,142920.200,149516.300,-0.152,0.928,-0.333,-3.235,1.099,-0.153,73.333,528.000,1.000,0.011,0.000
192243.200,179042.600,534031.900,500894.200,161306.500,153487.600,142961.900,149584.300,-0.152,0.930,-0.331,-3.235,0.854,-0.305,73.333,529.000,1.000,1.939,0.000
192245.000,179038.700,533992.500,500873.100,161342.800,153497.600,142986.200,149616.000,-0.153,0.933,-0.333,-3.357,0.763,-0.275,73.333,530.000,1.000,7.450,0.000
192210.100,179020.300,533909.500,500775.900,161288.000,153469.600,142956.000,149570.100,-0.155,0.934,-0.333,-3.479,0.732,-0.244,73.333,531.000,1.000,11.820,0.000
192183.700,179009.000,533828.100,500679.400,161215.000,153434.100,142908.800,149512.700,-0.152,0.934,-0.331,-3.510,0.580,-0.244,73.333,532.000,1.000,0.010,0.000
192208.400,179026.900,533801.400,500665.300,161232.300,153452.000,142919.500,149533.500,-0.152,0.933,-0.334,-3.662,0.519,-0.214,73.333,533.000,1.000,6.252,0.000
192241.900,179043.600,533790.600,500684.700,161308.600,153494.400,142961.000,149596.800,-0.151,0.933,-0.329,-3.784,0.458,-0.153,73.333,534.000,1.000,0.015,0.000
192256.200,179060.100,533763.400,500661.300,161357.100,153528.800,142995.100,149629.600,-0.152,0.932,-0.333,-3.723,0.336,-0.153,73.333,535.000,1.000,1.885,0.000
192224.700,179049.800,533685.100,500566.300,161304.400,153508.800,142966.300,149580.200,-0.151,0.933,-0.330,-3.632,0.244,-0.153,73.333,536.000,1.000,5.107,0.000
192196.600,179035.200,533598.800,500465.600,161223.000,153468.500,142909.400,149513.600,-0.150,0.936,-0.328,-3.601,0.122,-0.122,73.333,537.000,1.000,2.462,0.000
192203.400,179018.100,533552.700,500431.700,161220.800,153457.800,142900.300,149518.100,-0.148,0.938,-0.327,-3.601,0.244,-0.031,73.333,538.000,1.000,2.361,0.000
192243.000,179040.000,533549.100,500456.100,161302.300,153502.900,142955.500,149587.100,-0.148,0.934,-0.327,-3.540,0.275,-0.031,73.333,539.000,1.000,3.867,0.000
192251.800,179047.900,533518.800,500434.100,161340.400,153524.000,142987.300,149616.000,-0.149,0.935,-0.328,-3.479,0.336,-0.122,73.333,540.000,1.000,6.747,0.000
192219.300,179035.100,533442.800,500340.500,161285.600,153498.700,142958.500,149566.100,-0.145,0.932,-0.329,-3.448,0.458,0.092,73.333,541.000,1.000,0.009,0.000
192187.800,179014.300,533362.400,500244.400,161207.000,153450.700,142907.700,149503.700,-0.144,0.930,-0.329,-3.326,0.610,0.214,73.333,542.000,1.000,8.238,0.000
192204.700,179017.500,533328.600,500221.300,161215.100,153450.900,142906.900,149512.600,-0.143,0.926,-0.327,-3.296,0.763,0.305,73.333,543.000,1.000,3.069,0.000
192240.700,179038.500,533320.600,500241.000,161291.500,153482.300,142944.400,149570.500,-0.145,0.927,-0.326,-3.113,1.068,0.275,73.333,544.000,1.000,0.008,0.000
192253.700,179044.300,533294.100,500222.800,161334.800,153498.600,142972.900,149598.100,-0.144,0.926,-0.326,-2.838,1.190,0.366,73.333,545.000,1.000,9.342,0.000
192228.900,179036.900,533225.400,500136.200,161283.900,153472.400,142944.800,149546.000,-0.146,0.927,-0.323,-2.625,1.373,0.305,73.333,546.000,1.000,2.610,0.000
192204.800,179026.700,533150.600,500045.600,161213.600,153438.700,142906.200,149491.300,-0.148,0.927,-0.321,-2.533,1.678,0.397,73.333,547.000,1.000,2.423,0.000
192212.700,179024.200,533105.700,500015.100,161213.700,153437.500,142902.500,149495.900,-0.149,0.929,-0.321,-2.411,1.892,0.397,73.333,548.000,1.000,13.801,0.000
192253.100,179046.400,533101.800,500041.000,161294.000,153477.500,142949.000,149562.200,-0.148,0.930,-0.322,-2.289,2.075,0.397,73.333,549.000,1.000,7.353,0.000
192276.500,179062.200,533085.400,500036.000,161349.600,153503.200,142984.600,149603.600,-0.147,0.932,-0.322,-2.075,2.289,0.244,73.333,550.000,1.000,0.011,0.000
192245.800,179045.600,533012.100,499943.900,161298.700,153475.000,142956.500,149557.600,-0.148,0.933,-0.327,-1.953,2.441,0.275,73.333,551.000,1.000,0.003,0.000
192219.700,179028.400,532933.500,499850.200,161225.300,153441.900,142917.000,149504.700,-0.146,0.933,-0.328,-1.801,2.533,0.214,73.333,552.000,1.000,2.611,0.000
192235.400,179040.700,532898.300,499825.400,161236.800,153451.500,142917.000,149520.800,-0.146,0.933,-0.326,-1.801,2.747,0.183,73.333,553.000,1.000,2.527,0.000
192278.500,179067.800,532899.500,499853.100,161325.700,153498.600,142970.700,149596.700,-0.145,0.934,-0.328,-1.831,2.838,0.183,73.333,554.000,1.000,2.487,0.000
192276.100,179067.400,532857.600,499822.800,161358.200,153511.400,142987.800,149617.200,-0.142,0.934,-0.329,-1.648,3.021,0.153,73.333,555.000,1.000,2.530,0.000
192244.000,179053.800,532779.400,499724.800,161302.800,153486.000,142954.000,149567.700,-0.142,0.935,-0.327,-1.587,3.021,0.214,73.333,556.000,1.000,6.229,0.000
192214.600,179040.300,532696.800,499621.100,161223.700,153452.200,142904.400,149505.800,-0.141,0.935,-0.327,-1.678,3.204,0.244,73.333,557.000,1.000,2.427,0.000
192217.800,179030.600,532653.600,499590.200,161228.100,153459.700,142904.600,149514.600,-0.142,0.936,-0.327,-1.678,3.387,0.244,73.333,558.000,1.000,9.268,0.000
192247.600,179046.800,532646.400,499613.500,161307.500,153506.100,142952.800,149582.300,-0.145,0.936,-0.332,-1.770,3.448,0.244,73.333,559.000,1.000,0.011,0.000
192255.700,179056.700,532620.600,499597.000,161350.500,153529.000,142980.400,149613.000,-0.144,0.934,-0.331,-1.770,3.601,0.122,73.333,560.000,1.000,1.984,0.000
192229.500,179046.600,532550.800,499507.600,161303.400,153506.500,142953.800,149571.300,-0.147,0.933,-0.330,-1.801,3.632,0.061,73.333,561.000,1.000,12.500,0.000
192208.000,179038.000,532478.100,499418.500,161235.800,153476.900,142917.600,149520.800,-0.151,0.934,-0.327,-1.862,3.479,-0.122,73.333,562.000,1.000,2.514,0.000
192229.400,179045.900,532447.600,499403.300,161252.200,153487.000,142928.800,149542.200,-0.154,0.934,-0.328,-1.923,3.265,-0.183,73.333,563.000,1.000,2.476,0.000
192278.500,179075.800,532456.100,499439.000,161344.400,153536.100,142985.800,149618.600,-0.156,0.929,-0.330,-1.892,3.052,-0.427,73.333,564.000,1.000,2.477,0.000
192294.700,179089.800,532434.800,499424.100,161387.700,153556.100,143011.700,149643.600,-0.157,0.923,-0.329,-1.923,2.930,-0.458,73.333,565.000,1.000,3.106,0.000
192257.700,179069.000,532352.800,499321.900,161320.100,153512.300,142966.600,149580.400,-0.156,0.918,-0.331,-1.831,2.686,-0.610,73.333,566.000,1.000,0.007,0.000
192232.400,179054.300,532279.400,499226.900,161245.000,153472.500,142923.600,149522.400,-0.156,0.917,-0.333,-1.831,2.502,-0.580,73.333,567.000,1.000,1.947,0.000
192234.000,179045.900,532233.300,499191.300,161240.700,153465.300,142918.300,149521.600,-0.153,0.921,-0.337,-1.709,2.319,-0.671,73.333,568.000,1.000,8.705,0.000
192266.400,179055.700,532225.100,499215.600,161318.600,153508.500,142972.900,149589.400,-0.153,0.928,-0.335,-1.678,2.136,-0.580,73.333,569.000,1.000,8.755,0.000
192280.400,179066.400,532199.000,499199.100,161360.200,153528.700,142999.900,149617.500,-0.154,0.935,-0.334,-1.678,2.045,-0.641,73.333,570.000,1.000,2.569,0.000
192247.800,179050.800,532122.900,499103.800,161300.500,153487.500,142961.200,149559.600,-0.156,0.939,-0.337,-1.862,1.892,-0.610,73.333,571.000,1.000,2.388,0.000
192218.700,179034.000,532042.400,499004.200,161225.200,153442.900,142907.600,149494.100,-0.158,0.940,-0.339,-1.984,1.587,-0.610,73.333,572.000,1.000,30.112,0.000
192233.600,179040.600,532007.700,498984.100,161235.900,153445.900,142907.600,149508.500,-0.159,0.936,-0.340,-2.106,1.343,-0.732,73.333,573.000,1.000,2.414,0.000
192268.300,179058.100,532004.700,499011.600,161315.100,153485.100,142954.800,149576.500,-0.154,0.929,-0.341,-2.228,1.038,-0.732,73.333,574.000,1.000,3.068,0.000
192280.400,179066.600,531983.100,498997.300,161358.600,153507.900,142983.000,149604.300,-0.154,0.926,-0.339,-2.380,1.007,-0.885,73.333,575.000,1.000,0.010,0.000
192262.800,179067.900,531922.800,498917.400,161314.500,153492.400,142957.800,149561.600,-0.154,0.927,-0.337,-2.319,0.793,-0.977,73.333,576.000,1.000,1.902,0.000
192221.800,179040.100,531833.300,498811.900,161228.900,153445.300,142902.400,149495.500,-0.154,0.929,-0.340,-2.411,0.763,-0.916,73.333,577.000,1.000,2.518,0.000
192230.300,179039.000,531794.800,498786.200,161235.700,153453.800,142902.800,149509.400,-0.153,0.934,-0.343,-2.472,0.641,-0.824,73.333,578.000,1.000,5.012,0.000
192270.400,179062.800,531793.400,498812.400,161321.300,153505.500,142955.600,149583.500,-0.153,0.936,-0.342,-2.441,0.580,-0.702,73.333,579.000,1.000,2.500,0.000
192266.000,179059.600,531751.900,498778.000,161349.300,153518.600,142973.500,149604.200,-0.150,0.940,-0.337,-2.441,0.427,-0.549,73.333,580.000,1.000,2.523,0.000
192229.800,179045.600,531674.400,498682.100,161292.100,153495.100,142948.000,149557.800,-0.149,0.945,-0.340,-2.533,0.397,-0.397,73.333,581.000,1.000,2.518,0.000
192205.200,179035.200,531598.700,498594.400,161225.400,153464.800,142915.800,149510.600,-0.148,0.948,-0.338,-2.808,0.305,-0.153,73.333,582.000,1.000,2.437,0.000
192209.000,179030.200,531552.100,498563.700,161230.600,153468.000,142915.700,149521.500,-0.141,0.947,-0.333,-3.143,0.366,0.031,73.333,583.000,1.000,2.484,0.000
192250.800,179054.300,531555.300,498594.700,161318.200,153518.000,142967.800,149591.400,-0.135,0.944,-0.332,-3.418,0.580,0.275,73.333,584.000,1.000,3.140,0.000
192258.900,179062.900,531529.300,498578.800,161360.300,153540.800,142998.300,149618.800,-0.132,0.941,-0.335,-3.601,1.007,0.458,73.333,585.000,1.000,0.014,0.000
192209.900,179032.500,531440.400,498469.800,161287.600,153497.400,142952.600,149552.500,-0.132,0.940,-0.336,-3.754,1.343,0.671,73.333,586.000,1.000,6.867,0.000
192187.300,179025.400,531370.800,498382.300,161220.100,153470.700,142916.900,149502.000,-0.137,0.944,-0.333,-3.754,1.587,0.854,73.333,587.000,1.000,11.292,0.000
192207.400,179031.900,531343.600,498367.800,161238.900,153482.500,142923.400,149518.000,-0.141,0.946,-0.331,-3.998,1.770,0.916,73.333,588.000,1.000,4.937,0.000
192245.000,179046.300,531336.500,498389.000,161314.900,153513.700,142967.800,149581.400,-0.146,0.944,-0.332,-4.089,1.923,0.946,73.333,589.000,1.000,3.146,0.000
192257.100,179054.000,531308.900,498371.800,161351.300,153522.400,142990.900,149606.800,-0.147,0.941,-0.324,-4.395,2.014,0.946,73.333,590.000,1.000,0.007,0.000
192218.200,179031.700,531224.900,498266.400,161281.500,153478.200,142945.600,149540.400,-0.149,0.936,-0.323,-4.578,2.014,0.916,73.333,591.000,1.000,1.866,0.000
192189.800,179013.700,531146.700,498168.500,161201.300,153432.800,142896.900,149475.300,-0.149,0.931,-0.323,-4.669,2.045,0.916,73.333,592.000,1.000,2.513,0.000
192218.800,179030.600,531126.800,498160.000,161223.600,153448.700,142908.800,149496.900,-0.149,0.927,-0.323,-4.669,2.167,0.824,73.333,593.000,1.000,2.505,0.000
192248.800,179043.800,531120.000,498184.900,161301.500,153480.900,142955.800,149563.700,-0.150,0.923,-0.323,-4.761,2.136,0.793,73.333,594.000,1.000,2.464,0.000
192264.300,179061.700,531099.300,498177.800,161346.300,153500.000,142983.300,149591.600,-0.150,0.924,-0.322,-4.700,1.984,0.641,73.333,595.000,1.000,2.517,0.000
192238.800,179051.000,531030.600,498097.800,161296.900,153473.000,142947.900,149538.900,-0.151,0.923,-0.323,-4.547,1.953,0.397,73.333,596.000,1.000,9.368,0.000
192214.400,179035.600,530957.100,498008.400,161227.900,153440.500,142904.400,149482.900,-0.150,0.925,-0.323,-4.486,1.831,0.336,73.333,597.000,1.000,0.012,0.000
192252.400,179063.500,530946.600,498010.400,161262.300,153465.600,142926.500,149518.300,-0.150,0.927,-0.323,-4.425,1.831,0.336,73.333,598.000,1.000,1.863,0.000
192274.900,179064.300,530927.400,498021.000,161326.900,153490.300,142955.100,149567.200,-0.148,0.927,-0.322,-4.395,1.648,0.244,73.333,599.000,1.000,3.713,0.000
192274.300,179058.100,530887.900,497991.600,161355.700,153502.400,142974.000,149584.000,-0.147,0.928,-0.322,-4.242,1.587,0.092,73.333,600.000,1.000,8.843,0.000
192242.500,179042.900,530815.600,497901.900,161301.500,153485.000,142945.300,149534.600,-0.144,0.926,-0.322,-4.181,1.495,0.122,73.333,601.000,1.000,3.017,0.000
192214.900,179027.500,530739.300,497812.300,161231.700,153459.500,142904.900,149484.400,-0.145,0.922,-0.324,-4.089,1.465,0.183,73.333,602.000,1.000,0.011,0.000
192227.100,179034.000,530704.600,497792.300,161245.800,153470.700,142911.400,149503.900,-0.145,0.921,-0.321,-3.998,1.343,0.275,73.333,603.000,1.000,5.629,0.000
192264.100,179056.000,530703.200,497822.800,161330.600,153511.700,142962.100,149576.200,-0.146,0.919,-0.322,-3.815,1.282,0.153,73.333,604.000,1.000,8.848,0.000
192268.600,179059.700,530669.300,497804.000,161368.900,153536.200,142989.800,149603.500,-0.144,0.919,-0.321,-3.662,1.251,0.183,73.333,605.000,1.000,3.058,0.000
192228.700,179035.400,530582.200,497702.400,161301.900,153501.000,142949.300,149544.400,-0.147,0.925,-0.322,-3.510,1.160,0.092,73.333,606.000,1.000,0.006,0.000
192198.600,179018.800,530500.900,497609.100,161226.600,153468.600,142905.600,149488.000,-0.148,0.929,-0.321,-3.357,1.190,0.031,73.333,607.000,1.000,2.388,0.000
192217.700,179025.900,530468.500,497596.900,161245.300,153482.400,142919.500,149512.000,-0.146,0.930,-0.318,-3.204,1.129,0.122,73.333,608.000,1.000,0.010,0.000
192256.400,179044.300,530467.100,497626.500,161330.100,153525.700,142973.700,149585.400,-0.145,0.934,-0.319,-3.021,1.129,0.244,73.333,609.000,1.000,1.992,0.000
192249.900,179035.300,530424.600,497593.000,161356.900,153530.200,142988.500,149597.700,-0.143,0.937,-0.318,-3.021,1.160,0.153,73.333,610.000,1.000,11.179,0.000
192215.700,179017.400,530343.400,497492.400,161292.800,153492.700,142953.400,149543.500,-0.142,0.937,-0.318,-3.021,1.251,0.153,73.333,611.000,1.000,3.094,0.000
192191.200,179003.400,530266.800,497401.300,161216.600,153452.000,142905.000,149484.500,-0.138,0.939,-0.319,-2.991,1.312,0.336,73.333,612.000,1.000,0.009,0.000
192207.600,179010.300,530237.300,497382.300,161231.300,153456.400,142908.000,149499.000,-0.138,0.939,-0.320,-2.991,1.343,0.519,73.333,613.000,1.000,5.661,0.000
192250.200,179036.800,530241.700,497413.900,161320.500,153502.800,142965.500,149575.300,-0.139,0.940,-0.323,-2.991,1.434,0.580,73.333,614.000,1.000,3.112,0.000
192268.000,179052.700,530223.800,497405.700,161367.600,153525.700,143001.000,149610.700,-0.140,0.938,-0.322,-2.869,1.556,0.671,73.333,615.000,1.000,0.011,0.000
192240.800,179044.300,530151.400,497316.200,161310.500,153494.100,142968.500,149560.600,-0.142,0.936,-0.321,-2.899,1.648,0.763,73.333,616.000,1.000,1.922,0.000
192212.100,179030.000,530073.300,497226.700,161237.100,153456.600,142927.700,149506.200,-0.142,0.935,-0.324,-2.930,1.770,0.732,73.333,617.000,1.000,18.743,0.000
192225.300,179028.900,530039.800,497207.100,161249.300,153461.600,142934.600,149521.800,-0.142,0.937,-0.326,-2.777,1.892,0.641,73.333,618.000,1.000,2.433,0.000
192259.700,179045.200,530037.800,497235.700,161329.800,153497.100,142978.000,149586.100,-0.142,0.939,-0.325,-2.777,1.953,0.427,73.333,619.000,1.000,2.619,0.000
192258.000,179047.000,530005.200,497213.300,161362.400,153507.900,143002.100,149610.600,-0.143,0.941,-0.325,-2.777,2.075,0.397,73.333,620.000,1.000,2.423,0.000
192223.600,179032.600,529933.800,497120.100,161308.300,153480.400,142959.800,149553.300,-0.141,0.942,-0.324,-2.869,2.289,0.427,73.333,621.000,1.000,5.009,0.000
192217.000,179038.200,529879.800,497050.300,161256.000,153461.600,142922.600,149511.800,-0.141,0.944,-0.323,-2.991,2.411,0.305,73.333,622.000,1.000,5.061,0.000
192244.100,179056.300,529861.800,497047.200,161282.400,153487.500,142943.000,149544.400,-0.141,0.942,-0.323,-2.960,2.533,0.183,73.333,623.000,1.000,2.495,0.000
192265.100,179057.200,529842.400,497058.100,161347.900,153516.600,142977.200,149595.200,-0.141,0.942,-0.325,-2.960,2.716,0.092,73.333,624.000,1.000,3.018,0.000
192265.600,179061.500,529805.100,497031.100,161375.900,153532.700,142996.100,149611.200,-0.139,0.942,-0.325,-2.991,2.808,-0.031,73.333,625.000,1.000,0.012,0.000
192229.600,179046.500,529728.100,496935.900,161315.100,153511.300,142964.300,149557.100,-0.140,0.942,-0.327,-2.991,2.899,-0.153,73.333,626.000,1.000,1.891,0.000
192209.200,179034.000,529657.800,496849.900,161248.700,153484.200,142927.400,149505.800,-0.140,0.940,-0.325,-2.991,3.052,-0.305,73.333,627.000,1.000,13.804,0.000
192221.300,179038.200,529621.700,496827.600,161256.100,153493.100,142931.400,149519.000,-0.137,0.938,-0.326,-3.082,3.143,-0.305,73.333,628.000,1.000,3.001,0.000
192261.500,179060.400,529622.600,496858.100,161343.900,153538.900,142987.600,149591.400,-0.135,0.937,-0.326,-3.082,3.326,-0.519,73.333,629.000,1.000,0.025,0.000
192262.100,179055.500,529586.700,496830.600,161372.500,153547.400,143003.700,149609.900,-0.137,0.935,-0.326,-2.899,3.540,-0.580,73.333,630.000,1.000,1.888,0.000
192228.800,179036.000,529510.500,496737.200,161308.600,153514.300,142966.000,149555.500,-0.137,0.934,-0.329,-2.930,3.937,-0.671,73.333,631.000,1.000,2.610,0.000
192201.900,179017.700,529433.900,496645.000,161231.900,153477.600,142921.800,149499.100,-0.137,0.932,-0.327,-2.869,4.089,-0.793,73.333,632.000,1.000,3.716,0.000
192213.700,179016.400,529400.000,496622.300,161235.200,153479.900,142921.200,149512.300,-0.135,0.930,-0.323,-2.716,4.242,-0.763,73.333,633.000,1.000,11.756,0.000
192249.600,179030.200,529398.100,496648.100,161309.800,153516.100,142965.600,149579.400,-0.136,0.930,-0.325,-2.472,4.547,-0.793,73.333,634.000,1.000,0.009,0.000
192263.700,179042.000,529374.600,496632.900,161349.100,153536.200,142993.200,149609.100,-0.137,0.929,-0.325,-2.380,4.608,-0.793,73.333,635.000,1.000,2.581,0.000
192231.800,179029.100,529302.600,496540.800,161288.900,153507.800,142957.400,149554.500,-0.139,0.927,-0.324,-2.319,4.669,-0.854,73.333,636.000,1.000,0.007,0.000
192214.400,179022.200,529239.700,496463.800,161224.200,153478.000,142924.100,149509.400,-0.140,0.929,-0.327,-2.014,4.730,-0.854,73.333,637.000,1.000,9.617,0.000
192223.800,179020.100,529206.200,496441.900,161230.700,153478.100,142921.600,149522.400,-0.143,0.926,-0.327,-1.770,4.791,-0.916,73.333,638.000,1.000,7.789,0.000
192264.300,179042.800,529210.400,496472.000,161311.800,153517.700,142965.600,149590.200,-0.145,0.927,-0.328,-1.556,4.852,-1.007,73.333,639.000,1.000,0.007,0.000
192268.100,179044.500,529179.200,496451.300,161340.500,153527.300,142981.300,149608.700,-0.146,0.927,-0.327,-1.404,4.852,-1.099,73.333,640.000,1.000,2.542,0.000
192250.800,179044.100,529121.200,496372.600,161294.500,153505.600,142960.300,149571.300,-0.151,0.931,-0.325,-1.190,4.883,-1.251,73.333,641.000,1.000,0.006,0.000
192227.700,179032.000,529052.700,496290.000,161228.800,153469.700,142919.200,149520.800,-0.153,0.935,-0.323,-1.129,4.730,-1.343,73.333,642.000,1.000,3.156,0.000
192221.400,179019.000,529002.600,496254.600,161226.200,153453.100,142905.600,149520.500,-0.153,0.937,-0.326,-1.282,4.486,-1.373,73.333,643.000,1.000,14.296,0.000
192258.600,179035.700,529004.100,496283.800,161310.000,153491.600,142954.000,149591.300,-0.151,0.938,-0.324,-1.251,4.272,-1.495,73.333,644.000,1.000,0.013,0.000
192277.600,179048.800,528989.200,496276.000,161356.200,153515.400,142978.700,149619.400,-0.146,0.938,-0.326,-1.190,4.211,-1.556,73.333,645.000,1.000,14.414,0.000
192254.300,179042.200,528928.100,496193.700,161306.100,153492.400,142949.800,149573.200,-0.144,0.938,-0.326,-1.312,4.120,-1.556,73.333,646.000,1.000,0.016,0.000
192223.300,179025.500,528851.600,496097.600,161229.900,153454.300,142900.300,149513.300,-0.145,0.937,-0.327,-1.465,3.998,-1.373,73.333,647.000,1.000,0.004,0.000
192236.000,179030.600,528824.000,496085.500,161247.400,153463.800,142910.200,149533.700,-0.146,0.938,-0.327,-1.617,3.876,-1.282,73.333,648.000,1.000,3.111,0.000
192269.500,179052.300,528826.400,496115.800,161333.200,153513.600,142964.700,149604.000,-0.151,0.938,-0.328,-1.678,3.693,-1.343,73.333,649.000,1.000,0.008,0.000
192274.200,179059.000,528798.900,496093.900,161366.800,153535.800,142989.800,149626.600,-0.151,0.939,-0.327,-1.801,3.632,-1.312,73.333,650.000,1.000,1.952,0.000
192243.600,179048.400,528730.600,496005.400,161308.200,153511.800,142961.200,149573.800,-0.153,0.941,-0.328,-2.014,3.326,-1.160,73.333,651.000,1.000,8.603,0.000
192207.200,179026.900,528650.900,495907.200,161229.500,153473.200,142914.500,149512.600,-0.155,0.941,-0.325,-2.136,2.991,-1.099,73.333,652.000,1.000,13.696,0.000
192234.800,179047.600,528637.400,495901.200,161258.400,153499.600,142933.500,149539.700,-0.155,0.941,-0.324,-2.258,2.808,-1.190,73.333,653.000,1.000,0.014,0.000
192269.900,179065.000,528637.200,495924.700,161339.000,153545.100,142983.000,149601.000,-0.154,0.943,-0.330,-2.472,2.411,-1.160,73.333,654.000,1.000,0.005,0.000
192266.500,179056.600,528598.800,495895.300,161357.300,153546.800,142994.200,149612.000,-0.157,0.942,-0.328,-2.747,2.167,-1.190,73.333,655.000,1.000,12.004,0.000
192240.100,179050.300,528532.800,495811.300,161302.500,153525.200,142969.300,149569.000,-0.156,0.942,-0.327,-2.960,1.801,-1.160,73.333,656.000,1.000,0.024,0.000
192200.200,179020.900,528445.300,495710.300,161213.800,153480.900,142916.100,149502.300,-0.157,0.944,-0.333,-3.143,1.434,-1.099,73.333,657.000,1.000,1.761,0.000
192217.900,179023.900,528418.900,495697.700,161228.700,153490.000,142927.600,149525.900,-0.158,0.944,-0.334,-3.448,1.129,-1.099,73.333,658.000,1.000,2.535,0.000
192259.000,179049.000,528428.600,495735.500,161316.800,153539.900,142987.000,149604.300,-0.161,0.942,-0.332,-3.723,0.397,-1.007,73.333,659.000,1.000,2.555,0.000
192259.000,179048.100,528399.800,495716.200,161346.400,153551.800,143006.400,149623.400,-0.158,0.943,-0.329,-3.967,0.092,-1.068,73.333,660.000,1.000,2.471,0.000
192220.400,179021.900,528318.300,495618.400,161273.800,153506.900,142959.600,149562.500,-0.159,0.945,-0.329,-4.089,-0.183,-1.038,73.333,661.000,1.000,2.519,0.000
192194.600,179006.000,528243.400,495527.500,161196.400,153462.900,142904.900,149497.000,-0.156,0.940,-0.327,-4.211,-0.488,-0.946,73.333,662.000,1.000,2.480,0.000
192209.900,179012.500,528219.900,495514.200,161212.700,153470.000,142909.300,149515.700,-0.152,0.938,-0.328,-4.364,-0.885,-0.977,73.333,663.000,1.000,11.794,0.000
192248.900,179033.100,528224.400,495545.300,161294.000,153504.300,142955.300,149584.400,-0.150,0.936,-0.327,-4.517,-1.160,-0.977,73.333,664.000,1.000,0.016,0.000
192256.100,179033.700,528198.800,495526.300,161324.700,153514.600,142978.000,149605.400,-0.147,0.932,-0.330,-4.578,-1.312,-0.916,73.333,665.000,1.000,1.892,0.000
192239.700,179033.200,528145.900,495450.900,161279.500,153495.600,142955.900,149566.200,-0.147,0.932,-0.330,-4.639,-1.434,-0.885,73.333,666.000,1.000,5.070,0.000
192208.700,179011.900,528071.100,495357.500,161198.000,153446.400,142896.500,149502.000,-0.144,0.928,-0.331,-4.547,-1.526,-0.977,73.333,667.000,1.000,2.473,0.000
192222.700,179014.200,528043.600,495346.200,161212.800,153449.300,142902.600,149522.100,-0.135,0.923,-0.329,-4.425,-1.465,-0.916,73.333,668.000,1.000,3.736,0.000
192258.900,179030.200,528044.200,495374.300,161294.600,153487.500,142952.900,149591.800,-0.132,0.921,-0.329,-4.242,-1.251,-0.824,73.333,669.000,1.000,16.806,0.000
192269.500,179037.500,528024.300,495358.700,161329.400,153498.600,142970.200,149611.300,-0.128,0.920,-0.327,-3.998,-1.007,-0.641,73.333,670.000,1.000,0.015,0.000
192250.100,179036.100,527968.400,495281.100,161282.100,153472.500,142945.800,149565.600,-0.131,0.918,-0.327,-3.815,-0.793,-0.610,73.333,671.000,1.000,2.549,0.000
192231.300,179023.400,527902.000,495198.800,161219.700,153439.200,142903.000,149509.800,-0.132,0.917,-0.324,-3.510,-0.519,-0.488,73.333,672.000,1.000,0.010,0.000
192254.800,179032.300,527882.700,495189.500,161243.500,153448.200,142912.500,149531.900,-0.132,0.916,-0.324,-2.991,-0.244,-0.305,73.333,673.000,1.000,6.887,0.000
192295.100,179055.500,527890.900,495222.000,161332.600,153493.100,142964.500,149600.300,-0.136,0.920,-0.326,-2.777,-0.122,-0.336,73.333,674.000,1.000,5.040,0.000
192299.800,179064.100,527868.000,495203.500,161370.500,153512.200,142989.200,149620.300,-0.137,0.923,-0.323,-2.472,0.183,-0.244,73.333,675.000,1.000,2.450,0.000
192271.400,179055.200,527804.300,495117.400,161318.000,153490.300,142960.700,149571.100,-0.138,0.926,-0.324,-2.228,0.488,-0.153,73.333,676.000,1.000,7.462,0.000
192239.000,179035.300,527727.600,495024.700,161242.100,153452.800,142907.000,149509.000,-0.139,0.927,-0.323,-2.106,0.580,-0.214,73.333,677.000,1.000,2.510,0.000
192239.700,179026.600,527685.800,494997.200,161244.900,153449.000,142899.600,149517.600,-0.140,0.928,-0.323,-1.770,0.885,-0.214,73.333,678.000,1.000,2.591,0.000
192265.300,179036.300,527679.000,495018.100,161322.700,153488.800,142946.100,149585.300,-0.136,0.929,-0.320,-1.617,1.099,-0.153,73.333,679.000,1.000,2.457,0.000
192260.400,179032.500,527643.900,494992.300,161347.100,153502.600,142966.100,149605.000,-0.140,0.932,-0.321,-1.495,1.434,-0.244,73.333,680.000,1.000,2.514,0.000
192220.800,179012.400,527560.600,494890.300,161276.600,153473.300,142927.500,149544.900,-0.139,0.935,-0.320,-1.373,1.526,-0.305,73.333,681.000,1.000,2.453,0.000
192208.300,179011.800,527501.300,494813.500,161215.400,153456.300,142898.600,149502.500,-0.141,0.936,-0.326,-1.282,1.740,-0.336,73.333,682.000,1.000,6.244,0.000
192227.500,179020.800,527483.100,494803.600,161235.500,153476.300,142913.000,149527.600,-0.141,0.937,-0.325,-1.190,1.923,-0.397,73.333,683.000,1.000,2.526,0.000
192260.300,179033.900,527481.500,494829.000,161309.800,153513.000,142958.200,149591.100,-0.142,0.939,-0.326,-1.190,2.228,-0.488,73.333,684.000,1.000,2.425,0.000
192256.800,179028.900,527443.100,494799.700,161325.900,153516.100,142970.100,149602.600,-0.142,0.937,-0.323,-1.190,2.472,-0.458,73.333,685.000,1.000,2.556,0.000
192227.800,179020.600,527378.500,494715.300,161266.100,153494.600,142941.500,149553.700,-0.142,0.936,-0.323,-1.160,2.686,-0.427,73.333,686.000,1.000,9.364,0.000
192203.500,179007.900,527314.500,494635.000,161197.800,153463.600,142901.700,149502.300,-0.140,0.938,-0.324,-1.099,2.991,-0.519,73.333,687.000,1.000,0.012,0.000
192221.500,179013.300,527294.700,494627.400,161217.200,153472.700,142912.000,149521.000,-0.140,0.939,-0.323,-1.160,3.174,-0.458,73.333,688.000,1.000,1.800,0.000
192253.400,179030.200,527297.400,494657.600,161299.800,153516.400,142964.500,149589.400,-0.141,0.938,-0.325,-1.129,3.387,-0.488,73.333,689.000,1.000,7.645,0.000
192247.800,179028.500,527264.400,494632.100,161324.700,153522.300,142981.400,149606.200,-0.141,0.937,-0.323,-1.160,3.510,-0.427,73.333,690.000,1.000,2.475,0.000
192212.600,179015.700,527193.200,494538.600,161261.400,153494.400,142945.100,149548.300,-0.142,0.936,-0.326,-1.190,3.723,-0.427,73.333,691.000,1.000,2.488,0.000
192197.600,179012.700,527133.800,494462.200,161199.800,153469.000,142911.300,149500.500,-0.143,0.937,-0.327,-1.251,3.784,-0.519,73.333,692.000,1.000,7.457,0.000
192213.100,179016.700,527108.300,494449.400,161215.100,153473.200,142916.900,149519.000,-0.143,0.936,-0.325,-1.251,3.998,-0.519,73.333,693.000,1.000,8.209,0.000
192253.300,179036.400,527116.400,494477.500,161300.300,153514.100,142968.600,149590.700,-0.143,0.937,-0.327,-1.495,4.089,-0.580,73.333,694.000,1.000,0.044,0.000
192258.800,179039.000,527093.100,494457.600,161331.200,153524.100,142987.100,149610.400,-0.144,0.938,-0.324,-1.495,4.242,-0.549,73.333,695.000,1.000,1.791,0.000
192227.500,179022.100,527026.400,494369.300,161267.600,153486.300,142949.500,149555.600,-0.145,0.938,-0.327,-1.556,4.303,-0.519,73.333,696.000,1.000,2.961,0.000
192204.900,179010.400,526965.600,494292.900,161203.200,153452.300,142913.000,149505.700,-0.146,0.940,-0.326,-1.648,4.364,-0.580,73.333,697.000,1.000,0.011,0.000
192225.500,179021.900,526948.100,494291.200,161227.400,153464.000,142925.800,149529.400,-0.147,0.941,-0.325,-1.831,4.364,-0.641,73.333,698.000,1.000,5.665,0.000
192257.300,179037.900,526946.100,494318.500,161306.400,153499.400,142970.300,149589.400,-0.151,0.942,-0.325,-1.862,4.242,-0.671,73.333,699.000,1.000,13.814,0.000
192254.600,179039.800,526915.300,494293.000,161333.000,153504.000,142985.500,149604.000,-0.153,0.943,-0.325,-2.075,4.059,-0.702,73.333,700.000,1.000,7.446,0.000
192227.200,179029.500,526852.400,494208.800,161280.200,153477.600,142957.400,149558.800,-0.152,0.940,-0.327,-2.258,3.906,-0.702,73.333,701.000,1.000,0.013,0.000
192210.100,179027.200,526795.700,494135.800,161224.800,153458.700,142928.600,149521.200,-0.151,0.939,-0.327,-2.441,3.723,-0.732,73.333,702.000,1.000,0.005,0.000
192221.100,179032.700,526772.100,494126.400,161247.700,153478.600,142940.700,149546.000,-0.153,0.938,-0.327,-2.533,3.601,-0.793,73.333,703.000,1.000,2.571,0.000
192247.300,179040.300,526768.900,494144.400,161318.900,153517.000,142974.300,149598.400,-0.154,0.935,-0.328,-2.777,3.387,-0.824,73.333,704.000,1.000,2.452,0.000
192245.700,179037.400,526730.100,494109.800,161334.500,153527.300,142983.100,149607.200,-0.157,0.933,-0.327,-2.869,3.174,-0.824,73.333,705.000,1.000,4.998,0.000
192206.300,179012.700,526650.400,494008.100,161258.900,153491.900,142937.600,149542.500,-0.159,0.932,-0.329,-2.930,2.777,-0.824,73.333,706.000,1.000,2.540,0.000
192188.900,179004.700,526591.600,493932.900,161197.300,153470.800,142913.000,149505.100,-0.161,0.932,-0.329,-3.082,2.563,-0.824,73.333,707.000,1.000,5.015,0.000
192213.800,179016.600,526575.600,493932.100,161223.200,153488.100,142929.500,149536.000,-0.158,0.930,-0.330,-3.113,2.258,-0.732,73.333,708.000,1.000,2.426,0.000
192242.400,179027.900,526571.400,493955.300,161295.100,153522.400,142967.400,149591.600,-0.156,0.929,-0.331,-3.204,1.953,-0.854,73.333,709.000,1.000,3.701,0.000
192238.100,179026.800,526541.100,493931.000,161317.900,153531.900,142985.500,149609.700,-0.154,0.928,-0.331,-3.296,1.709,-0.824,73.333,710.000,1.000,8.765,0.000
192218.000,179023.900,526486.500,493856.100,161270.400,153513.200,142961.600,149568.000,-0.154,0.926,-0.330,-3.082,1.434,-0.702,73.333,711.000,1.000,4.362,0.000
192190.700,179008.100,526419.800,493772.700,161200.400,153479.900,142922.100,149517.200,-0.155,0.926,-0.331,-3.113,1.099,-0.671,73.333,712.000,1.000,0.005,0.000
192201.600,179006.500,526390.900,493755.100,161210.800,153481.500,142922.800,149526.400,-0.154,0.927,-0.329,-3.021,0.977,-0.671,73.333,713.000,1.000,11.211,0.000
192227.600,179014.900,526386.200,493774.200,161280.600,153507.100,142954.700,149571.900,-0.154,0.927,-0.332,-3.143,0.702,-0.458,73.333,714.000,1.000,0.013,0.000
192231.500,179020.100,526362.900,493753.500,161310.200,153515.500,142974.500,149591.100,-0.154,0.926,-0.330,-3.082,0.397,-0.610,73.333,715.000,1.000,22.568,0.000
192205.100,179008.700,526300.800,493667.700,161251.500,153478.900,142938.300,149540.000,-0.157,0.927,-0.330,-2.930,0.153,-0.641,73.333,716.000,1.000,0.025,0.000
192190.800,179001.500,526237.700,493589.100,161188.400,153447.100,142900.200,149492.800,-0.156,0.931,-0.331,-2.869,-0.092,-0.549,73.333,717.000,1.000,0.003,0.000
192212.900,179011.100,526217.800,493585.500,161214.200,153456.900,142913.600,149519.200,-0.154,0.935,-0.329,-2.838,-0.275,-0.610,73.333,718.000,1.000,0.003,0.000
192252.800,179035.500,526227.500,493621.800,161302.900,153499.900,142968.700,149591.600,-0.154,0.938,-0.325,-2.838,-0.427,-0.580,73.333,719.000,1.000,1.984,0.000
192257.000,179045.600,526206.400,493602.400,161336.600,153512.100,142990.800,149612.300,-0.153,0.939,-0.328,-2.808,-0.641,-0.427,73.333,720.000,1.000,7.249,0.000
192216.300,179026.000,526139.400,493510.700,161275.500,153471.400,142954.200,149557.900,-0.150,0.941,-0.326,-2.716,-0.671,-0.397,73.333,721.000,1.000,0.011,0.000
192193.600,179018.600,526083.900,493435.600,161219.500,153445.300,142919.300,149513.800,-0.148,0.941,-0.327,-2.777,-0.763,-0.336,73.333,722.000,1.000,0.003,0.000
192207.800,179020.300,526061.400,493429.300,161240.000,153446.600,142922.900,149531.800,-0.148,0.939,-0.326,-2.869,-0.824,-0.183,73.333,723.000,1.000,2.540,0.000
192248.100,179039.800,526069.600,493467.300,161328.700,153487.000,142971.900,149604.300,-0.144,0.938,-0.329,-2.777,-0.732,-0.061,73.333,724.000,1.000,2.495,0.000
192245.900,179039.500,526039.300,493444.800,161354.900,153497.200,142986.200,149621.500,-0.143,0.937,-0.326,-2.686,-0.702,-0.061,73.333,725.000,1.000,2.498,0.000
192212.000,179021.800,525968.400,493351.100,161291.400,153470.400,142951.300,149570.000,-0.142,0.936,-0.325,-2.594,-0.580,-0.031,73.333,726.000,1.000,2.452,0.000
192193.500,179013.700,525909.100,493273.300,161228.000,153450.500,142914.000,149523.200,-0.142,0.934,-0.323,-2.563,-0.458,0.183,73.333,727.000,1.000,6.281,0.000
192215.000,179023.000,525891.100,493265.600,161249.300,153473.400,142926.700,149547.300,-0.141,0.933,-0.324,-2.472,-0.336,0.183,73.333,728.000,1.000,11.854,0.000
192245.500,179033.500,525885.400,493282.700,161320.100,153515.000,142974.100,149608.800,-0.142,0.931,-0.323,-2.350,-0.183,0.275,73.333,729.000,1.000,0.012,0.000
192248.300,179037.600,525855.100,493256.300,161341.800,153530.200,142992.700,149622.900,-0.143,0.928,-0.326,-2.136,-0.031,0.153,73.333,730.000,1.000,5.029,0.000
192215.400,179022.600,525787.100,493166.300,161276.700,153501.000,142956.200,149563.900,-0.141,0.927,-0.325,-2.075,0.244,0.214,73.333,731.000,1.000,0.008,0.000
192186.300,179004.700,525719.400,493082.900,161203.700,153467.400,142907.900,149506.600,-0.144,0.927,-0.328,-1.862,0.458,0.275,73.333,732.000,1.000,1.893,0.000
192199.700,179005.300,525695.600,493073.800,161217.600,153477.500,142915.100,149528.500,-0.142,0.926,-0.325,-1.617,0.610,0.183,73.333,733.000,1.000,30.023,0.000
192232.300,179016.000,525695.100,493101.200,161292.900,153514.200,142956.200,149589.300,-0.141,0.926,-0.326,-1.404,0.793,0.092,73.333,734.000,1.000,3.091,0.000
192237.900,179024.100,525671.400,493079.300,161321.800,153531.400,142975.000,149606.500,-0.141,0.926,-0.329,-1.251,1.007,-0.031,73.333,735.000,1.000,0.006,0.000
192200.700,179006.500,525600.400,492985.900,161255.000,153494.900,142937.900,149548.500,-0.139,0.930,-0.329,-1.038,1.251,-0.122,73.333,736.000,1.000,1.839,0.000
192184.000,179000.500,525542.600,492913.600,161195.500,153468.000,142905.700,149505.600,-0.137,0.932,-0.329,-0.885,1.556,-0.153,73.333,737.000,1.000,2.577,0.000
192214.800,179019.300,525535.300,492918.100,161229.600,153488.500,142927.600,149538.800,-0.137,0.932,-0.325,-0.854,1.740,-0.153,73.333,738.000,1.000,2.410,0.000
192244.500,179030.400,525535.500,492942.100,161304.400,153519.100,142970.800,149596.800,-0.138,0.936,-0.325,-0.671,1.831,-0.305,73.333,739.000,1.000,8.741,0.000
192240.900,179028.500,525503.700,492912.300,161324.300,153522.600,142982.600,149604.700,-0.138,0.934,-0.328,-0.732,2.075,-0.336,73.333,740.000,1.000,2.532,0.000
192216.000,179021.300,525443.800,492829.300,161266.400,153495.100,142952.300,149556.000,-0.141,0.936,-0.324,-0.854,2.289,-0.305,73.333,741.000,1.000,2.499,0.000
192193.000,179005.300,525378.100,492749.000,161197.600,153459.700,142908.400,149504.200,-0.143,0.936,-0.324,-0.885,2.472,-0.366,73.333,742.000,1.000,2.527,0.000
192213.500,179010.500,525358.900,492745.700,161217.900,153467.400,142920.000,149530.400,-0.144,0.938,-0.325,-1.038,2.502,-0.488,73.333,743.000,1.000,5.017,0.000
192244.900,179024.800,525362.300,492775.000,161297.900,153501.300,142965.600,149595.000,-0.144,0.937,-0.327,-1.129,2.441,-0.549,73.333,744.000,1.000,13.655,0.000
192255.600,179036.500,525345.400,492762.500,161334.800,153516.300,142983.900,149617.600,-0.146,0.938,-0.330,-1.251,2.594,-0.610,73.333,745.000,1.000,2.577,0.000
