EEG 1, EEG 2, EEG 3, EEG 4, EEG 5, EEG 6, EEG 7, EEG 8, ACC X, ACC Y, ACC Z, GYR X, GYR Y, GYR Z, BAT, CNT, VALID, DT, TRIG
750000.100,750000.100,143395.300,666481.300,750000.100,750000.100,750000.100,750000.100,-0.012,0.892,-0.378,0.000,0.000,0.000,66.667,1.000,1.000,0.000,0.000
750000.100,750000.100,207180.700,565667.900,533919.400,687712.800,750000.100,750000.100,-0.012,0.906,-0.388,0.000,0.000,0.000,66.667,2.000,1.000,12.686,0.000
562570.400,750000.100,383571.800,640743.100,-149784.500,289772.600,750000.100,698516.800,-0.012,0.912,-0.393,0.000,0.000,0.000,66.667,3.000,1.000,2.926,0.000
489302.200,750000.100,619831.200,730947.900,-355214.600,174200.400,750000.100,627148.300,-0.012,0.913,-0.395,0.000,0.000,0.000,66.667,4.000,1.000,2.297,0.000
502100.000,741836.600,577069.600,750000.100,-533356.400,289495.100,750000.100,686106.300,-0.012,0.917,-0.397,-2.167,2.960,-2.380,66.667,5.000,1.000,3.624,0.000
407119.100,434871.100,651021.100,750000.100,-750000.100,439880.400,750000.100,750000.100,-0.012,0.916,-0.401,-3.082,4.211,-2.716,66.667,6.000,1.000,24.982,0.000
410658.600,192166.400,720560.900,750000.100,-750000.100,562077.800,750000.100,750000.100,-0.013,0.918,-0.402,-2.594,3.265,-1.648,66.667,7.000,1.000,4.954,0.000
750000.100,599932.900,750000.100,750000.100,320429.800,573947.900,750000.100,750000.100,-0.013,0.919,-0.403,-2.258,2.991,-1.221,66.667,8.000,1.000,2.617,0.000
750000.100,750000.100,750000.100,750000.100,750000.100,750000.100,750000.100,750000.100,-0.013,0.921,-0.406,-2.136,2.838,-1.007,66.667,9.000,1.000,2.296,0.000
750000.100,750000.100,750000.100,750000.100,750000.100,750000.100,750000.100,750000.100,-0.014,0.923,-0.404,-2.075,2.716,-0.885,66.667,10.000,1.000,2.553,0.000
750000.100,750000.100,750000.100,750000.100,750000.100,750000.100,750000.100,750000.100,-0.018,0.925,-0.407,-2.289,2.716,-0.732,66.667,11.000,1.000,2.437,0.000
750000.100,750000.100,750000.100,750000.100,750000.100,750000.100,750000.100,750000.100,-0.016,0.927,-0.407,-2.350,2.594,-0.549,66.667,12.000,1.000,2.543,0.000
750000.100,750000.100,750000.100,750000.100,750000.100,750000.100,750000.100,750000.100,-0.018,0.927,-0.406,-2.380,2.594,-0.366,66.667,13.000,1.000,2.486,0.000
750000.100,750000.100,750000.100,750000.100,750000.100,739452.200,670990.600,720057.000,-0.018,0.926,-0.402,-2.411,2.472,-0.244,66.667,14.000,1.000,2.544,0.000
750000.100,736243.400,750000.100,750000.100,644764.000,625025.300,567783.500,608846.300,-0.016,0.924,-0.403,-2.625,2.441,-0.092,66.667,15.000,1.000,2.411,0.000
678361.900,630069.000,750000.100,750000.100,552306.400,535094.400,486634.100,521455.800,-0.017,0.925,-0.401,-2.686,2.350,0.092,66.667,16.000,1.000,3.087,0.000
585058.800,543350.800,750000.100,750000.100,476472.400,461462.000,420137.100,449709.200,-0.017,0.923,-0.405,-2.808,2.106,0.305,66.667,17.000,1.000,0.008,0.000
507221.500,471057.900,750000.100,750000.100,413110.000,400053.900,364695.900,389818.200,-0.016,0.922,-0.402,-2.747,1.953,0.366,66.667,18.000,1.000,1.925,0.000
442098.600,410461.700,750000.100,750000.100,360160.500,348733.200,318197.000,339867.200,-0.017,0.918,-0.401,-2.777,1.801,0.549,66.667,19.000,1.000,4.399,0.000
388023.000,360198.000,750000.100,750000.100,316171.800,306205.600,279369.700,298332.900,-0.017,0.916,-0.402,-2.747,1.678,0.610,66.667,20.000,1.000,0.011,0.000
352811.400,327533.600,750000.100,750000.100,287614.500,278494.000,254103.200,271346.300,-0.016,0.914,-0.401,-2.625,1.526,0.671,66.667,21.000,1.000,8.174,0.000
339360.800,314985.800,750000.100,750000.100,276673.000,267898.300,244497.300,260943.000,-0.017,0.914,-0.404,-2.625,1.373,0.671,66.667,22.000,1.000,3.065,0.000
330055.600,306393.500,750000.100,750000.100,269050.700,260552.200,237845.200,253700.700,-0.016,0.914,-0.398,-2.747,1.190,0.671,66.667,23.000,1.000,0.011,0.000
321523.100,298498.500,750000.100,750000.100,262060.200,253847.500,231715.000,247110.600,-0.013,0.914,-0.398,-2.777,1.068,0.671,66.667,24.000,1.000,5.649,0.000
313739.200,291225.800,750000.100,750000.100,255758.800,247703.500,226114.100,241161.800,-0.013,0.917,-0.402,-2.777,1.007,0.580,66.667,25.000,1.000,8.724,0.000
306565.500,284510.400,750000.100,750000.100,249972.400,242038.200,220950.000,235684.000,-0.011,0.918,-0.402,-2.716,0.885,0.519,66.667,26.000,1.000,3.046,0.000
299818.600,278274.500,750000.100,750000.100,244477.700,236744.600,216105.500,230475.000,-0.011,0.920,-0.399,-2.716,0.671,0.305,66.667,27.000,1.000,0.011,0.000
293472.700,272445.300,750000.100,750000.100,239262.000,231769.600,211538.200,225533.800,-0.011,0.921,-0.400,-2.777,0.580,0.214,66.667,28.000,1.000,1.886,0.000
287630.200,267043.800,750000.100,750000.100,234477.400,227177.700,207318.500,221020.700,-0.011,0.923,-0.400,-2.808,0.580,0.092,66.667,29.000,1.000,11.268,0.000
282279.400,262039.200,750000.100,750000.100,230156.400,222954.500,203450.900,216947.700,-0.008,0.925,-0.402,-2.930,0.488,0.000,66.667,30.000,1.000,3.055,0.000
277318.400,257388.200,750000.100,750000.100,226167.400,219039.900,199881.600,213183.400,-0.007,0.928,-0.402,-3.113,0.366,-0.214,66.667,31.000,1.000,0.008,0.000
272596.400,253031.100,750000.100,750000.100,222320.200,215342.300,196499.000,209540.800,-0.007,0.928,-0.405,-3.235,0.275,-0.275,66.667,32.000,1.000,8.258,0.000
268127.300,248936.400,750000.100,750000.100,218642.400,211850.200,193289.500,206064.300,-0.005,0.929,-0.400,-3.357,0.275,-0.366,66.667,33.000,1.000,12.353,0.000
263962.800,245084.000,750000.100,750000.100,215231.100,208578.100,190282.800,202845.600,-0.005,0.927,-0.404,-3.540,0.397,-0.366,66.667,34.000,1.000,0.020,0.000
260134.200,241491.900,750000.100,750000.100,212147.500,205551.200,187523.400,199945.400,-0.004,0.927,-0.401,-3.693,0.397,-0.427,66.667,35.000,1.000,0.010,0.000
256562.300,238122.900,750000.100,750000.100,209279.300,202704.000,184937.500,197242.900,-0.004,0.926,-0.404,-3.784,0.397,-0.549,66.667,36.000,1.000,2.572,0.000
253153.500,234978.700,750000.100,750000.100,206503.200,200033.900,182492.600,194608.100,-0.004,0.921,-0.403,-3.967,0.519,-0.580,66.667,37.000,1.000,2.538,0.000
249874.500,231989.800,750000.100,750000.100,203797.800,197482.100,180147.700,192050.700,-0.005,0.918,-0.401,-3.937,0.580,-0.610,66.667,38.000,1.000,2.471,0.000
246792.200,229142.100,750000.100,750000.100,201267.900,195063.100,177924.500,189671.900,-0.006,0.914,-0.401,-3.876,0.702,-0.671,66.667,39.000,1.000,9.363,0.000
243969.700,226480.900,750000.100,750000.100,198988.100,192817.100,175874.700,187531.900,-0.006,0.912,-0.402,-3.815,0.793,-0.763,66.667,40.000,1.000,0.012,0.000
241334.700,223990.600,750000.100,750000.100,196880.300,190724.700,173980.800,185544.300,-0.008,0.912,-0.400,-3.754,0.793,-0.793,66.667,41.000,1.000,1.913,0.000
238732.900,221595.800,750000.100,750000.100,194756.900,188684.000,172113.700,183528.200,-0.006,0.914,-0.403,-3.754,0.854,-0.793,66.667,42.000,1.000,3.724,0.000
236236.600,219329.700,750000.100,750000.100,192686.900,186739.300,170323.800,181567.900,-0.004,0.915,-0.401,-3.754,1.068,-0.732,66.667,43.000,1.000,14.340,0.000
233942.300,217215.000,750000.100,748745.600,190799.800,184936.800,168668.100,179789.600,-0.004,0.915,-0.399,-3.540,1.221,-0.732,66.667,44.000,1.000,0.013,0.000
231826.000,215213.900,750000.100,741355.600,189097.100,183248.800,167131.300,178197.300,-0.004,0.916,-0.399,-3.479,1.282,-0.732,66.667,45.000,1.000,1.889,0.000
229837.500,213326.800,750000.100,734366.000,187509.300,181659.900,165693.900,176695.800,-0.006,0.915,-0.402,-3.357,1.404,-0.702,66.667,46.000,1.000,2.507,0.000
227863.000,211515.800,750000.100,727563.600,185893.700,180114.700,164282.500,175162.800,-0.008,0.916,-0.399,-3.326,1.404,-0.641,66.667,47.000,1.000,2.555,0.000
225945.000,209780.900,750000.100,721024.300,184293.400,178620.900,162905.300,173649.000,-0.010,0.917,-0.400,-3.265,1.404,-0.610,66.667,48.000,1.000,8.694,0.000
224190.800,208164.800,750000.100,714920.300,182846.800,177243.900,161640.900,172288.900,-0.009,0.917,-0.399,-3.174,1.465,-0.732,66.667,49.000,1.000,3.080,0.000
222584.900,206639.700,750000.100,709249.100,181564.500,175964.800,160480.400,171084.200,-0.010,0.916,-0.399,-3.174,1.495,-0.610,66.667,50.000,1.000,0.010,0.000
221059.400,205186.400,750000.100,703861.800,180364.200,174751.200,159387.400,169948.600,-0.009,0.917,-0.400,-2.991,1.617,-0.519,66.667,51.000,1.000,9.402,0.000
219522.500,203778.000,750000.100,698572.700,179110.400,173551.700,158293.400,168759.300,-0.008,0.920,-0.397,-2.930,1.556,-0.458,66.667,52.000,1.000,3.066,0.000
218020.500,202427.600,750000.100,693460.500,177852.900,172387.300,157218.300,167572.400,-0.011,0.918,-0.391,-2.869,1.648,-0.488,66.667,53.000,1.000,0.006,0.000
216654.100,201174.900,745240.200,688691.200,176725.700,171318.900,156233.800,166514.300,-0.010,0.918,-0.394,-2.777,1.587,-0.549,66.667,54.000,1.000,1.893,0.000
215417.000,199995.100,740340.300,684280.300,175745.300,170331.200,155341.900,165598.800,-0.010,0.917,-0.395,-2.777,1.617,-0.397,66.667,55.000,1.000,8.775,0.000
214256.500,198884.800,735687.800,680098.400,174843.800,169405.400,154515.700,164750.100,-0.010,0.916,-0.397,-2.716,1.648,-0.427,66.667,56.000,1.000,3.111,0.000
213080.500,197812.400,731184.000,675954.600,173884.300,168496.300,153686.600,163833.600,-0.011,0.915,-0.402,-2.716,1.678,-0.366,66.667,57.000,1.000,0.007,0.000
211904.700,196760.500,726831.400,671915.900,172895.300,167592.000,152849.500,162894.000,-0.012,0.915,-0.399,-2.655,1.587,-0.244,66.667,58.000,1.000,1.945,0.000
210811.800,195755.300,722697.800,668127.600,171989.000,166732.700,152057.400,162038.800,-0.010,0.915,-0.396,-2.686,1.587,-0.336,66.667,59.000,1.000,13.700,0.000
209836.800,194819.500,718811.800,664642.100,171219.200,165944.100,151343.300,161317.400,-0.008,0.914,-0.398,-2.594,1.709,-0.244,66.667,60.000,1.000,3.062,0.000
208915.200,193930.700,715107.400,661322.400,170505.600,165202.100,150679.100,160642.400,-0.010,0.916,-0.398,-2.411,1.709,-0.244,66.667,61.000,1.000,0.012,0.000
207976.600,193076.300,711511.800,658015.400,169737.000,164472.100,150013.100,159907.700,-0.009,0.914,-0.397,-2.411,1.648,-0.366,66.667,62.000,1.000,1.930,0.000
207041.300,192246.200,708035.800,654781.900,168939.500,163751.700,149343.700,159151.300,-0.008,0.913,-0.399,-2.380,1.617,-0.275,66.667,63.000,1.000,3.681,0.000
206184.700,191457.000,704741.400,651766.100,168220.500,163074.200,148719.400,158480.400,-0.009,0.914,-0.399,-2.319,1.709,-0.397,66.667,64.000,1.000,8.824,0.000
205449.600,190743.200,701668.800,649028.400,167649.900,162482.300,148190.100,157953.100,-0.008,0.916,-0.400,-2.136,1.678,-0.397,66.667,65.000,1.000,3.037,0.000
204756.700,190064.700,698735.600,646418.200,167122.800,161926.200,147698.500,157458.700,-0.009,0.920,-0.402,-2.075,1.709,-0.366,66.667,66.000,1.000,0.007,0.000
203975.200,189351.800,695814.900,643727.500,166473.700,161308.800,147136.700,156832.300,-0.010,0.921,-0.399,-2.197,1.678,-0.305,66.667,67.000,1.000,10.758,0.000
203216.300,188686.500,693010.000,641108.300,165825.500,160730.000,146598.200,156218.000,-0.008,0.923,-0.400,-2.197,1.648,-0.427,66.667,68.000,1.000,2.997,0.000
202554.600,188084.400,690378.800,638700.300,165275.000,160216.800,146123.900,155702.400,-0.008,0.922,-0.402,-2.289,1.648,-0.427,66.667,69.000,1.000,0.005,0.000
201979.800,187523.600,687908.400,636515.500,164833.000,159753.200,145708.600,155293.800,-0.010,0.922,-0.400,-2.228,1.617,-0.458,66.667,70.000,1.000,8.134,0.000
201417.700,186969.800,685527.100,634411.900,164409.000,159297.800,145304.000,154893.000,-0.008,0.923,-0.400,-2.289,1.617,-0.458,66.667,71.000,1.000,3.087,0.000
200814.300,186426.600,683187.800,632257.700,163914.100,158833.800,144877.800,154417.200,-0.007,0.924,-0.400,-2.380,1.709,-0.488,66.667,72.000,1.000,0.017,0.000
200203.700,185895.500,680910.300,630127.300,163386.700,158371.400,144446.500,153913.100,-0.007,0.925,-0.401,-2.380,1.678,-0.488,66.667,73.000,1.000,1.913,0.000
199664.800,185404.000,678766.800,628169.100,162934.800,157947.600,144060.500,153490.900,-0.007,0.925,-0.398,-2.472,1.709,-0.549,66.667,74.000,1.000,8.743,0.000
199193.900,184934.900,676746.100,626394.100,162568.200,157558.700,143715.200,153155.800,-0.005,0.923,-0.399,-2.502,1.678,-0.427,66.667,75.000,1.000,4.280,0.000
198755.400,184492.700,674816.400,624701.800,162237.800,157197.700,143396.300,152853.700,-0.005,0.920,-0.401,-2.655,1.617,-0.397,66.667,76.000,1.000,0.011,0.000
198258.900,184049.500,672896.700,622932.900,161827.300,156817.400,143047.400,152461.300,-0.007,0.922,-0.401,-2.747,1.740,-0.397,66.667,77.000,1.000,1.905,0.000
197759.700,183625.000,671029.200,621178.300,161387.500,156439.200,142689.000,152042.200,-0.004,0.923,-0.403,-2.716,1.740,-0.336,66.667,78.000,1.000,11.297,0.000
197332.500,183236.300,669275.300,619577.800,161020.700,156103.600,142371.200,151701.100,-0.003,0.921,-0.402,-2.838,1.770,-0.458,66.667,79.000,1.000,2.487,0.000
196983.200,182881.700,667647.800,618161.700,160757.300,155814.200,142110.300,151462.700,-0.003,0.917,-0.399,-2.960,1.801,-0.488,66.667,80.000,1.000,4.324,0.000
196647.600,182538.500,666084.900,616803.300,160518.600,155540.700,141870.000,151238.800,-0.003,0.918,-0.398,-2.930,1.740,-0.580,66.667,81.000,1.000,0.009,0.000
196256.500,182196.400,664522.400,615361.100,160199.800,155248.400,141604.800,150930.300,-0.002,0.918,-0.399,-3.021,1.831,-0.641,66.667,82.000,1.000,1.895,0.000
195866.300,181873.500,663003.100,613921.900,159854.300,154963.100,141333.800,150595.900,-0.006,0.913,-0.400,-2.991,1.923,-0.671,66.667,83.000,1.000,11.331,0.000
195532.500,181567.600,661569.100,612611.900,159565.400,154696.900,141082.900,150325.100,-0.006,0.911,-0.401,-2.960,1.923,-0.793,66.667,84.000,1.000,5.596,0.000
195237.600,181256.600,660209.400,611439.400,159339.200,154438.800,140853.500,150118.000,-0.008,0.911,-0.402,-2.838,2.014,-0.824,66.667,85.000,1.000,0.012,0.000
194972.900,180975.700,658918.900,610330.300,159150.000,154211.500,140656.000,149940.700,-0.010,0.912,-0.399,-2.747,1.923,-0.977,66.667,86.000,1.000,1.857,0.000
194651.700,180689.200,657613.800,609124.300,158876.700,153962.000,140425.400,149674.000,-0.011,0.919,-0.397,-2.747,1.892,-1.099,66.667,87.000,1.000,2.500,0.000
194314.700,180411.500,656330.700,607903.800,158571.000,153712.500,140185.200,149380.900,-0.013,0.922,-0.396,-2.838,1.892,-1.129,66.667,88.000,1.000,6.280,0.000
194040.700,180165.300,655137.400,606815.000,158331.600,153495.600,139980.300,149163.100,-0.013,0.923,-0.399,-2.930,1.740,-1.160,66.667,89.000,1.000,8.681,0.000
193835.000,179945.300,654042.600,605887.800,158188.500,153320.200,139829.900,149034.600,-0.012,0.922,-0.396,-3.052,1.617,-1.251,66.667,90.000,1.000,4.346,0.000
193631.400,179723.000,652980.300,604990.300,158049.600,153144.200,139677.100,148900.500,-0.011,0.920,-0.398,-3.113,1.434,-1.282,66.667,91.000,1.000,0.008,0.000
193365.200,179494.200,651892.100,603982.900,157825.700,152944.400,139494.400,148683.500,-0.011,0.918,-0.398,-3.113,1.434,-1.282,66.667,92.000,1.000,1.877,0.000
193082.800,179267.800,650816.900,602952.600,157565.200,152736.500,139297.400,148437.400,-0.013,0.919,-0.396,-3.113,1.312,-1.282,66.667,93.000,1.000,11.309,0.000
192857.700,179067.600,649819.900,602045.600,157368.600,152561.800,139133.900,148259.600,-0.014,0.918,-0.396,-3.052,1.251,-1.251,66.667,94.000,1.000,3.146,0.000
192693.100,178887.200,648903.400,601278.100,157257.400,152419.100,139010.100,148161.000,-0.014,0.916,-0.396,-3.113,1.190,-1.251,66.667,95.000,1.000,0.013,0.000
192549.600,178721.500,648030.300,600552.800,157171.800,152292.500,138907.200,148079.600,-0.016,0.914,-0.401,-3.174,1.038,-1.251,66.667,96.000,1.000,1.832,0.000
192329.100,178533.000,647114.100,599700.800,156984.700,152127.400,138755.500,147891.500,-0.014,0.913,-0.398,-3.143,0.977,-1.129,66.667,97.000,1.000,8.787,0.000
192090.500,178349.900,646204.300,598821.400,156762.500,151953.100,138584.800,147673.700,-0.012,0.914,-0.398,-3.143,0.854,-0.977,66.667,98.000,1.000,3.073,0.000
191904.700,178184.700,645359.200,598052.300,156595.300,151806.700,138445.300,147518.700,-0.010,0.913,-0.396,-2.930,0.946,-0.977,66.667,99.000,1.000,0.010,0.000
191776.400,178033.500,644587.600,597418.400,156510.800,151693.100,138344.700,147445.000,-0.008,0.910,-0.399,-2.808,0.916,-0.824,66.667,100.000,1.000,1.841,0.000
191662.700,177896.700,643853.200,596818.300,156451.800,151597.700,138269.500,147391.300,-0.010,0.912,-0.402,-2.655,0.977,-0.702,66.667,101.000,1.000,11.315,0.000
191493.300,177757.900,643088.500,596106.200,156309.600,151477.700,138161.100,147249.500,-0.010,0.913,-0.403,-2.594,1.007,-0.610,66.667,102.000,1.000,3.083,0.000
191291.300,177610.000,642311.000,595350.400,156117.200,151336.300,138023.900,147065.200,-0.009,0.918,-0.400,-2.563,1.038,-0.580,66.667,103.000,1.000,0.010,0.000
191146.000,177484.300,641599.500,594706.000,155987.900,151227.100,137920.100,146944.400,-0.010,0.919,-0.400,-2.502,1.007,-0.549,66.667,104.000,1.000,1.987,0.000
191060.600,177373.600,640958.400,594190.600,155942.600,151147.100,137853.900,146907.800,-0.009,0.922,-0.402,-2.472,1.099,-0.366,66.667,105.000,1.000,9.992,0.000
190956.800,177239.200,640312.800,593671.500,155880.800,151043.300,137769.700,146848.700,-0.010,0.926,-0.399,-2.594,1.068,-0.458,66.667,106.000,1.000,2.401,0.000
190794.100,177105.900,639636.700,593042.800,155740.000,150924.700,137660.500,146708.900,-0.009,0.928,-0.398,-2.563,1.068,-0.519,66.667,107.000,1.000,2.444,0.000
190621.400,176985.200,638969.100,592390.000,155571.200,150812.000,137549.000,146549.200,-0.009,0.933,-0.401,-2.808,1.038,-0.549,66.667,108.000,1.000,3.822,0.000
190492.400,176874.400,638350.800,591833.300,155452.600,150713.200,137451.800,146445.700,-0.006,0.938,-0.398,-2.899,1.129,-0.458,66.667,109.000,1.000,9.370,0.000
190442.100,176799.400,637818.500,591422.400,155436.000,150663.600,137414.600,146438.400,-0.004,0.940,-0.397,-3.113,1.160,-0.336,66.667,110.000,1.000,0.015,0.000
190393.000,176724.500,637300.100,591021.400,155427.400,150615.700,137382.200,146430.800,-0.002,0.941,-0.396,-3.387,1.251,-0.305,66.667,111.000,1.000,1.818,0.000
190250.100,176608.200,636708.300,590465.700,155300.200,150509.300,137282.500,146299.000,0.001,0.938,-0.394,-3.571,1.343,-0.122,66.667,112.000,1.000,8.827,0.000
190085.700,176494.100,636116.600,589874.800,155136.600,150398.500,137169.400,146140.700,0.002,0.936,-0.395,-3.784,1.495,-0.183,66.667,113.000,1.000,3.065,0.000
189987.100,176413.800,635592.400,589400.900,155045.700,150327.500,137101.900,146059.100,0.002,0.935,-0.395,-4.059,1.587,-0.183,66.667,114.000,1.000,0.018,0.000
189949.100,176346.200,635131.800,589060.100,155040.300,150287.200,137076.900,146065.800,0.000,0.930,-0.396,-4.272,1.862,-0.153,66.667,115.000,1.000,1.894,0.000
189907.000,176271.800,634675.500,588719.100,155034.500,150236.600,137043.600,146059.600,0.000,0.927,-0.396,-4.181,2.045,-0.122,66.667,116.000,1.000,8.708,0.000
189782.800,176168.500,634157.800,588232.700,154922.000,150138.500,136956.500,145945.500,-0.001,0.926,-0.395,-4.303,2.136,-0.122,66.667,117.000,1.000,14.365,0.000
189650.200,176084.600,633645.900,587723.900,154787.100,150051.300,136868.100,145820.000,-0.003,0.924,-0.392,-4.242,2.197,-0.366,66.667,118.000,1.000,0.012,0.000
189568.600,176018.800,633186.500,587313.200,154707.300,149984.600,136802.800,145745.600,-0.004,0.920,-0.389,-4.120,2.380,-0.427,66.667,119.000,1.000,1.871,0.000
189540.300,175959.700,632780.800,587014.900,154700.100,149933.700,136767.600,145745.900,-0.004,0.915,-0.389,-4.028,2.472,-0.610,66.667,120.000,1.000,2.517,0.000
189522.100,175910.300,632398.200,586734.300,154716.500,149904.100,136753.000,145759.000,-0.004,0.909,-0.386,-3.845,2.472,-0.793,66.667,121.000,1.000,6.203,0.000
189434.900,175846.600,631963.400,586323.200,154639.700,149845.800,136696.900,145678.800,-0.005,0.907,-0.390,-3.754,2.533,-1.007,66.667,122.000,1.000,3.727,0.000
189320.500,175776.800,631509.400,585864.200,154514.800,149770.300,136616.500,145559.700,-0.005,0.906,-0.393,-3.479,2.594,-1.190,66.667,123.000,1.000,4.305,0.000
189240.300,175710.700,631090.400,585485.800,154433.200,149704.200,136548.400,145485.600,-0.006,0.906,-0.394,-3.326,2.594,-1.312,66.667,124.000,1.000,0.009,0.000
189225.200,175668.500,630742.600,585242.200,154449.400,149682.000,136537.100,145505.000,-0.010,0.908,-0.390,-3.082,2.502,-1.556,66.667,125.000,1.000,8.855,0.000
189220.000,175634.100,630410.300,585012.700,154477.700,149666.800,136532.900,145531.000,-0.011,0.906,-0.388,-2.899,2.533,-1.740,66.667,126.000,1.000,0.030,0.000
189140.000,175578.900,630018.800,584643.100,154405.700,149616.100,136484.000,145452.800,-0.013,0.908,-0.391,-2.625,2.441,-1.770,66.667,127.000,1.000,2.406,0.000
189031.200,175512.300,629604.300,584221.300,154287.800,149549.400,136410.300,145338.700,-0.014,0.911,-0.390,-2.411,2.319,-1.892,66.667,128.000,1.000,0.009,0.000
188962.900,175455.800,629231.900,583888.500,154219.000,149501.000,136357.200,145278.900,-0.018,0.909,-0.390,-2.289,2.075,-1.923,66.667,129.000,1.000,8.192,0.000
188957.900,175422.800,628925.600,583683.600,154239.700,149490.100,136351.200,145306.900,-0.019,0.909,-0.387,-2.136,1.923,-2.014,66.667,130.000,1.000,7.486,0.000
188951.500,175385.000,628619.900,583473.800,154260.900,149472.700,136345.600,145327.500,-0.021,0.910,-0.388,-1.984,1.770,-2.136,66.667,131.000,1.000,2.559,0.000
188868.700,175325.400,628255.300,583125.300,154185.300,149420.300,136293.700,145245.300,-0.023,0.915,-0.388,-1.953,1.587,-2.258,66.667,132.000,1.000,2.393,0.000
188778.700,175282.200,627891.600,582747.800,154084.300,149369.400,136235.000,145146.100,-0.025,0.915,-0.389,-1.801,1.373,-2.258,66.667,133.000,1.000,2.538,0.000
188717.600,175231.500,627555.300,582445.700,154019.800,149320.200,136180.600,145088.000,-0.023,0.915,-0.390,-1.648,1.221,-2.136,66.667,134.000,1.000,3.767,0.000
188727.900,175208.300,627293.100,582276.400,154050.000,149316.200,136181.800,145126.200,-0.021,0.917,-0.393,-1.495,0.946,-2.014,66.667,135.000,1.000,9.366,0.000
188745.200,175194.400,627042.600,582116.100,154094.400,149320.500,136198.700,145170.300,-0.017,0.920,-0.395,-1.495,0.824,-2.014,66.667,136.000,1.000,0.011,0.000
188677.300,175147.200,626715.100,581803.100,154029.500,149272.800,136155.800,145099.300,-0.014,0.921,-0.391,-1.434,0.793,-1.984,66.667,137.000,1.000,1.835,0.000
188590.900,175101.900,626375.400,581448.200,153927.200,149220.600,136098.300,145000.500,-0.014,0.922,-0.391,-1.556,0.732,-1.801,66.667,138.000,1.000,3.775,0.000
188544.900,175061.500,626073.600,581181.300,153870.800,149180.600,136052.800,144953.100,-0.014,0.922,-0.395,-1.648,0.732,-1.587,66.667,139.000,1.000,8.672,0.000
188557.400,175040.100,625832.600,581036.500,153899.700,149168.600,136046.000,144989.400,-0.016,0.922,-0.396,-1.770,0.763,-1.434,66.667,140.000,1.000,4.400,0.000
188568.900,175019.200,625597.900,580891.600,153937.900,149164.500,136054.500,145027.000,-0.015,0.924,-0.400,-1.770,0.763,-1.190,66.667,141.000,1.000,0.010,0.000
188530.300,174998.200,625323.700,580626.000,153897.000,149142.400,136032.800,144982.900,-0.015,0.924,-0.398,-1.740,0.732,-1.068,66.667,142.000,1.000,1.910,0.000
188451.700,174962.100,625015.400,580298.600,153799.800,149094.500,135979.300,144889.100,-0.013,0.923,-0.398,-1.831,0.763,-0.885,66.667,143.000,1.000,8.667,0.000
188413.900,174933.600,624744.700,580056.300,153753.000,149065.400,135947.400,144852.300,-0.011,0.921,-0.396,-1.862,0.763,-0.824,66.667,144.000,1.000,4.309,0.000
188439.700,174924.800,624535.500,579937.900,153792.900,149067.300,135958.300,144900.500,-0.013,0.925,-0.396,-1.923,0.793,-0.671,66.667,145.000,1.000,0.008,0.000
188462.200,174911.000,624327.600,579818.100,153841.400,149073.500,135975.800,144947.300,-0.014,0.921,-0.399,-2.014,0.824,-0.519,66.667,146.000,1.000,13.340,0.000
188398.300,174865.500,624044.000,579542.100,153778.400,149028.200,135929.400,144877.200,-0.013,0.921,-0.402,-2.167,0.916,-0.427,66.667,147.000,1.000,3.013,0.000
188316.000,174822.100,623748.800,579224.600,153676.700,148972.800,135868.000,144776.500,-0.013,0.921,-0.400,-2.167,0.916,-0.458,66.667,148.000,1.000,0.012,0.000
188287.800,174801.100,623503.300,579001.300,153636.900,148947.400,135836.800,144741.000,-0.012,0.922,-0.400,-2.075,0.977,-0.519,66.667,149.000,1.000,1.790,0.000
188310.600,174790.900,623309.100,578895.900,153675.500,148953.100,135845.900,144784.600,-0.012,0.922,-0.397,-2.197,1.007,-0.397,66.667,150.000,1.000,2.613,0.000
188352.400,174799.300,623140.900,578811.900,153742.700,148978.700,135879.700,144851.900,-0.010,0.923,-0.400,-2.289,1.038,-0.183,66.667,151.000,1.000,3.661,0.000
188309.700,174778.900,622899.600,578573.300,153702.600,148959.300,135859.800,144802.500,-0.012,0.923,-0.400,-2.319,1.038,-0.275,66.667,152.000,1.000,9.404,0.000
188226.500,174740.500,622620.800,578269.900,153603.700,148911.300,135804.000,144701.700,-0.010,0.923,-0.398,-2.380,1.007,-0.244,66.667,153.000,1.000,0.012,0.000
188205.400,174727.200,622400.600,578075.300,153573.700,148895.400,135784.600,144679.200,-0.010,0.925,-0.396,-2.533,1.160,-0.275,66.667,154.000,1.000,1.896,0.000
188224.500,174713.700,622217.500,577980.400,153610.200,148893.600,135790.600,144718.000,-0.010,0.922,-0.393,-2.563,1.160,-0.275,66.667,155.000,1.000,14.327,0.000
188239.500,174699.100,622036.400,577880.100,153651.500,148894.300,135804.200,144756.100,-0.011,0.918,-0.394,-2.716,1.099,-0.305,66.667,156.000,1.000,0.011,0.000
188211.000,174696.100,621824.800,577665.600,153624.100,148888.600,135800.500,144726.400,-0.013,0.916,-0.397,-2.533,1.221,-0.366,66.667,157.000,1.000,2.479,0.000
188143.000,174668.400,621574.700,577388.300,153537.100,148845.600,135751.600,144640.700,-0.014,0.915,-0.396,-2.533,1.312,-0.336,66.667,158.000,1.000,0.006,0.000
188111.700,174643.400,621357.200,577194.900,153497.500,148818.400,135721.400,144607.500,-0.011,0.917,-0.397,-2.563,1.282,-0.397,66.667,159.000,1.000,13.204,0.000
188134.500,174638.100,621196.500,577119.900,153545.000,148828.600,135736.900,144657.500,-0.012,0.921,-0.395,-2.441,1.129,-0.336,66.667,160.000,1.000,3.592,0.000
188148.000,174623.300,621027.300,577033.600,153590.200,148832.100,135749.700,144702.800,-0.012,0.920,-0.393,-2.472,1.190,-0.336,66.667,161.000,1.000,0.008,0.000
188093.300,174592.500,620796.600,576802.400,153537.500,148799.100,135720.100,144645.600,-0.012,0.919,-0.396,-2.472,1.099,-0.305,66.667,162.000,1.000,0.003,0.000
188021.000,174561.000,620555.300,576536.100,153446.400,148756.000,135672.400,144561.600,-0.010,0.914,-0.398,-2.441,1.160,-0.305,66.667,163.000,1.000,3.203,0.000
187987.500,174534.600,620347.400,576356.600,153406.600,148733.300,135646.900,144533.200,-0.008,0.911,-0.397,-2.319,1.251,-0.214,66.667,164.000,1.000,0.006,0.000
188029.400,174543.800,620211.100,576308.000,153472.900,148759.600,135680.700,144603.000,-0.007,0.908,-0.395,-2.350,1.282,-0.244,66.667,165.000,1.000,28.215,0.000
188065.900,174547.500,620072.600,576247.400,153537.800,148782.800,135712.100,144660.800,-0.009,0.909,-0.395,-2.075,1.312,-0.244,66.667,166.000,1.000,3.619,0.000
188014.300,174518.500,619858.300,576030.300,153486.600,148755.800,135678.800,144605.300,-0.010,0.912,-0.400,-1.923,1.312,-0.153,66.667,167.000,1.000,0.011,0.000
187946.800,174498.100,619636.200,575776.900,153407.700,148727.900,135638.500,144527.900,-0.013,0.914,-0.400,-1.862,1.282,-0.427,66.667,168.000,1.000,0.004,0.000
187935.900,174495.300,619461.900,575621.900,153391.500,148727.300,135633.400,144516.800,-0.014,0.915,-0.398,-1.740,1.190,-0.336,66.667,169.000,1.000,3.723,0.000
187970.900,174496.000,619326.400,575567.000,153441.500,148743.100,135652.800,144575.400,-0.015,0.916,-0.401,-1.648,1.282,-0.519,66.667,170.000,1.000,0.008,0.000
188000.300,174488.700,619186.600,575502.900,153486.000,148742.400,135660.300,144616.100,-0.017,0.916,-0.399,-1.648,1.190,-0.671,66.667,171.000,1.000,0.003,0.000
187959.100,174468.000,618988.900,575304.100,153442.000,148720.700,135638.300,144565.500,-0.015,0.916,-0.396,-1.526,1.160,-0.763,66.667,172.000,1.000,2.566,0.000
187877.700,174429.300,618753.900,575042.300,153342.600,148672.200,135578.800,144469.400,-0.012,0.916,-0.401,-1.404,1.007,-0.854,66.667,173.000,1.000,2.577,0.000
187845.300,174405.700,618563.000,574873.800,153300.300,148647.500,135544.700,144430.300,-0.012,0.918,-0.399,-1.312,1.038,-0.854,66.667,174.000,1.000,2.359,0.000
187882.300,174411.000,618438.600,574830.500,153351.400,148664.900,135566.300,144483.600,-0.013,0.921,-0.398,-1.312,0.946,-0.885,66.667,175.000,1.000,8.779,0.000
187927.500,174428.000,618327.800,574794.100,153419.600,148693.700,135606.700,144544.100,-0.013,0.923,-0.398,-1.343,0.977,-0.824,66.667,176.000,1.000,3.035,0.000
187897.600,174422.600,618150.800,574612.900,153387.200,148681.300,135595.500,144506.600,-0.011,0.927,-0.398,-1.373,1.007,-0.793,66.667,177.000,1.000,0.008,0.000
187834.100,174402.100,617941.400,574375.400,153305.600,148646.300,135555.600,144422.300,-0.010,0.931,-0.400,-1.434,1.038,-0.671,66.667,178.000,1.000,1.923,0.000
187817.200,174391.000,617773.900,574229.300,153279.900,148629.500,135536.900,144405.200,-0.007,0.930,-0.404,-1.495,1.038,-0.549,66.667,179.000,1.000,13.815,0.000
187856.900,174394.100,617658.200,574195.100,153333.500,148642.100,135559.600,144464.700,-0.008,0.929,-0.406,-1.648,1.129,-0.519,66.667,180.000,1.000,3.113,0.000
187888.000,174390.600,617534.100,574146.900,153384.700,148650.300,135578.400,144512.800,-0.006,0.928,-0.404,-1.709,1.190,-0.305,66.667,181.000,1.000,0.010,0.000
187853.300,174376.800,617358.200,573966.400,153350.800,148632.600,135562.400,144471.000,-0.007,0.926,-0.403,-1.801,1.343,-0.275,66.667,182.000,1.000,1.958,0.000
187816.800,174380.800,617186.300,573761.600,153297.800,148623.500,135545.400,144420.300,-0.006,0.922,-0.400,-1.831,1.434,-0.336,66.667,183.000,1.000,2.278,0.000
187790.100,174357.800,617018.500,573610.100,153262.800,148601.400,135519.200,144395.900,-0.008,0.918,-0.398,-1.892,1.526,-0.244,66.667,184.000,1.000,7.720,0.000
187829.400,174361.400,616909.800,573578.900,153320.800,148618.900,135540.100,144458.000,-0.006,0.918,-0.402,-1.892,1.648,-0.336,66.667,185.000,1.000,2.430,0.000
187853.700,174352.900,616786.600,573529.400,153368.600,148624.200,135554.500,144501.900,-0.009,0.917,-0.400,-1.709,1.678,-0.336,66.667,186.000,1.000,6.287,0.000
187815.500,174336.300,616612.100,573351.300,153330.200,148607.600,135535.500,144455.700,-0.010,0.917,-0.398,-1.709,1.892,-0.275,66.667,187.000,1.000,2.432,0.000
187757.200,174317.800,616418.900,573128.000,153253.400,148576.900,135496.800,144380.900,-0.010,0.917,-0.399,-1.678,1.953,-0.305,66.667,188.000,1.000,3.795,0.000
187738.200,174305.900,616262.100,572989.100,153223.700,148559.900,135475.900,144360.200,-0.011,0.916,-0.400,-1.648,2.045,-0.458,66.667,189.000,1.000,9.342,0.000
187785.500,174321.200,616170.800,572978.100,153292.400,148589.800,135510.200,144433.700,-0.010,0.917,-0.401,-1.648,2.075,-0.549,66.667,190.000,1.000,0.010,0.000
187831.200,174336.500,616076.300,572955.600,153361.500,148620.600,135550.500,144494.300,-0.012,0.916,-0.400,-1.678,2.014,-0.732,66.667,191.000,1.000,1.857,0.000
187795.800,174326.300,615910.600,572779.100,153324.100,148606.400,135536.000,144446.000,-0.013,0.915,-0.399,-1.617,1.984,-0.732,66.667,192.000,1.000,3.854,0.000
187719.300,174288.500,615706.800,572540.800,153227.600,148554.400,135477.500,144349.100,-0.012,0.917,-0.399,-1.556,1.984,-0.793,66.667,193.000,1.000,8.612,0.000
187700.900,174277.400,615554.400,572410.400,153200.700,148536.600,135457.800,144331.700,-0.013,0.920,-0.400,-1.526,1.923,-0.885,66.667,194.000,1.000,3.074,0.000
187735.500,174281.400,615454.500,572390.300,153252.800,148549.500,135479.600,144387.500,-0.014,0.920,-0.400,-1.556,1.953,-1.038,66.667,195.000,1.000,0.011,0.000
187776.400,174289.800,615358.100,572366.800,153314.000,148573.100,135513.400,144448.900,-0.014,0.918,-0.399,-1.526,1.923,-1.068,66.667,196.000,1.000,10.634,0.000
187748.500,174283.000,615202.900,572205.300,153279.000,148563.800,135503.600,144408.600,-0.012,0.917,-0.398,-1.587,1.923,-1.099,66.667,197.000,1.000,3.126,0.000
187691.500,174267.400,615023.600,571991.800,153201.000,148535.200,135467.800,144329.100,-0.012,0.917,-0.402,-1.648,1.862,-1.007,66.667,198.000,1.000,0.014,0.000
187689.000,174269.200,614890.100,571874.100,153183.300,148531.100,135457.200,144317.100,-0.012,0.917,-0.400,-1.648,1.740,-1.007,66.667,199.000,1.000,1.869,0.000
187725.400,174271.300,614792.200,571855.600,153233.300,148547.400,135476.800,144370.500,-0.013,0.915,-0.401,-1.648,1.770,-1.038,66.667,200.000,1.000,14.425,0.000
187755.800,174269.500,614691.600,571824.100,153283.300,148555.900,135497.000,144417.800,-0.013,0.916,-0.402,-1.587,1.862,-1.068,66.667,201.000,1.000,0.017,0.000
187707.400,174241.700,614521.800,571642.900,153229.600,148520.100,135463.600,144360.200,-0.013,0.915,-0.403,-1.617,1.831,-1.007,66.667,202.000,1.000,1.891,0.000
187635.500,174209.800,614332.200,571421.200,153140.400,148475.200,135410.500,144274.100,-0.010,0.914,-0.405,-1.648,1.709,-1.007,66.667,203.000,1.000,6.302,0.000
187644.100,174222.800,614217.100,571323.700,153142.900,148490.200,135417.500,144285.700,-0.009,0.914,-0.400,-1.526,1.801,-0.946,66.667,204.000,1.000,2.434,0.000
187698.300,174242.700,614147.800,571330.100,153217.000,148527.000,135456.900,144366.000,-0.011,0.913,-0.402,-1.556,1.770,-0.854,66.667,205.000,1.000,2.538,0.000
187749.800,174264.800,614074.800,571323.300,153294.200,148564.600,135500.200,144431.000,-0.013,0.915,-0.404,-1.556,1.617,-0.793,66.667,206.000,1.000,2.990,0.000
187705.800,174245.900,613915.800,571155.700,153250.800,148540.600,135475.400,144380.700,-0.012,0.917,-0.404,-1.526,1.587,-0.763,66.667,207.000,1.000,0.007,0.000
187646.500,174227.200,613742.300,570951.000,153171.200,148508.900,135433.300,144304.200,-0.014,0.918,-0.401,-1.617,1.587,-0.732,66.667,208.000,1.000,3.138,0.000
187630.200,174214.400,613602.700,570830.100,153143.100,148494.300,135412.300,144284.300,-0.016,0.917,-0.400,-1.617,1.465,-0.610,66.667,209.000,1.000,13.888,0.000
187674.200,174221.900,613521.400,570826.800,153203.300,148513.800,135439.600,144351.300,-0.015,0.919,-0.403,-1.678,1.343,-0.610,66.667,210.000,1.000,3.086,0.000
187717.900,174231.500,613441.300,570814.800,153267.500,148535.700,135472.800,144410.700,-0.017,0.920,-0.404,-1.770,1.282,-0.702,66.667,211.000,1.000,0.069,0.000
187676.100,174210.800,613285.900,570643.400,153222.000,148510.000,135445.600,144352.400,-0.016,0.923,-0.404,-1.923,1.160,-0.702,66.667,212.000,1.000,1.894,0.000
187607.300,174180.800,613105.300,570429.300,153131.700,148468.700,135396.200,144263.200,-0.017,0.924,-0.403,-2.136,1.099,-0.641,66.667,213.000,1.000,3.185,0.000
187597.000,174171.400,612974.900,570317.900,153104.500,148449.800,135377.500,144245.800,-0.015,0.924,-0.400,-2.228,1.038,-0.610,66.667,214.000,1.000,7.875,0.000
187663.400,174204.900,612921.300,570336.600,153183.800,148492.500,135428.600,144335.100,-0.014,0.926,-0.401,-2.380,0.824,-0.610,66.667,215.000,1.000,3.117,0.000
187701.200,174212.300,612842.100,570321.000,153241.300,148515.400,135460.000,144390.400,-0.014,0.926,-0.404,-2.563,0.885,-0.671,66.667,216.000,1.000,0.007,0.000
187658.800,174194.800,612692.100,570159.300,153196.300,148493.700,135435.700,144338.000,-0.013,0.926,-0.405,-2.716,0.854,-0.610,66.667,217.000,1.000,1.876,0.000
187602.300,174181.500,612530.400,569963.600,153122.300,148469.200,135401.500,144265.400,-0.015,0.927,-0.404,-2.930,0.916,-0.580,66.667,218.000,1.000,13.858,0.000
187600.700,174184.700,612413.600,569862.900,153111.200,148470.000,135395.600,144256.700,-0.014,0.925,-0.403,-3.052,0.793,-0.641,66.667,219.000,1.000,2.463,0.000
187647.500,174196.800,612342.100,569863.500,153172.300,148496.600,135423.700,144321.900,-0.013,0.926,-0.401,-3.265,0.763,-0.458,66.667,220.000,1.000,3.027,0.000
187685.600,174208.000,612267.800,569854.000,153236.100,148523.600,135456.900,144383.200,-0.010,0.923,-0.402,-3.479,0.732,-0.458,66.667,221.000,1.000,0.015,0.000
187649.800,174199.900,612127.500,569703.800,153201.500,148510.100,135441.900,144341.100,-0.009,0.920,-0.401,-3.571,0.702,-0.366,66.667,222.000,1.000,1.925,0.000
187570.200,174159.300,611942.300,569484.400,153101.500,148458.200,135382.400,144243.700,-0.009,0.919,-0.401,-3.723,0.763,-0.427,66.667,223.000,1.000,8.688,0.000
187560.700,174153.200,611820.600,569379.300,153080.500,148449.700,135370.900,144231.100,-0.009,0.917,-0.401,-3.876,0.977,-0.458,66.667,224.000,1.000,4.339,0.000
187608.800,174162.900,611754.100,569388.800,153139.900,148467.400,135398.500,144295.600,-0.009,0.915,-0.403,-3.845,0.946,-0.580,66.667,225.000,1.000,0.007,0.000
187658.500,174178.800,611693.100,569396.100,153211.700,148493.300,135435.300,144360.500,-0.009,0.914,-0.404,-3.906,1.007,-0.610,66.667,226.000,1.000,8.135,0.000
187637.000,174181.000,611569.300,569263.000,153188.700,148489.500,135432.600,144334.000,-0.007,0.911,-0.405,-3.845,1.160,-0.549,66.667,227.000,1.000,2.460,0.000
187571.400,174154.400,611401.600,569061.300,153103.500,148451.600,135385.300,144250.800,-0.010,0.912,-0.404,-3.693,1.221,-0.610,66.667,228.000,1.000,3.890,0.000
187563.200,174152.000,611285.600,568961.100,153087.800,148447.200,135375.400,144236.600,-0.010,0.911,-0.402,-3.571,1.343,-0.671,66.667,229.000,1.000,6.170,0.000
187601.200,174155.500,611213.500,568963.300,153141.500,148457.900,135391.300,144298.500,-0.009,0.912,-0.402,-3.448,1.343,-0.610,66.667,230.000,1.000,4.313,0.000
187636.600,174161.000,611140.600,568955.400,153202.300,148481.000,135420.500,144351.400,-0.010,0.912,-0.398,-3.387,1.434,-0.580,66.667,231.000,1.000,0.010,0.000
187600.300,174153.500,611008.000,568807.500,153167.000,148470.900,135406.700,144307.000,-0.011,0.911,-0.399,-3.387,1.526,-0.580,66.667,232.000,1.000,10.674,0.000
187538.700,174133.200,610849.100,568615.300,153087.600,148439.500,135365.100,144229.000,-0.011,0.915,-0.399,-3.326,1.495,-0.519,66.667,233.000,1.000,3.080,0.000
187535.400,174130.000,610736.300,568522.800,153069.800,148435.600,135354.400,144214.900,-0.011,0.918,-0.401,-3.357,1.495,-0.458,66.667,234.000,1.000,0.016,0.000
187584.000,174139.900,610671.400,568534.000,153128.500,148457.300,135381.000,144276.900,-0.011,0.918,-0.398,-3.326,1.648,-0.366,66.667,235.000,1.000,1.910,0.000
187635.300,174159.500,610613.600,568538.800,153197.000,148486.900,135415.900,144336.900,-0.014,0.920,-0.399,-3.296,1.617,-0.275,66.667,236.000,1.000,11.244,0.000
187602.000,174152.700,610485.300,568389.600,153161.600,148473.300,135402.000,144289.200,-0.016,0.923,-0.399,-3.204,1.556,-0.214,66.667,237.000,1.000,4.274,0.000
187557.200,174148.800,610345.800,568210.200,153096.600,148456.100,135376.400,144225.500,-0.017,0.922,-0.397,-3.204,1.526,-0.244,66.667,238.000,1.000,0.010,0.000
187543.200,174137.900,610228.700,568105.800,153071.500,148435.500,135352.400,144207.700,-0.017,0.920,-0.399,-3.204,1.526,-0.092,66.667,239.000,1.000,8.250,0.000
187582.500,174141.600,610165.600,568115.300,153131.500,148452.500,135378.200,144272.100,-0.016,0.917,-0.396,-3.296,1.495,-0.122,66.667,240.000,1.000,2.453,0.000
187612.900,174141.600,610095.300,568109.500,153186.100,148470.400,135405.800,144325.100,-0.012,0.917,-0.393,-3.387,1.495,-0.061,66.667,241.000,1.000,4.864,0.000
187585.100,174141.600,609972.800,567970.900,153153.100,148465.800,135397.700,144286.600,-0.012,0.917,-0.396,-3.326,1.587,0.031,66.667,242.000,1.000,0.013,0.000
187532.100,174128.800,609824.800,567785.800,153075.800,148440.500,135360.100,144212.800,-0.011,0.917,-0.394,-3.326,1.587,0.031,66.667,243.000,1.000,0.003,0.000
187522.800,174122.600,609716.200,567692.500,153056.300,148430.800,135346.500,144201.300,-0.012,0.913,-0.400,-3.021,1.617,0.122,66.667,244.000,1.000,2.613,0.000
187562.700,174128.500,609653.900,567706.000,153116.500,148447.500,135370.900,144264.300,-0.011,0.911,-0.399,-2.960,1.709,0.092,66.667,245.000,1.000,8.767,0.000
187601.300,174137.400,609593.000,567705.400,153179.600,148464.000,135397.800,144318.200,-0.011,0.911,-0.401,-2.808,1.678,0.122,66.667,246.000,1.000,9.345,0.000
187572.500,174129.700,609472.000,567567.900,153146.300,148448.900,135386.200,144276.900,-0.011,0.911,-0.401,-2.655,1.709,0.092,66.667,247.000,1.000,0.013,0.000
187522.100,174118.800,609331.600,567394.300,153076.300,148426.900,135356.900,144211.900,-0.012,0.910,-0.397,-2.502,1.770,0.031,66.667,248.000,1.000,8.745,0.000
187513.200,174115.900,609227.100,567305.200,153062.000,148424.600,135348.300,144208.400,-0.011,0.912,-0.397,-2.319,1.770,0.000,66.667,249.000,1.000,0.018,0.000
187553.900,174120.500,609165.200,567318.700,153119.300,148442.800,135374.100,144267.500,-0.013,0.916,-0.398,-2.167,1.770,0.000,66.667,250.000,1.000,6.269,0.000
187612.800,174146.800,609122.100,567336.400,153196.400,148484.200,135424.400,144335.900,-0.014,0.917,-0.398,-2.075,1.709,0.031,66.667,251.000,1.000,0.048,0.000
187566.500,174124.900,608983.900,567182.600,153146.900,148458.100,135394.200,144283.000,-0.013,0.918,-0.397,-2.045,1.678,-0.092,66.667,252.000,1.000,8.561,0.000
187512.500,174110.000,608840.200,567002.900,153073.300,148429.400,135354.300,144213.200,-0.012,0.919,-0.396,-2.045,1.648,-0.061,66.667,253.000,1.000,0.013,0.000
187512.500,174117.000,608747.100,566922.400,153068.300,148434.600,135352.700,144211.300,-0.012,0.919,-0.396,-1.984,1.709,-0.153,66.667,254.000,1.000,8.809,0.000
187552.000,174125.400,608690.100,566936.300,153125.800,148453.500,135377.100,144271.500,-0.012,0.920,-0.395,-2.045,1.770,-0.183,66.667,255.000,1.000,0.015,0.000
187591.700,174134.000,608632.500,566941.600,153187.100,148472.700,135408.500,144328.400,-0.016,0.920,-0.399,-1.984,1.678,-0.122,66.667,256.000,1.000,6.151,0.000
187555.500,174118.400,608509.600,566799.700,153145.000,148452.000,135388.100,144282.400,-0.014,0.921,-0.398,-2.075,1.526,-0.305,66.667,257.000,1.000,0.008,0.000
187495.200,174096.300,608359.800,566613.700,153061.500,148415.800,135343.300,144200.600,-0.011,0.923,-0.396,-2.228,1.495,-0.366,66.667,258.000,1.000,2.455,0.000
187480.900,174081.300,608249.600,566520.400,153035.700,148400.500,135321.000,144179.100,-0.013,0.923,-0.398,-2.228,1.526,-0.397,66.667,259.000,1.000,0.007,0.000
187532.800,174094.900,608202.500,566541.900,153100.100,148428.800,135350.400,144245.100,-0.012,0.925,-0.395,-2.258,1.556,-0.397,66.667,260.000,1.000,13.266,0.000
187583.300,174116.000,608158.300,566554.700,153168.800,148460.600,135390.900,144308.900,-0.011,0.927,-0.398,-2.319,1.404,-0.580,66.667,261.000,1.000,4.280,0.000
187556.700,174114.200,608045.000,566420.400,153133.100,148451.400,135378.100,144265.900,-0.008,0.924,-0.398,-2.472,1.434,-0.610,66.667,262.000,1.000,0.009,0.000
187511.200,174106.200,607913.600,566250.000,153065.900,148431.600,135350.100,144202.200,-0.011,0.922,-0.397,-2.655,1.404,-0.580,66.667,263.000,1.000,8.762,0.000
187509.600,174107.000,607818.100,566172.200,153054.300,148431.300,135346.900,144200.000,-0.009,0.921,-0.398,-2.716,1.373,-0.671,66.667,264.000,1.000,0.010,0.000
187546.900,174110.000,607760.300,566188.100,153106.900,148447.200,135371.600,144260.500,-0.009,0.919,-0.402,-2.899,1.373,-0.763,66.667,265.000,1.000,6.212,0.000
187597.800,174130.000,607717.400,566205.800,153175.000,148478.000,135412.300,144327.400,-0.012,0.919,-0.401,-2.777,1.465,-0.824,66.667,266.000,1.000,0.009,0.000
187556.000,174108.800,607592.100,566061.700,153122.400,148441.200,135378.100,144269.900,-0.012,0.915,-0.402,-2.838,1.495,-0.854,66.667,267.000,1.000,8.792,0.000
187489.000,174079.500,607440.300,565873.700,153031.400,148390.900,135322.800,144179.600,-0.013,0.913,-0.405,-2.838,1.404,-0.977,66.667,268.000,1.000,0.014,0.000
187485.300,174081.300,607347.700,565798.400,153023.700,148388.600,135315.700,144176.300,-0.012,0.911,-0.401,-2.960,1.343,-0.977,66.667,269.000,1.000,6.140,0.000
187530.300,174093.500,607299.000,565820.900,153088.700,148409.700,135343.000,144240.700,-0.011,0.911,-0.404,-2.808,1.343,-0.977,66.667,270.000,1.000,0.011,0.000
187578.800,174113.600,607258.100,565840.100,153164.800,148442.900,135382.500,144311.700,-0.011,0.913,-0.403,-2.716,1.434,-0.977,66.667,271.000,1.000,5.742,0.000
187553.000,174115.200,607151.800,565711.600,153135.500,148435.300,135369.500,144276.900,-0.013,0.916,-0.405,-2.716,1.312,-1.007,66.667,272.000,1.000,4.238,0.000
187490.800,174091.000,607008.800,565527.700,153054.700,148401.300,135325.800,144190.400,-0.012,0.917,-0.406,-2.716,1.251,-0.824,66.667,273.000,1.000,0.006,0.000
187481.500,174079.300,606911.300,565445.400,153038.600,148391.800,135311.400,144178.600,-0.015,0.919,-0.403,-2.930,1.282,-0.793,66.667,274.000,1.000,3.324,0.000
187526.700,174089.800,606865.900,565472.400,153102.500,148415.900,135340.500,144248.600,-0.018,0.920,-0.401,-2.960,1.068,-0.702,66.667,275.000,1.000,8.647,0.000
187583.200,174115.300,606833.600,565500.100,153179.400,148457.700,135391.000,144327.500,-0.018,0.925,-0.403,-3.113,1.007,-0.671,66.667,276.000,1.000,3.124,0.000
187545.900,174103.800,606715.500,565360.600,153132.800,148435.500,135368.300,144279.300,-0.019,0.927,-0.401,-3.204,1.007,-0.610,66.667,277.000,1.000,0.013,0.000
187483.400,174088.300,606574.800,565182.900,153051.600,148406.700,135331.800,144202.200,-0.018,0.928,-0.400,-3.448,0.885,-0.488,66.667,278.000,1.000,10.662,0.000
187475.200,174087.100,606481.400,565106.800,153037.000,148404.700,135322.200,144192.400,-0.018,0.930,-0.403,-3.571,0.702,-0.427,66.667,279.000,1.000,2.927,0.000
187520.500,174099.400,606439.300,565135.100,153101.700,148430.400,135351.900,144259.100,-0.017,0.932,-0.406,-3.723,0.641,-0.244,66.667,280.000,1.000,0.007,0.000
187553.000,174103.200,606385.800,565142.800,153157.100,148447.200,135380.000,144311.300,-0.014,0.930,-0.403,-3.876,0.488,-0.122,66.667,281.000,1.000,2.023,0.000
187505.800,174082.400,606260.700,565000.600,153106.600,148423.200,135355.100,144255.400,-0.011,0.930,-0.399,-4.028,0.519,-0.153,66.667,282.000,1.000,8.693,0.000
187465.600,174078.500,606141.300,564840.300,153039.500,148402.800,135327.500,144190.100,-0.009,0.928,-0.398,-4.242,0.549,-0.092,66.667,283.000,1.000,2.557,0.000
187470.600,174079.400,606058.200,564769.800,153023.900,148396.200,135319.200,144183.000,-0.004,0.927,-0.397,-4.425,0.732,0.000,66.667,284.000,1.000,2.457,0.000
187515.400,174084.200,606011.200,564794.600,153082.600,148417.900,135347.300,144245.800,-0.001,0.923,-0.397,-4.395,0.824,0.122,66.667,285.000,1.000,8.868,0.000
187548.500,174088.000,605957.900,564799.400,153138.200,148434.900,135374.700,144292.900,0.001,0.920,-0.399,-4.486,0.977,0.366,66.667,286.000,1.000,2.968,0.000
187511.800,174078.800,605845.100,564662.300,153096.000,148419.300,135356.300,144240.500,0.001,0.919,-0.398,-4.456,1.160,0.397,66.667,287.000,1.000,0.012,0.000
187458.600,174061.500,605712.900,564489.600,153017.700,148385.000,135314.900,144163.500,0.001,0.920,-0.397,-4.395,1.373,0.427,66.667,288.000,1.000,11.996,0.000
187454.000,174055.200,605621.200,564412.800,152999.000,148364.200,135298.200,144153.900,0.000,0.922,-0.397,-4.364,1.740,0.458,66.667,289.000,1.000,3.077,0.000
187494.800,174063.800,605574.100,564439.300,153057.900,148379.600,135321.000,144208.500,0.000,0.920,-0.397,-4.364,1.892,0.488,66.667,290.000,1.000,0.049,0.000
187546.700,174085.600,605541.700,564462.700,153131.700,148407.900,135359.300,144271.700,0.000,0.919,-0.395,-4.181,1.953,0.427,66.667,291.000,1.000,1.908,0.000
187516.200,174078.000,605434.100,564335.200,153094.800,148388.900,135343.100,144228.800,0.000,0.917,-0.393,-4.211,2.289,0.336,66.667,292.000,1.000,6.090,0.000
187466.600,174064.000,605306.400,564168.800,153022.200,148362.600,135310.200,144157.400,-0.002,0.917,-0.394,-4.181,2.411,0.305,66.667,293.000,1.000,2.581,0.000
187477.800,174071.800,605230.000,564107.400,153023.900,148367.600,135312.000,144161.300,-0.002,0.914,-0.396,-4.059,2.594,0.153,66.667,294.000,1.000,2.468,0.000
187529.300,174087.000,605194.300,564142.400,153091.900,148392.900,135346.000,144234.200,-0.004,0.917,-0.394,-3.967,2.655,0.122,66.667,295.000,1.000,8.869,0.000
187569.700,174097.000,605152.700,564157.400,153155.700,148414.800,135377.900,144297.700,-0.005,0.917,-0.394,-3.754,2.777,-0.061,66.667,296.000,1.000,3.059,0.000
187528.800,174083.100,605037.300,564021.400,153112.900,148392.900,135353.900,144246.000,-0.008,0.917,-0.395,-3.632,2.747,-0.183,66.667,297.000,1.000,0.010,0.000
187481.200,174070.800,604908.700,563855.600,153039.600,148367.800,135321.300,144174.500,-0.010,0.917,-0.392,-3.540,2.747,-0.427,66.667,298.000,1.000,10.582,0.000
187473.600,174063.600,604817.100,563780.400,153022.200,148359.000,135307.500,144165.000,-0.010,0.915,-0.390,-3.479,2.808,-0.549,66.667,299.000,1.000,3.044,0.000
187524.700,174080.200,604783.900,563820.600,153094.200,148387.300,135342.400,144241.200,-0.011,0.914,-0.390,-3.387,2.808,-0.824,66.667,300.000,1.000,0.010,0.000
187557.300,174081.700,604732.000,563827.100,153146.500,148404.800,135367.400,144295.400,-0.014,0.912,-0.388,-3.326,2.686,-0.916,66.667,301.000,1.000,1.930,0.000
187524.300,174074.300,604624.300,563695.900,153108.700,148397.300,135355.400,144253.800,-0.013,0.911,-0.392,-3.174,2.655,-1.038,66.667,302.000,1.000,11.342,0.000
187471.200,174060.900,604500.000,563527.500,153036.400,148374.300,135320.900,144183.600,-0.014,0.912,-0.388,-2.991,2.441,-1.129,66.667,303.000,1.000,3.034,0.000
187459.200,174051.300,604411.800,563454.500,153016.700,148363.800,135305.800,144173.800,-0.016,0.911,-0.390,-2.808,2.441,-1.221,66.667,304.000,1.000,0.005,0.000
187506.600,174065.100,604379.900,563494.100,153080.800,148391.300,135337.900,144247.700,-0.014,0.911,-0.392,-2.533,2.289,-1.343,66.667,305.000,1.000,1.954,0.000
187536.800,174065.500,604328.400,563500.100,153129.900,148403.300,135358.200,144295.100,-0.014,0.912,-0.393,-2.319,2.136,-1.312,66.667,306.000,1.000,8.679,0.000
187513.400,174066.600,604231.900,563381.200,153097.900,148398.900,135352.600,144258.600,-0.013,0.915,-0.394,-2.350,2.014,-1.221,66.667,307.000,1.000,3.049,0.000
187469.900,174063.000,604115.400,563223.200,153031.300,148381.700,135326.200,144194.300,-0.013,0.915,-0.393,-2.136,2.106,-1.160,66.667,308.000,1.000,0.005,0.000
187457.000,174048.500,604025.200,563146.700,153008.100,148366.100,135307.300,144177.500,-0.015,0.917,-0.392,-2.106,2.014,-0.977,66.667,309.000,1.000,1.917,0.000
187511.000,174064.300,603996.600,563187.000,153076.500,148394.300,135343.300,144250.800,-0.017,0.919,-0.391,-2.045,1.923,-0.824,66.667,310.000,1.000,13.770,0.000
187536.600,174060.900,603938.900,563185.900,153119.400,148397.200,135354.700,144283.700,-0.018,0.918,-0.392,-1.923,1.801,-0.793,66.667,311.000,1.000,2.580,0.000
187499.900,174052.600,603830.400,563055.300,153077.300,148378.000,135338.000,144234.100,-0.018,0.918,-0.393,-1.770,1.617,-0.671,66.667,312.000,1.000,2.427,0.000
187444.200,174037.900,603705.600,562891.400,153003.000,148352.600,135303.400,144162.100,-0.018,0.918,-0.395,-1.740,1.587,-0.458,66.667,313.000,1.000,7.525,0.000
187444.500,174040.400,603633.600,562833.900,152996.600,148353.400,135301.400,144163.900,-0.019,0.917,-0.396,-1.709,1.465,-0.366,66.667,314.000,1.000,3.009,0.000
187496.300,174060.000,603607.400,562877.100,153067.300,148381.900,135332.900,144232.100,-0.015,0.919,-0.395,-1.678,1.343,-0.244,66.667,315.000,1.000,0.007,0.000
187531.800,174069.500,603566.500,562889.800,153125.500,148398.100,135355.000,144276.400,-0.016,0.922,-0.393,-1.617,1.282,-0.122,66.667,316.000,1.000,1.946,0.000
187485.700,174052.100,603455.100,562749.300,153076.300,148372.200,135327.700,144216.600,-0.014,0.923,-0.392,-1.709,1.038,-0.031,66.667,317.000,1.000,3.738,0.000
187432.700,174040.800,603335.100,562588.900,153009.100,148348.600,135297.000,144145.000,-0.013,0.924,-0.393,-1.678,1.068,0.000,66.667,318.000,1.000,11.323,0.000
187435.500,174046.200,603264.300,562533.900,153008.300,148354.800,135297.700,144147.800,-0.013,0.923,-0.396,-1.709,0.977,0.061,66.667,319.000,1.000,3.088,0.000
187503.900,174081.700,603257.700,562597.100,153096.400,148403.100,135349.300,144241.000,-0.014,0.924,-0.396,-1.740,0.916,0.122,66.667,320.000,1.000,0.024,0.000
187534.300,174082.900,603211.200,562605.800,153147.500,148418.200,135371.900,144285.500,-0.014,0.924,-0.398,-1.678,0.885,0.183,66.667,321.000,1.000,1.859,0.000
187484.800,174059.800,603093.100,562464.700,153091.500,148392.300,135343.400,144225.600,-0.013,0.924,-0.396,-1.709,0.916,0.000,66.667,322.000,1.000,6.172,0.000
187433.700,174047.600,602972.600,562307.000,153021.500,148371.900,135313.300,144165.500,-0.011,0.925,-0.395,-1.923,0.793,0.031,66.667,323.000,1.000,4.309,0.000
187438.100,174054.700,602903.300,562256.900,153021.200,148381.300,135318.700,144175.400,-0.009,0.926,-0.396,-1.984,0.885,-0.061,66.667,324.000,1.000,0.007,0.000
187485.900,174068.600,602874.300,562299.900,153086.900,148410.800,135354.400,144244.800,-0.010,0.927,-0.399,-2.075,0.793,-0.153,66.667,325.000,1.000,30.773,0.000
187523.700,174079.500,602837.100,562318.300,153147.500,148437.200,135391.100,144309.400,-0.010,0.928,-0.398,-2.136,0.916,-0.153,66.667,326.000,1.000,2.969,0.000
187487.800,174067.900,602733.700,562187.500,153103.600,148420.200,135370.800,144263.500,-0.009,0.928,-0.395,-2.228,0.946,-0.183,66.667,327.000,1.000,0.015,0.000
187426.500,174042.400,602602.400,562013.800,153018.600,148382.800,135324.900,144182.900,-0.008,0.928,-0.395,-2.350,1.068,-0.153,66.667,328.000,1.000,1.908,0.000
187430.900,174041.300,602527.300,561959.000,153009.000,148380.400,135320.900,144188.800,-0.009,0.925,-0.396,-2.411,1.160,-0.183,66.667,329.000,1.000,2.452,0.000
187479.600,174050.000,602497.900,562001.200,153071.800,148399.100,135350.000,144257.200,-0.009,0.918,-0.398,-2.472,1.160,-0.092,66.667,330.000,1.000,2.546,0.000
187510.100,174048.400,602454.400,562008.600,153120.600,148407.500,135369.100,144299.700,-0.009,0.917,-0.398,-2.502,1.129,-0.183,66.667,331.000,1.000,2.504,0.000
187461.900,174023.000,602340.600,561868.300,153063.900,148374.800,135335.000,144237.100,-0.008,0.913,-0.402,-2.502,1.251,-0.305,66.667,332.000,1.000,2.492,0.000
187419.500,174016.000,602228.900,561717.300,152995.800,148353.100,135304.400,144166.000,-0.007,0.915,-0.400,-2.258,1.343,-0.336,66.667,333.000,1.000,2.434,0.000
187436.300,174031.300,602173.300,561675.400,153003.100,148364.000,135312.200,144181.200,-0.006,0.918,-0.398,-2.289,1.373,-0.366,66.667,334.000,1.000,2.565,0.000
187488.800,174048.700,602152.100,561721.400,153072.400,148390.300,135346.300,144254.400,-0.007,0.916,-0.396,-2.228,1.465,-0.397,66.667,335.000,1.000,2.483,0.000
187522.500,174054.700,602111.900,561733.900,153125.100,148404.300,135371.100,144300.400,-0.007,0.914,-0.396,-2.167,1.587,-0.366,66.667,336.000,1.000,3.007,0.000
187486.700,174044.300,602010.100,561607.200,153078.700,148382.500,135346.800,144246.900,-0.007,0.910,-0.396,-2.106,1.709,-0.427,66.667,337.000,1.000,0.008,0.000
187437.500,174030.300,601894.900,561450.000,153000.700,148345.500,135297.300,144168.300,-0.007,0.909,-0.394,-2.014,1.801,-0.336,66.667,338.000,1.000,1.917,0.000
187437.600,174026.000,601822.900,561393.300,152987.400,148337.200,135283.000,144158.600,-0.008,0.911,-0.399,-1.831,1.862,-0.366,66.667,339.000,1.000,14.482,0.000
187502.100,174049.600,601811.200,561450.800,153064.700,148371.600,135322.700,144234.200,-0.010,0.913,-0.398,-1.801,1.892,-0.488,66.667,340.000,1.000,0.009,0.000
187539.600,174057.400,601773.800,561465.400,153117.000,148392.300,135348.800,144277.300,-0.013,0.915,-0.396,-1.740,1.862,-0.641,66.667,341.000,1.000,1.914,0.000
187512.900,174054.600,601679.900,561343.300,153074.700,148383.900,135334.400,144225.800,-0.015,0.917,-0.395,-1.678,1.831,-0.732,66.667,342.000,1.000,5.004,0.000
187464.200,174044.000,601566.600,561186.300,153002.200,148360.000,135297.600,144152.700,-0.017,0.914,-0.401,-1.709,1.648,-0.854,66.667,343.000,1.000,5.017,0.000
187464.900,174045.400,601498.500,561131.800,152997.600,148359.600,135291.500,144150.300,-0.018,0.915,-0.398,-1.617,1.648,-0.946,66.667,344.000,1.000,2.322,0.000
187515.300,174061.500,601478.500,561179.600,153065.900,148389.600,135325.400,144221.900,-0.016,0.916,-0.400,-1.648,1.495,-1.068,66.667,345.000,1.000,2.645,0.000
187540.500,174055.700,601431.000,561183.100,153109.300,148398.400,135345.000,144262.200,-0.015,0.922,-0.399,-1.678,1.465,-1.068,66.667,346.000,1.000,2.428,0.000
187518.600,174055.200,601343.900,561067.400,153076.700,148392.800,135338.000,144227.300,-0.016,0.923,-0.399,-1.648,1.526,-1.129,66.667,347.000,1.000,4.347,0.000
187479.300,174056.200,601242.600,560922.500,153019.900,148383.000,135319.100,144172.000,-0.015,0.923,-0.401,-1.648,1.312,-1.068,66.667,348.000,1.000,0.010,0.000
187476.900,174050.000,601168.900,560867.300,153010.600,148379.300,135311.900,144170.100,-0.013,0.922,-0.401,-1.801,1.282,-1.068,66.667,349.000,1.000,13.062,0.000
187535.400,174069.900,601155.800,560924.900,153086.300,148409.700,135346.400,144247.100,-0.011,0.923,-0.403,-1.770,1.221,-1.038,66.667,350.000,1.000,3.090,0.000
187573.100,174082.500,601125.900,560945.100,153147.800,148434.000,135381.300,144300.500,-0.011,0.924,-0.402,-1.984,1.190,-0.946,66.667,351.000,1.000,0.007,0.000
187522.700,174062.000,601013.600,560804.100,153092.700,148406.500,135353.000,144243.200,-0.010,0.923,-0.402,-1.984,1.312,-0.916,66.667,352.000,1.000,1.956,0.000
187477.900,174060.500,600910.100,560656.500,153030.200,148392.600,135328.600,144187.000,-0.009,0.923,-0.401,-2.136,1.373,-0.793,66.667,353.000,1.000,2.447,0.000
187478.300,174060.200,600843.400,560608.100,153022.700,148386.400,135316.400,144186.000,-0.007,0.922,-0.398,-2.136,1.465,-0.641,66.667,354.000,1.000,8.754,0.000
187526.100,174071.000,600820.400,560654.600,153087.800,148409.000,135346.300,144252.700,-0.007,0.921,-0.399,-2.106,1.495,-0.458,66.667,355.000,1.000,20.599,0.000
187576.400,174096.100,600804.200,560686.000,153161.800,148445.200,135389.300,144319.000,-0.007,0.921,-0.401,-2.136,1.526,-0.458,66.667,356.000,1.000,0.022,0.000
187542.700,174093.400,600710.900,560563.400,153124.000,148434.900,135373.600,144267.600,-0.008,0.921,-0.404,-2.258,1.648,-0.366,66.667,357.000,1.000,0.008,0.000
187472.000,174060.500,600578.400,560387.300,153027.600,148385.600,135312.900,144170.600,-0.009,0.920,-0.403,-2.289,1.740,-0.275,66.667,358.000,1.000,0.008,0.000
187475.500,174060.100,600512.800,560336.700,153019.300,148381.900,135304.800,144170.700,-0.010,0.921,-0.402,-2.380,1.831,-0.153,66.667,359.000,1.000,4.321,0.000
187551.900,174098.400,600517.300,560408.300,153111.400,148434.200,135364.800,144263.000,-0.010,0.921,-0.397,-2.411,1.831,-0.122,66.667,360.000,1.000,0.007,0.000
187579.300,174097.600,600477.300,560417.800,153155.500,148443.400,135383.500,144302.600,-0.010,0.920,-0.400,-2.319,1.923,-0.275,66.667,361.000,1.000,0.003,0.000
187529.500,174072.300,600365.600,560280.600,153093.700,148411.800,135349.500,144240.400,-0.012,0.917,-0.396,-2.380,1.892,-0.275,66.667,362.000,1.000,3.909,0.000
187473.800,174056.300,600252.400,560127.300,153017.600,148385.100,135311.500,144167.900,-0.012,0.918,-0.397,-2.441,1.831,-0.244,66.667,363.000,1.000,3.643,0.000
187470.900,174052.100,600184.100,560079.600,153008.300,148381.700,135308.100,144169.200,-0.012,0.918,-0.399,-2.472,1.770,-0.336,66.667,364.000,1.000,19.429,0.000
187507.400,174049.300,600151.900,560120.500,153062.500,148392.400,135325.600,144227.000,-0.013,0.917,-0.399,-2.472,1.648,-0.305,66.667,365.000,1.000,0.020,0.000
187526.500,174041.800,600105.300,560125.600,153103.600,148396.900,135337.000,144263.100,-0.012,0.917,-0.399,-2.441,1.648,-0.336,66.667,366.000,1.000,2.988,0.000
187493.800,174036.700,600015.400,560007.600,153062.600,148380.600,135319.200,144213.500,-0.011,0.915,-0.398,-2.411,1.648,-0.427,66.667,367.000,1.000,0.026,0.000
187447.700,174030.900,599912.100,559863.300,152996.100,148362.300,135292.500,144145.300,-0.011,0.912,-0.401,-2.350,1.526,-0.488,66.667,368.000,1.000,0.023,0.000
187446.700,174025.400,599845.300,559814.900,152987.100,148358.000,135286.400,144146.300,-0.013,0.911,-0.400,-2.136,1.495,-0.549,66.667,369.000,1.000,2.467,0.000
187506.000,174046.600,599836.900,559873.600,153066.300,148390.900,135329.300,144231.300,-0.013,0.912,-0.397,-2.136,1.465,-0.580,66.667,370.000,1.000,2.463,0.000
187561.400,174078.800,599830.900,559910.900,153146.200,148433.100,135378.400,144302.000,-0.012,0.912,-0.396,-2.045,1.434,-0.610,66.667,371.000,1.000,8.862,0.000
187524.800,174073.900,599740.800,559787.200,153107.100,148418.600,135356.600,144246.200,-0.011,0.911,-0.396,-2.014,1.465,-0.671,66.667,372.000,1.000,9.199,0.000
187463.500,174052.500,599626.000,559628.300,153029.700,148387.600,135312.400,144166.700,-0.014,0.914,-0.400,-1.923,1.465,-0.671,66.667,373.000,1.000,0.012,0.000
187460.000,174050.600,599560.900,559579.800,153023.900,148384.000,135304.700,144163.700,-0.014,0.916,-0.401,-1.984,1.434,-0.549,66.667,374.000,1.000,6.904,0.000
187504.500,174058.000,599536.900,559625.900,153084.700,148401.500,135330.300,144229.400,-0.015,0.918,-0.400,-2.045,1.373,-0.671,66.667,375.000,1.000,0.026,0.000
187541.600,174073.500,599511.600,559649.400,153143.800,148430.500,135365.200,144287.000,-0.012,0.920,-0.398,-1.953,1.373,-0.702,66.667,376.000,1.000,0.009,0.000
187499.100,174059.800,599415.200,559528.900,153097.500,148413.700,135345.000,144242.300,-0.012,0.921,-0.398,-1.953,1.160,-0.763,66.667,377.000,1.000,2.417,0.000
187442.000,174040.300,599303.500,559376.400,153020.100,148383.200,135305.800,144172.400,-0.013,0.922,-0.399,-2.014,1.160,-0.671,66.667,378.000,1.000,6.389,0.000
187447.500,174046.300,599249.100,559335.800,153019.100,148389.200,135310.600,144179.300,-0.015,0.925,-0.398,-2.136,1.129,-0.580,66.667,379.000,1.000,9.260,0.000
187494.600,174058.000,599231.000,559385.100,153085.900,148415.500,135343.200,144245.100,-0.014,0.925,-0.400,-2.289,1.068,-0.488,66.667,380.000,1.000,0.018,0.000
187516.800,174056.100,599189.400,559390.900,153129.300,148423.700,135358.400,144282.000,-0.016,0.924,-0.399,-2.411,1.038,-0.366,66.667,381.000,1.000,2.500,0.000
187467.200,174037.100,599084.600,559255.000,153071.300,148391.300,135324.600,144219.600,-0.015,0.923,-0.399,-2.563,1.038,-0.275,66.667,382.000,1.000,0.009,0.000
187408.900,174015.000,598971.600,559096.200,152990.300,148354.000,135277.800,144136.800,-0.011,0.923,-0.400,-2.594,1.038,-0.275,66.667,383.000,1.000,13.161,0.000
187438.700,174043.000,598939.900,559077.900,153012.500,148378.400,135298.800,144163.400,-0.012,0.921,-0.401,-2.655,1.007,-0.244,66.667,384.000,1.000,2.995,0.000
187513.100,174080.800,598949.200,559152.800,153103.700,148426.600,135354.000,144253.600,-0.011,0.920,-0.403,-2.686,0.977,-0.305,66.667,385.000,1.000,0.008,0.000
187548.700,174090.800,598924.300,559173.400,153160.900,148446.100,135385.100,144305.200,-0.011,0.918,-0.399,-2.655,0.885,-0.366,66.667,386.000,1.000,2.017,0.000
187505.600,174078.200,598830.700,559048.800,153112.700,148425.500,135361.100,144253.300,-0.010,0.916,-0.399,-2.655,0.885,-0.458,66.667,387.000,1.000,3.679,0.000
187451.100,174059.700,598722.900,558897.700,153039.100,148396.600,135320.800,144176.300,-0.009,0.914,-0.400,-2.838,0.977,-0.366,66.667,388.000,1.000,13.707,0.000
187452.700,174057.000,598660.900,558851.800,153033.400,148393.300,135312.500,144173.600,-0.008,0.914,-0.399,-2.808,1.007,-0.427,66.667,389.000,1.000,3.043,0.000
187494.500,174058.500,598634.900,558894.300,153091.800,148409.100,135335.000,144232.700,-0.007,0.912,-0.401,-2.594,1.038,-0.397,66.667,390.000,1.000,0.015,0.000
187529.400,174063.800,598604.100,558912.600,153141.900,148424.900,135356.500,144274.000,-0.008,0.913,-0.400,-2.533,1.099,-0.458,66.667,391.000,1.000,1.888,0.000
187505.100,174067.900,598523.600,558805.400,153107.500,148420.000,135351.100,144232.800,-0.009,0.914,-0.397,-2.625,1.160,-0.397,66.667,392.000,1.000,2.511,0.000
187459.600,174056.700,598423.100,558664.200,153038.200,148392.900,135315.200,144167.300,-0.009,0.913,-0.398,-2.594,1.160,-0.427,66.667,393.000,1.000,8.139,0.000
187440.200,174035.400,598344.100,558599.900,153009.400,148366.500,135288.600,144141.100,-0.007,0.915,-0.399,-2.380,1.160,-0.580,66.667,394.000,1.000,0.009,0.000
187494.800,174054.400,598332.000,558655.300,153078.800,148398.700,135327.700,144214.100,-0.007,0.917,-0.398,-2.228,1.190,-0.702,66.667,395.000,1.000,1.896,0.000
187533.900,174067.600,598308.700,558680.600,153138.700,148424.400,135358.400,144268.100,-0.006,0.917,-0.400,-2.258,1.495,-0.763,66.667,396.000,1.000,8.793,0.000
187488.900,174047.000,598209.900,558551.000,153088.000,148399.700,135332.800,144212.700,-0.006,0.919,-0.397,-2.258,1.556,-0.793,66.667,397.000,1.000,2.490,0.000
187436.200,174031.000,598103.800,558401.700,153016.100,148373.800,135301.600,144143.500,-0.009,0.919,-0.399,-2.228,1.587,-0.549,66.667,398.000,1.000,4.257,0.000
187465.300,174059.200,598074.300,558385.800,153039.300,148401.500,135328.900,144173.900,-0.009,0.922,-0.395,-2.258,1.648,-0.641,66.667,399.000,1.000,0.010,0.000
187517.300,174071.600,598062.100,558442.400,153110.300,148431.500,135365.800,144251.000,-0.009,0.923,-0.398,-2.350,1.648,-0.641,66.667,400.000,1.000,13.136,0.000
187540.900,174074.300,598027.700,558453.300,153155.400,148438.800,135381.800,144289.800,-0.011,0.923,-0.395,-2.380,1.678,-0.702,66.667,401.000,1.000,2.580,0.000
187497.300,174065.400,597934.600,558329.500,153107.000,148421.000,135358.900,144235.500,-0.012,0.922,-0.394,-2.258,1.617,-0.763,66.667,402.000,1.000,3.093,0.000
187453.600,174057.500,597840.500,558190.500,153043.800,148406.300,135332.600,144174.800,-0.010,0.921,-0.396,-2.380,1.678,-0.763,66.667,403.000,1.000,0.010,0.000
187457.500,174056.900,597784.800,558150.600,153041.000,148408.200,135326.000,144177.300,-0.010,0.923,-0.398,-2.533,1.587,-0.641,66.667,404.000,1.000,1.827,0.000
187496.300,174056.700,597759.400,558193.200,153096.600,148422.200,135342.800,144235.300,-0.010,0.921,-0.400,-2.502,1.648,-0.641,66.667,405.000,1.000,8.911,0.000
187517.700,174057.300,597722.400,558201.300,153139.700,148436.500,135363.800,144275.000,-0.010,0.919,-0.400,-2.472,1.526,-0.519,66.667,406.000,1.000,2.956,0.000
187491.900,174062.000,597644.400,558090.900,153105.700,148431.100,135351.900,144237.100,-0.010,0.918,-0.397,-2.502,1.556,-0.549,66.667,407.000,1.000,0.008,0.000
187444.300,174049.500,597543.800,557946.400,153033.200,148399.700,135313.700,144164.800,-0.011,0.916,-0.399,-2.533,1.587,-0.458,66.667,408.000,1.000,10.710,0.000
187437.200,174034.900,597477.300,557898.100,153015.400,148381.100,135291.800,144154.300,-0.011,0.915,-0.403,-2.441,1.648,-0.549,66.667,409.000,1.000,3.070,0.000
187486.900,174044.800,597465.600,557955.600,153078.800,148400.900,135317.400,144225.400,-0.011,0.913,-0.400,-2.350,1.709,-0.427,66.667,410.000,1.000,0.006,0.000
187524.200,174058.000,597448.700,557981.200,153135.000,148425.300,135350.600,144279.500,-0.010,0.914,-0.403,-2.197,1.709,-0.397,66.667,411.000,1.000,1.900,0.000
187477.200,174039.100,597352.400,557850.500,153081.700,148398.400,135325.200,144218.000,-0.011,0.914,-0.398,-2.106,1.770,-0.366,66.667,412.000,1.000,8.797,0.000
187434.100,174031.200,597256.900,557710.500,153016.600,148376.300,135294.800,144152.100,-0.011,0.913,-0.402,-2.075,1.770,-0.427,66.667,413.000,1.000,2.572,0.000
187448.400,174046.600,597215.700,557684.200,153027.000,148388.000,135302.500,144167.800,-0.010,0.911,-0.399,-2.075,1.678,-0.427,66.667,414.000,1.000,3.629,0.000
187493.100,174056.200,597202.100,557740.000,153095.800,148410.100,135334.400,144236.200,-0.011,0.915,-0.398,-2.014,1.709,-0.336,66.667,415.000,1.000,9.404,0.000
187519.800,174059.200,597173.000,557757.900,153144.400,148420.900,135357.600,144281.400,-0.011,0.915,-0.398,-1.831,1.678,-0.458,66.667,416.000,1.000,0.012,0.000
187482.200,174052.400,597086.600,557641.100,153099.700,148405.200,135341.200,144232.700,-0.011,0.915,-0.397,-1.831,1.648,-0.519,66.667,417.000,1.000,1.930,0.000
187452.700,174059.200,597006.100,557516.800,153047.100,148399.600,135326.900,144185.400,-0.014,0.917,-0.398,-1.770,1.587,-0.488,66.667,418.000,1.000,15.408,0.000
187444.700,174047.800,596941.400,557469.400,153034.400,148393.000,135315.700,144178.400,-0.013,0.918,-0.396,-1.862,1.556,-0.458,66.667,419.000,1.000,0.008,0.000
187489.000,174058.400,596928.400,557521.200,153099.400,148420.300,135347.100,144246.200,-0.015,0.921,-0.399,-1.801,1.556,-0.427,66.667,420.000,1.000,2.586,0.000
187507.200,174052.300,596888.700,557526.200,153135.200,148424.400,135356.500,144277.800,-0.015,0.922,-0.398,-1.862,1.556,-0.397,66.667,421.000,1.000,0.005,0.000
187453.300,174028.300,596786.600,557393.000,153074.500,148393.600,135322.700,144214.700,-0.016,0.923,-0.398,-1.923,1.434,-0.458,66.667,422.000,1.000,1.990,0.000
187405.200,174020.300,596690.700,557252.700,153005.500,148374.800,135290.100,144149.600,-0.015,0.924,-0.399,-2.014,1.251,-0.488,66.667,423.000,1.000,8.678,0.000
187404.800,174018.700,596636.400,557215.900,153003.600,148376.100,135286.600,144149.900,-0.013,0.922,-0.396,-2.075,1.221,-0.397,66.667,424.000,1.000,16.194,0.000
187459.100,174036.100,596630.800,557280.100,153075.000,148405.000,135321.900,144222.500,-0.012,0.921,-0.396,-2.197,1.099,-0.397,66.667,425.000,1.000,0.015,0.000
187492.600,174048.200,596608.700,557301.700,153125.600,148421.200,135348.400,144268.700,-0.012,0.918,-0.396,-2.136,1.038,-0.397,66.667,426.000,1.000,0.007,0.000
187452.300,174038.600,596523.200,557180.200,153078.400,148402.700,135329.400,144218.200,-0.013,0.919,-0.399,-2.197,1.038,-0.458,66.667,427.000,1.000,2.459,0.000
187425.800,174045.100,596447.700,557058.200,153028.900,148398.000,135318.400,144175.600,-0.012,0.917,-0.402,-2.197,0.977,-0.488,66.667,428.000,1.000,2.619,0.000
187432.600,174043.800,596398.400,557026.900,153029.300,148396.100,135315.000,144185.700,-0.013,0.917,-0.399,-2.197,0.977,-0.549,66.667,429.000,1.000,2.405,0.000
187473.900,174047.700,596381.600,557077.800,153090.000,148411.400,135340.800,144248.200,-0.009,0.917,-0.398,-2.197,1.099,-0.549,66.667,430.000,1.000,2.629,0.000
187497.400,174049.700,596349.900,557090.300,153135.200,148424.900,135361.100,144283.600,-0.010,0.918,-0.397,-2.075,0.977,-0.488,66.667,431.000,1.000,2.345,0.000
187447.200,174030.200,596250.800,556958.900,153075.800,148400.300,135329.500,144217.200,-0.010,0.918,-0.399,-2.075,1.160,-0.488,66.667,432.000,1.000,2.641,0.000
187395.800,174015.000,596149.400,556814.300,152998.900,148368.700,135289.400,144142.700,-0.010,0.917,-0.399,-2.167,1.129,-0.610,66.667,433.000,1.000,8.682,0.000
187398.600,174012.500,596094.400,556774.000,152995.000,148362.000,135280.700,144145.700,-0.013,0.916,-0.401,-2.258,1.099,-0.610,66.667,434.000,1.000,4.347,0.000
187457.300,174027.900,596090.500,556838.700,153066.400,148386.800,135310.800,144220.900,-0.011,0.916,-0.399,-2.167,1.190,-0.671,66.667,435.000,1.000,0.019,0.000
187513.300,174053.400,596085.800,556878.800,153131.700,148422.000,135352.300,144283.500,-0.010,0.915,-0.402,-2.106,1.251,-0.641,66.667,436.000,1.000,3.679,0.000
187462.800,174034.200,595987.400,556745.300,153069.000,148395.700,135319.500,144216.400,-0.010,0.915,-0.401,-2.197,1.404,-0.732,66.667,437.000,1.000,0.007,0.000
187405.100,174013.200,595883.900,556598.200,152991.500,148366.700,135279.700,144139.800,-0.011,0.915,-0.400,-2.136,1.343,-0.763,66.667,438.000,1.000,13.251,0.000
187413.900,174016.800,595838.200,556572.800,152995.100,148370.200,135280.500,144148.500,-0.013,0.917,-0.401,-2.045,1.373,-0.763,66.667,439.000,1.000,4.844,0.000
187482.100,174044.900,595845.300,556649.800,153078.700,148409.600,135325.400,144236.200,-0.013,0.917,-0.402,-2.045,1.221,-0.732,66.667,440.000,1.000,0.012,0.000
187522.200,174060.700,595831.000,556681.300,153136.500,148438.400,135361.500,144290.600,-0.013,0.918,-0.403,-2.136,1.160,-0.671,66.667,441.000,1.000,0.011,0.000
187473.100,174042.000,595735.800,556551.600,153078.700,148412.800,135333.700,144228.300,-0.012,0.919,-0.403,-2.167,1.190,-0.793,66.667,442.000,1.000,2.493,0.000
187420.800,174025.200,595634.700,556404.100,153002.200,148379.000,135292.800,144151.900,-0.013,0.920,-0.400,-2.136,1.221,-0.763,66.667,443.000,1.000,6.248,0.000
187436.500,174033.200,595594.700,556380.000,153008.900,148381.200,135294.000,144163.500,-0.014,0.920,-0.400,-2.167,1.251,-0.763,66.667,444.000,1.000,14.274,0.000
187496.500,174049.900,595593.000,556443.100,153082.500,148408.300,135326.300,144234.400,-0.012,0.923,-0.401,-2.197,1.221,-0.763,66.667,445.000,1.000,0.015,0.000
187524.700,174052.900,595567.200,556459.500,153128.500,148421.400,135350.500,144273.200,-0.013,0.922,-0.400,-2.289,1.099,-0.610,66.667,446.000,1.000,6.367,0.000
187490.500,174048.600,595489.700,556343.900,153087.400,148410.500,135337.200,144225.800,-0.014,0.920,-0.398,-2.197,1.068,-0.519,66.667,447.000,1.000,0.009,0.000
187446.000,174040.500,595399.900,556208.400,153022.400,148390.400,135307.500,144160.600,-0.012,0.920,-0.399,-2.319,1.038,-0.641,66.667,448.000,1.000,1.887,0.000
187454.500,174042.500,595355.000,556183.300,153026.100,148391.900,135307.100,144174.800,-0.012,0.919,-0.397,-2.319,1.068,-0.549,66.667,449.000,1.000,14.336,0.000
187501.500,174051.300,595345.200,556238.400,153089.300,148412.800,135332.100,144236.500,-0.014,0.918,-0.399,-2.441,1.038,-0.610,66.667,450.000,1.000,0.012,0.000
187527.800,174055.400,595316.300,556254.400,153132.500,148427.800,135355.300,144277.800,-0.015,0.921,-0.401,-2.502,0.977,-0.580,66.667,451.000,1.000,9.265,0.000
187472.700,174032.000,595216.200,556120.600,153066.400,148394.900,135319.100,144211.900,-0.014,0.920,-0.404,-2.533,0.916,-0.580,66.667,452.000,1.000,0.008,0.000
187428.300,174025.000,595124.800,555987.900,152999.700,148373.400,135288.300,144150.100,-0.012,0.919,-0.401,-2.533,0.916,-0.519,66.667,453.000,1.000,0.003,0.000
187441.100,174035.400,595088.300,555970.400,153010.100,148385.100,135299.500,144166.200,-0.012,0.918,-0.403,-2.441,0.946,-0.549,66.667,454.000,1.000,3.236,0.000
187486.100,174039.100,595075.900,556026.700,153072.400,148401.600,135322.600,144229.300,-0.012,0.915,-0.404,-2.472,0.854,-0.519,66.667,455.000,1.000,0.008,0.000
187527.100,174056.700,595066.300,556057.200,153132.200,148431.500,135357.700,144282.100,-0.011,0.915,-0.401,-2.441,0.946,-0.458,66.667,456.000,1.000,1.958,0.000
187496.500,174058.200,594994.900,555947.200,153092.300,148422.900,135347.100,144239.700,-0.012,0.915,-0.398,-2.350,0.977,-0.397,66.667,457.000,1.000,3.631,0.000
187429.000,174028.300,594883.100,555790.300,153002.700,148377.800,135292.600,144150.900,-0.011,0.915,-0.397,-2.289,1.129,-0.427,66.667,458.000,1.000,13.808,0.000
187434.900,174028.400,594834.900,555761.100,152999.800,148374.800,135287.800,144156.700,-0.010,0.914,-0.400,-2.136,1.068,-0.458,66.667,459.000,1.000,2.961,0.000
187492.100,174046.200,594833.900,555826.900,153071.100,148403.800,135324.500,144231.600,-0.010,0.915,-0.400,-2.167,1.099,-0.519,66.667,460.000,1.000,0.005,0.000
187522.600,174054.700,594811.900,555846.700,153122.100,148421.300,135349.800,144273.500,-0.009,0.916,-0.401,-2.106,1.068,-0.427,66.667,461.000,1.000,1.930,0.000
187479.600,174042.000,594724.300,555723.600,153075.600,148402.400,135329.000,144217.300,-0.009,0.918,-0.398,-2.167,1.190,-0.458,66.667,462.000,1.000,2.647,0.000
187437.500,174036.300,594636.600,555590.300,153014.600,148384.600,135303.100,144155.700,-0.007,0.918,-0.399,-2.197,1.160,-0.458,66.667,463.000,1.000,3.604,0.000
187445.700,174036.100,594591.600,555565.600,153015.800,148384.200,135299.300,144163.100,-0.008,0.915,-0.401,-2.106,1.129,-0.458,66.667,464.000,1.000,8.800,0.000
187496.700,174044.500,594584.900,555624.300,153078.000,148398.100,135323.800,144229.200,-0.009,0.917,-0.400,-2.075,1.251,-0.427,66.667,465.000,1.000,3.088,0.000
187534.000,174052.700,594569.300,555648.300,153129.900,148417.200,135351.100,144276.900,-0.011,0.917,-0.400,-2.045,1.282,-0.519,66.667,466.000,1.000,0.017,0.000
187486.700,174031.900,594476.100,555519.800,153071.200,148389.600,135320.400,144216.600,-0.009,0.917,-0.400,-2.045,1.404,-0.549,66.667,467.000,1.000,1.881,0.000
187437.500,174015.300,594378.400,555380.100,152997.100,148358.600,135281.500,144146.900,-0.010,0.918,-0.401,-1.984,1.373,-0.519,66.667,468.000,1.000,13.803,0.000
187442.000,174011.500,594329.200,555352.300,152991.300,148349.400,135271.500,144149.200,-0.013,0.917,-0.400,-2.075,1.465,-0.610,66.667,469.000,1.000,5.548,0.000
187524.300,174051.600,594353.100,555441.300,153086.800,148402.500,135330.600,144247.800,-0.014,0.917,-0.401,-2.075,1.404,-0.610,66.667,470.000,1.000,0.008,0.000
187562.100,174063.000,594336.600,555466.600,153140.800,148427.000,135361.000,144301.400,-0.013,0.918,-0.397,-2.136,1.373,-0.671,66.667,471.000,1.000,1.868,0.000
187514.500,174050.400,594244.700,555342.500,153083.200,148406.700,135332.800,144234.700,-0.011,0.919,-0.398,-2.197,1.434,-0.671,66.667,472.000,1.000,2.525,0.000
187469.100,174039.700,594152.800,555208.100,153014.800,148387.900,135299.600,144165.500,-0.013,0.919,-0.397,-2.106,1.373,-0.793,66.667,473.000,1.000,2.255,0.000
187481.200,174045.200,594115.300,555187.600,153024.300,148395.200,135305.200,144183.300,-0.011,0.917,-0.402,-2.136,1.312,-0.793,66.667,474.000,1.000,6.611,0.000
187536.000,174059.700,594114.100,555251.600,153094.700,148417.500,135334.600,144248.400,-0.012,0.918,-0.399,-2.075,1.343,-0.763,66.667,475.000,1.000,2.370,0.000
187573.700,174071.200,594097.100,555272.900,153145.800,148439.700,135364.300,144289.400,-0.014,0.917,-0.398,-2.167,1.251,-0.702,66.667,476.000,1.000,3.685,0.000
187529.000,174058.700,594012.700,555148.900,153092.600,148418.200,135340.400,144231.300,-0.013,0.917,-0.399,-2.045,1.282,-0.641,66.667,477.000,1.000,16.971,0.000
187480.500,174045.800,593922.600,555012.200,153020.500,148390.900,135304.600,144162.300,-0.013,0.917,-0.401,-2.136,1.221,-0.641,66.667,478.000,1.000,0.017,0.000
187495.400,174051.000,593886.400,554995.000,153024.900,148393.100,135303.700,144173.000,-0.014,0.915,-0.399,-2.136,1.221,-0.641,66.667,479.000,1.000,1.919,0.000
187547.000,174061.600,593881.800,555061.000,153090.300,148414.300,135330.300,144240.100,-0.011,0.914,-0.400,-2.136,1.221,-0.641,66.667,480.000,1.000,3.006,0.000
187588.100,174081.600,593873.800,555089.900,153151.400,148446.100,135371.500,144292.500,-0.012,0.916,-0.401,-2.014,1.282,-0.671,66.667,481.000,1.000,0.014,0.000
187548.200,174073.400,593794.100,554971.300,153105.400,148428.800,135350.400,144240.900,-0.013,0.917,-0.405,-2.045,1.160,-0.519,66.667,482.000,1.000,1.918,0.000
187496.100,174059.600,593702.700,554838.800,153039.200,148406.000,135316.500,144174.300,-0.014,0.915,-0.403,-2.106,1.129,-0.458,66.667,483.000,1.000,8.702,0.000
187498.800,174059.400,593656.300,554813.600,153039.000,148410.800,135321.000,144181.500,-0.013,0.916,-0.402,-2.106,1.099,-0.580,66.667,484.000,1.000,3.130,0.000
187545.400,174067.700,593650.000,554875.900,153104.500,148434.000,135354.700,144251.500,-0.012,0.917,-0.400,-2.045,1.129,-0.519,66.667,485.000,1.000,0.013,0.000
187572.600,174074.000,593629.600,554896.800,153153.800,148447.000,135375.900,144296.300,-0.012,0.918,-0.401,-2.106,1.129,-0.580,66.667,486.000,1.000,24.416,0.000
187535.300,174070.200,593552.500,554780.900,153109.500,148436.800,135359.800,144240.900,-0.012,0.918,-0.402,-2.167,1.038,-0.580,66.667,487.000,1.000,2.428,0.000
187489.500,174056.900,593460.100,554645.900,153037.900,148408.800,135322.500,144171.200,-0.014,0.918,-0.402,-2.197,1.038,-0.671,66.667,488.000,1.000,2.520,0.000
187490.600,174048.000,593407.600,554618.400,153030.600,148394.300,135310.200,144177.600,-0.014,0.917,-0.402,-2.106,1.007,-0.671,66.667,489.000,1.000,2.443,0.000
187536.700,174055.400,593401.500,554680.400,153095.000,148415.200,135338.300,144246.500,-0.013,0.917,-0.400,-2.106,1.160,-0.641,66.667,490.000,1.000,3.104,0.000
187557.200,174056.100,593375.000,554693.700,153135.900,148426.700,135358.400,144283.100,-0.011,0.919,-0.401,-2.045,1.007,-0.763,66.667,491.000,1.000,0.013,0.000
187508.600,174046.300,593292.600,554571.400,153082.600,148404.600,135337.200,144230.100,-0.013,0.918,-0.399,-2.045,1.038,-0.793,66.667,492.000,1.000,3.057,0.000
187457.200,174033.000,593204.100,554434.300,153015.500,148381.200,135303.400,144164.100,-0.011,0.915,-0.400,-2.045,0.916,-0.763,66.667,493.000,1.000,0.013,0.000
187466.600,174037.000,593166.400,554415.300,153022.700,148379.500,135301.700,144173.900,-0.012,0.913,-0.402,-2.106,1.129,-0.732,66.667,494.000,1.000,0.004,0.000
187509.200,174041.600,593161.500,554477.000,153087.200,148401.500,135330.300,144245.500,-0.013,0.912,-0.403,-2.136,1.129,-0.641,66.667,495.000,1.000,2.628,0.000
187546.600,174059.100,593156.900,554509.600,153145.800,148433.400,135369.700,144302.300,-0.013,0.914,-0.404,-2.075,1.190,-0.580,66.667,496.000,1.000,2.549,0.000
187516.300,174063.000,593090.000,554404.300,153108.500,148430.800,135363.700,144261.100,-0.015,0.915,-0.401,-2.106,1.129,-0.519,66.667,497.000,1.000,11.188,0.000
187457.000,174042.000,592990.200,554260.200,153028.600,148397.500,135319.700,144184.000,-0.016,0.917,-0.401,-1.953,1.129,-0.549,66.667,498.000,1.000,8.078,0.000
187452.800,174030.800,592936.900,554227.000,153021.300,148384.400,135304.100,144179.000,-0.015,0.917,-0.400,-2.045,1.221,-0.580,66.667,499.000,1.000,0.015,0.000
187513.500,174052.300,592945.400,554302.400,153101.300,148422.700,135347.100,144257.100,-0.014,0.919,-0.401,-2.075,1.282,-0.549,66.667,500.000,1.000,2.438,0.000
187568.300,174086.900,592956.500,554350.400,153174.600,148469.100,135397.800,144326.300,-0.012,0.919,-0.399,-2.228,1.190,-0.610,66.667,501.000,1.000,0.012,0.000
187512.900,174063.400,592864.100,554218.300,153110.300,148435.300,135360.300,144255.800,-0.011,0.918,-0.400,-2.228,1.099,-0.488,66.667,502.000,1.000,18.854,0.000
187444.800,174030.500,592755.600,554061.100,153017.900,148384.700,135299.700,144158.600,-0.011,0.917,-0.401,-2.258,1.190,-0.397,66.667,503.000,1.000,0.030,0.000
187456.800,174035.300,592718.600,554040.900,153023.100,148389.000,135300.400,144170.500,-0.013,0.913,-0.401,-2.350,1.251,-0.427,66.667,504.000,1.000,2.380,0.000
187505.500,174045.500,592715.600,554105.100,153085.400,148411.700,135325.000,144235.800,-0.015,0.909,-0.402,-2.228,1.343,-0.336,66.667,505.000,1.000,0.007,0.000
187536.900,174055.900,592700.000,554128.200,153134.100,148430.600,135348.800,144277.500,-0.015,0.909,-0.405,-2.136,1.221,-0.305,66.667,506.000,1.000,2.536,0.000
187494.100,174047.800,592619.700,554009.300,153086.200,148414.200,135331.200,144224.800,-0.015,0.911,-0.404,-2.197,1.221,-0.336,66.667,507.000,1.000,0.015,0.000
187441.400,174032.900,592528.100,553873.100,153014.400,148383.500,135291.200,144152.700,-0.014,0.912,-0.405,-2.136,1.282,-0.336,66.667,508.000,1.000,1.846,0.000
187459.700,174042.000,592500.300,553865.200,153030.300,148389.800,135295.200,144169.600,-0.014,0.912,-0.404,-2.075,1.282,-0.305,66.667,509.000,1.000,13.844,0.000
187528.500,174068.900,592519.600,553948.800,153116.300,148430.300,135342.100,144257.500,-0.015,0.909,-0.402,-2.075,1.190,-0.305,66.667,510.000,1.000,3.521,0.000
187552.000,174074.400,592500.600,553964.100,153156.700,148444.800,135363.300,144293.400,-0.015,0.909,-0.405,-1.953,1.251,-0.305,66.667,511.000,1.000,0.010,0.000
187492.500,174049.300,592404.800,553825.600,153089.200,148413.200,135326.600,144220.900,-0.014,0.909,-0.404,-1.862,1.160,-0.061,66.667,512.000,1.000,0.004,0.000
187457.000,174045.700,592325.400,553699.800,153031.800,148397.300,135301.200,144163.000,-0.015,0.917,-0.402,-1.801,1.099,-0.061,66.667,513.000,1.000,2.555,0.000
187452.300,174033.200,592273.500,553672.800,153025.000,148384.000,135288.200,144164.600,-0.015,0.924,-0.404,-1.831,1.038,-0.122,66.667,514.000,1.000,8.763,0.000
187494.300,174036.900,592267.400,553736.300,153092.600,148407.200,135322.300,144234.700,-0.016,0.927,-0.405,-1.862,1.068,-0.031,66.667,515.000,1.000,2.577,0.000
187531.100,174053.800,592258.600,553765.500,153154.100,148437.600,135361.100,144287.000,-0.017,0.928,-0.401,-2.167,0.946,-0.153,66.667,516.000,1.000,2.455,0.000
187492.200,174050.700,592183.100,553652.800,153109.700,148426.100,135345.300,144236.900,-0.018,0.927,-0.402,-2.289,0.916,-0.214,66.667,517.000,1.000,8.788,0.000
187443.800,174037.300,592094.300,553520.700,153043.300,148401.500,135312.100,144166.000,-0.016,0.929,-0.406,-2.533,0.854,-0.214,66.667,518.000,1.000,3.058,0.000
187448.500,174034.000,592051.300,553501.000,153045.600,148393.400,135306.400,144174.000,-0.014,0.928,-0.408,-2.716,0.793,-0.153,66.667,519.000,1.000,0.012,0.000
187488.500,174035.900,592042.200,553559.200,153102.800,148399.900,135326.900,144235.300,-0.012,0.924,-0.406,-2.777,0.702,-0.122,66.667,520.000,1.000,8.167,0.000
187525.400,174055.200,592036.900,553588.000,153155.800,148424.200,135366.100,144285.000,-0.010,0.925,-0.404,-2.930,0.824,-0.092,66.667,521.000,1.000,3.069,0.000
187492.900,174051.300,591965.100,553477.300,153111.000,148412.700,135352.200,144233.100,-0.007,0.924,-0.405,-2.991,0.885,-0.122,66.667,522.000,1.000,0.007,0.000
187433.800,174026.100,591862.700,553332.900,153029.800,148374.500,135308.000,144150.700,-0.006,0.922,-0.406,-3.143,1.068,0.000,66.667,523.000,1.000,1.863,0.000
187430.000,174015.700,591809.500,553301.900,153020.400,148364.100,135299.000,144148.300,-0.007,0.917,-0.404,-3.265,1.129,-0.031,66.667,524.000,1.000,18.883,0.000
187479.600,174023.300,591806.600,553365.200,153085.300,148381.000,135327.800,144215.200,-0.006,0.919,-0.404,-3.265,1.251,-0.031,66.667,525.000,1.000,2.989,0.000
187506.000,174032.200,591786.000,553380.900,153126.100,148392.300,135348.800,144253.800,-0.005,0.920,-0.405,-3.174,1.404,-0.092,66.667,526.000,1.000,0.011,0.000
187470.700,174033.900,591714.600,553270.000,153079.500,148382.400,135338.800,144211.800,-0.002,0.918,-0.403,-3.174,1.678,-0.122,66.667,527.000,1.000,1.946,0.000
187419.600,174022.000,591626.900,553139.800,153007.400,148354.600,135303.300,144149.500,-0.003,0.916,-0.400,-3.204,1.831,-0.153,66.667,528.000,1.000,2.482,0.000
187421.700,174016.700,591583.000,553119.700,153006.900,148342.800,135294.200,144156.500,-0.003,0.916,-0.402,-3.174,1.953,-0.183,66.667,529.000,1.000,2.557,0.000
187487.500,174041.100,591598.500,553202.500,153091.900,148378.800,135339.100,144240.200,-0.003,0.912,-0.401,-3.174,2.075,-0.183,66.667,530.000,1.000,2.437,0.000
187515.300,174049.600,591581.300,553221.600,153141.900,148396.400,135364.300,144282.700,-0.004,0.911,-0.400,-3.113,2.258,-0.336,66.667,531.000,1.000,3.774,0.000
187470.400,174039.500,591497.800,553099.800,153089.900,148376.200,135339.500,144225.500,-0.004,0.910,-0.398,-2.991,2.289,-0.458,66.667,532.000,1.000,3.774,0.000
187421.300,174024.800,591405.800,552969.900,153021.800,148350.700,135304.400,144162.000,-0.004,0.912,-0.399,-2.869,2.472,-0.519,66.667,533.000,1.000,14.221,0.000
187435.100,174028.700,591369.900,552958.400,153031.600,148358.700,135305.900,144175.100,-0.005,0.913,-0.398,-2.899,2.472,-0.519,66.667,534.000,1.000,0.009,0.000
187482.000,174034.600,591364.700,553019.600,153093.200,148378.400,135330.400,144238.000,-0.008,0.915,-0.400,-2.960,2.533,-0.610,66.667,535.000,1.000,1.966,0.000
187522.300,174057.000,591359.100,553049.100,153151.100,148408.800,135366.100,144288.100,-0.011,0.915,-0.398,-2.930,2.411,-0.702,66.667,536.000,1.000,2.489,0.000
187478.600,174047.700,591277.700,552929.200,153098.700,148391.700,135343.100,144230.100,-0.013,0.915,-0.400,-2.808,2.380,-0.885,66.667,537.000,1.000,2.489,0.000
187424.500,174026.500,591182.500,552794.400,153022.500,148360.600,135305.200,144156.900,-0.015,0.916,-0.401,-2.777,2.350,-1.038,66.667,538.000,1.000,9.356,0.000
187432.300,174028.200,591146.400,552784.000,153030.300,148363.600,135305.400,144172.400,-0.016,0.917,-0.397,-2.808,2.136,-1.190,66.667,539.000,1.000,0.008,0.000
187491.600,174045.400,591156.300,552862.800,153109.100,148399.000,135345.700,144253.300,-0.018,0.915,-0.395,-2.777,2.106,-1.190,66.667,540.000,1.000,1.907,0.000
187517.300,174048.800,591133.400,552875.600,153149.400,148415.400,135367.400,144283.600,-0.017,0.915,-0.396,-2.777,1.862,-1.282,66.667,541.000,1.000,3.716,0.000
187465.400,174034.000,591042.800,552745.600,153088.300,148392.800,135338.900,144217.400,-0.018,0.916,-0.399,-2.655,1.740,-1.373,66.667,542.000,1.000,9.399,0.000
187424.800,174032.500,590963.200,552621.300,153027.500,148377.700,135312.800,144158.800,-0.018,0.915,-0.397,-2.655,1.617,-1.343,66.667,543.000,1.000,0.013,0.000
187424.600,174023.000,590915.600,552597.100,153021.200,148370.100,135302.500,144160.600,-0.017,0.915,-0.401,-2.655,1.526,-1.343,66.667,544.000,1.000,1.882,0.000
187478.000,174033.600,590917.800,552665.500,153091.100,148390.500,135332.100,144232.700,-0.015,0.914,-0.403,-2.533,1.404,-1.221,66.667,545.000,1.000,8.741,0.000
187509.200,174043.000,590904.700,552684.300,153138.400,148409.000,135357.600,144274.600,-0.015,0.916,-0.404,-2.594,1.312,-1.068,66.667,546.000,1.000,3.083,0.000
187466.600,174034.200,590829.900,552564.800,153083.800,148387.400,135331.200,144219.800,-0.014,0.914,-0.398,-2.472,1.190,-0.946,66.667,547.000,1.000,0.010,0.000
187415.200,174016.500,590739.900,552427.300,153006.700,148356.000,135290.500,144146.700,-0.015,0.913,-0.396,-2.350,1.068,-0.854,66.667,548.000,1.000,1.876,0.000
187420.600,174011.400,590699.700,552408.800,153005.800,148349.600,135285.800,144155.900,-0.016,0.914,-0.396,-2.350,1.099,-0.732,66.667,549.000,1.000,16.578,0.000
187479.900,174030.300,590711.300,552486.800,153082.500,148380.400,135323.600,144236.300,-0.015,0.914,-0.398,-2.289,1.007,-0.519,66.667,550.000,1.000,5.252,0.000
187500.600,174030.000,590687.000,552497.600,153121.200,148394.400,135342.800,144268.200,-0.015,0.914,-0.398,-2.258,0.977,-0.488,66.667,551.000,1.000,0.009,0.000
187448.300,174010.800,590597.800,552367.100,153058.000,148365.200,135311.500,144206.200,-0.013,0.915,-0.400,-2.319,0.885,-0.397,66.667,552.000,1.000,1.937,0.000
187413.200,174012.600,590525.300,552248.100,153001.800,148350.600,135288.000,144147.800,-0.014,0.915,-0.404,-2.228,0.824,-0.275,66.667,553.000,1.000,2.505,0.000
187435.300,174025.300,590502.200,552248.700,153021.700,148364.500,135299.600,144174.200,-0.014,0.915,-0.399,-2.136,0.763,-0.275,66.667,554.000,1.000,2.530,0.000
187480.700,174031.900,590502.700,552318.300,153089.300,148384.700,135326.800,144245.500,-0.014,0.916,-0.401,-2.167,0.732,-0.244,66.667,555.000,1.000,2.459,0.000
187503.300,174039.300,590487.300,552336.500,153132.600,148402.100,135351.400,144281.300,-0.014,0.918,-0.401,-2.258,0.732,-0.275,66.667,556.000,1.000,3.775,0.000
187464.400,174037.200,590418.100,552226.300,153088.300,148391.700,135338.400,144231.300,-0.014,0.918,-0.399,-2.167,0.702,-0.183,66.667,557.000,1.000,14.342,0.000
187407.900,174017.700,590324.900,552090.200,153013.900,148361.500,135299.000,144153.700,-0.013,0.919,-0.405,-2.228,0.610,-0.275,66.667,558.000,1.000,0.013,0.000
187415.900,174014.100,590287.200,552074.600,153020.000,148359.500,135298.100,144166.900,-0.014,0.920,-0.402,-2.319,0.702,-0.305,66.667,559.000,1.000,4.377,0.000
187478.900,174035.000,590299.400,552151.900,153097.800,148394.600,135337.400,144245.700,-0.012,0.922,-0.401,-2.380,0.671,-0.366,66.667,560.000,1.000,3.062,0.000
187513.600,174046.700,590284.800,552173.400,153144.100,148415.400,135364.100,144283.700,-0.013,0.924,-0.401,-2.380,0.671,-0.397,66.667,561.000,1.000,0.006,0.000
187477.000,174044.900,590211.900,552059.300,153097.200,148404.500,135350.600,144230.500,-0.011,0.922,-0.403,-2.502,0.671,-0.336,66.667,562.000,1.000,1.983,0.000
187417.600,174022.000,590115.400,551918.400,153016.900,148366.200,135303.500,144149.100,-0.011,0.921,-0.401,-2.502,0.580,-0.366,66.667,563.000,1.000,3.711,0.000
187417.400,174016.700,590075.000,551900.600,153017.700,148362.300,135298.300,144158.400,-0.010,0.921,-0.399,-2.533,0.519,-0.397,66.667,564.000,1.000,8.688,0.000
187481.400,174043.500,590094.200,551985.600,153102.200,148402.500,135345.500,144247.300,-0.011,0.923,-0.400,-2.533,0.641,-0.458,66.667,565.000,1.000,3.109,0.000
187517.400,174059.400,590088.400,552010.700,153155.600,148428.200,135377.600,144290.700,-0.012,0.924,-0.404,-2.808,0.671,-0.305,66.667,566.000,1.000,0.012,0.000
187472.300,174046.000,590010.000,551889.600,153101.200,148406.900,135353.200,144232.900,-0.013,0.923,-0.402,-2.869,0.702,-0.244,66.667,567.000,1.000,1.906,0.000
187423.700,174029.300,589925.500,551759.600,153029.300,148376.700,135315.500,144164.600,-0.014,0.926,-0.402,-2.899,0.854,-0.275,66.667,568.000,1.000,11.262,0.000
187425.600,174017.700,589881.600,551740.100,153025.600,148366.300,135305.000,144169.100,-0.015,0.922,-0.400,-3.021,0.732,-0.397,66.667,569.000,1.000,5.514,0.000
187478.700,174028.500,589881.400,551810.400,153096.000,148388.100,135337.600,144244.400,-0.014,0.921,-0.399,-3.174,0.824,-0.336,66.667,570.000,1.000,0.012,0.000
187505.600,174037.500,589862.400,551826.900,153137.800,148409.300,135360.400,144285.000,-0.014,0.917,-0.400,-3.143,0.793,-0.275,66.667,571.000,1.000,1.908,0.000
187469.800,174035.500,589789.800,551714.300,153087.700,148399.000,135343.200,144236.500,-0.013,0.917,-0.401,-3.082,0.885,-0.214,66.667,572.000,1.000,2.581,0.000
187422.800,174021.700,589704.100,551579.500,153012.900,148369.900,135305.800,144157.900,-0.012,0.915,-0.406,-3.113,0.854,-0.275,66.667,573.000,1.000,8.761,0.000
187428.000,174016.000,589665.300,551562.400,153013.000,148366.000,135300.500,144167.200,-0.011,0.914,-0.401,-3.052,0.916,-0.305,66.667,574.000,1.000,3.053,0.000
187483.800,174029.900,589676.900,551636.900,153084.100,148392.900,135334.200,144242.500,-0.011,0.913,-0.399,-3.021,0.916,-0.183,66.667,575.000,1.000,0.010,0.000
187541.700,174063.900,589695.300,551686.900,153158.400,148440.500,135386.800,144309.800,-0.012,0.909,-0.399,-2.869,1.038,-0.244,66.667,576.000,1.000,1.916,0.000
187481.400,174037.300,589605.400,551555.900,153091.200,148407.900,135349.700,144237.600,-0.011,0.905,-0.401,-2.838,1.038,-0.244,66.667,577.000,1.000,11.254,0.000
187414.600,174005.700,589504.100,551410.100,153003.400,148363.600,135296.400,144153.400,-0.010,0.904,-0.399,-2.625,1.190,-0.214,66.667,578.000,1.000,6.833,0.000
187423.100,174005.900,589471.300,551400.100,153011.400,148365.100,135293.200,144164.700,-0.010,0.904,-0.401,-2.411,1.160,-0.275,66.667,579.000,1.000,0.013,0.000
187482.200,174025.100,589483.800,551482.800,153089.900,148398.700,135333.100,144244.900,-0.013,0.906,-0.401,-2.197,1.251,-0.214,66.667,580.000,1.000,1.890,0.000
187506.000,174035.300,589469.100,551499.300,153134.300,148421.500,135360.700,144281.700,-0.014,0.909,-0.403,-2.045,1.251,-0.275,66.667,581.000,1.000,9.342,0.000
187462.800,174029.400,589391.100,551379.900,153085.400,148409.000,135342.400,144226.400,-0.016,0.913,-0.402,-1.923,1.343,-0.275,66.667,582.000,1.000,0.011,0.000
187401.800,174000.600,589291.200,551237.400,152999.700,148365.800,135288.800,144141.200,-0.017,0.915,-0.400,-1.831,1.373,-0.427,66.667,583.000,1.000,6.255,0.000
187423.600,174012.300,589270.100,551240.600,153017.400,148380.400,135303.100,144169.400,-0.020,0.916,-0.402,-1.892,1.434,-0.488,66.667,584.000,1.000,0.012,0.000
187474.800,174018.900,589273.300,551307.500,153083.000,148399.800,135331.800,144235.200,-0.017,0.919,-0.402,-1.770,1.312,-0.549,66.667,585.000,1.000,7.004,0.000
187492.500,174019.600,589249.400,551312.300,153113.700,148405.400,135346.400,144259.200,-0.017,0.920,-0.404,-1.709,1.282,-0.641,66.667,586.000,1.000,14.217,0.000
187449.400,174013.800,589175.400,551197.000,153060.600,148390.400,135325.800,144204.400,-0.017,0.920,-0.403,-1.709,1.221,-0.610,66.667,587.000,1.000,0.019,0.000
187398.600,173999.200,589091.100,551068.500,152988.400,148364.800,135289.100,144137.500,-0.018,0.921,-0.400,-1.831,1.068,-0.549,66.667,588.000,1.000,2.458,0.000
187422.500,174013.900,589073.400,551072.800,153010.700,148383.000,135305.000,144168.800,-0.018,0.923,-0.400,-1.923,1.160,-0.549,66.667,589.000,1.000,0.011,0.000
187476.400,174028.900,589083.300,551149.200,153087.300,148412.100,135342.900,144248.400,-0.017,0.923,-0.401,-2.045,0.977,-0.549,66.667,590.000,1.000,6.270,0.000
187488.600,174023.600,589053.800,551156.600,153114.800,148412.400,135351.900,144274.800,-0.014,0.921,-0.404,-2.045,1.099,-0.458,66.667,591.000,1.000,0.009,0.000
187426.400,173994.300,588955.400,551019.100,153041.000,148370.900,135309.700,144194.300,-0.013,0.922,-0.401,-2.075,1.068,-0.427,66.667,592.000,1.000,13.703,0.000
187384.900,173987.400,588878.000,550895.300,152977.200,148350.200,135282.000,144127.900,-0.010,0.921,-0.406,-2.106,1.251,-0.305,66.667,593.000,1.000,0.011,0.000
187415.000,174006.200,588866.700,550908.300,153004.100,148369.300,135297.300,144160.500,-0.009,0.920,-0.404,-2.045,1.312,-0.366,66.667,594.000,1.000,2.476,0.000
187467.000,174014.000,588871.600,550978.700,153070.100,148387.500,135321.500,144229.500,-0.009,0.915,-0.405,-2.075,1.434,-0.244,66.667,595.000,1.000,0.014,0.000
187494.400,174022.700,588858.800,550997.300,153113.100,148403.700,135343.800,144266.600,-0.006,0.914,-0.404,-2.045,1.526,-0.122,66.667,596.000,1.000,1.889,0.000
187454.000,174017.000,588789.600,550884.800,153066.300,148391.700,135326.100,144210.200,-0.006,0.915,-0.405,-1.984,1.648,-0.183,66.667,597.000,1.000,16.913,0.000
187408.600,174004.000,588709.700,550759.200,152996.700,148362.800,135288.700,144143.000,-0.008,0.913,-0.401,-1.953,1.831,-0.305,66.667,598.000,1.000,0.019,0.000
187399.700,173985.100,588661.400,550737.700,152985.100,148344.300,135272.200,144144.300,-0.009,0.912,-0.404,-1.801,1.923,-0.366,66.667,599.000,1.000,14.934,0.000
187452.800,174001.300,588673.300,550815.900,153061.400,148373.000,135311.300,144224.700,-0.009,0.913,-0.402,-1.801,1.984,-0.366,66.667,600.000,1.000,0.020,0.000
187486.400,174019.400,588666.800,550841.000,153113.800,148400.700,135347.200,144267.900,-0.008,0.912,-0.403,-1.801,2.167,-0.305,66.667,601.000,1.000,0.010,0.000
187431.600,173998.800,588580.300,550712.100,153050.700,148374.500,135318.900,144199.500,-0.011,0.911,-0.403,-1.740,2.197,-0.458,66.667,602.000,1.000,0.008,0.000
187396.900,173998.300,588509.800,550597.500,152994.400,148365.400,135299.900,144145.300,-0.014,0.911,-0.403,-1.862,2.258,-0.519,66.667,603.000,1.000,2.975,0.000
187417.700,174004.900,588484.700,550597.900,153009.700,148370.400,135304.000,144167.700,-0.016,0.912,-0.405,-1.740,2.289,-0.488,66.667,604.000,1.000,0.005,0.000
187480.900,174025.500,588502.500,550679.300,153089.700,148402.700,135342.100,144248.800,-0.016,0.914,-0.405,-1.709,2.289,-0.702,66.667,605.000,1.000,0.003,0.000
187496.500,174027.100,588479.100,550682.400,153118.300,148412.200,135353.600,144270.100,-0.017,0.918,-0.405,-1.831,2.319,-0.732,66.667,606.000,1.000,6.413,0.000
187434.000,173997.900,588383.700,550544.100,153046.500,148376.300,135311.300,144192.500,-0.017,0.919,-0.403,-1.892,2.136,-0.824,66.667,607.000,1.000,2.547,0.000
187383.400,173981.200,588297.100,550415.400,152973.800,148346.700,135274.500,144121.300,-0.017,0.919,-0.403,-1.984,2.045,-0.763,66.667,608.000,1.000,3.723,0.000
187395.000,173983.200,588267.600,550412.400,152983.800,148351.900,135278.400,144138.900,-0.018,0.920,-0.403,-1.953,1.984,-0.702,66.667,609.000,1.000,7.475,0.000
187463.500,174009.000,588289.600,550499.800,153071.200,148390.800,135322.800,144223.200,-0.018,0.919,-0.402,-2.167,1.953,-0.732,66.667,610.000,1.000,3.059,0.000
187497.400,174025.600,588283.600,550523.100,153119.700,148413.400,135355.400,144264.600,-0.016,0.920,-0.401,-2.228,2.014,-0.671,66.667,611.000,1.000,0.010,0.000
187440.400,174008.600,588198.300,550396.400,153057.500,148387.300,135325.800,144197.300,-0.017,0.919,-0.403,-2.258,1.984,-0.610,66.667,612.000,1.000,10.696,0.000
187382.300,173986.700,588106.400,550264.100,152981.100,148355.300,135286.400,144125.700,-0.015,0.918,-0.405,-2.289,1.831,-0.458,66.667,613.000,1.000,3.068,0.000
187407.900,174004.800,588090.000,550273.800,153006.700,148376.600,135307.600,144161.400,-0.015,0.917,-0.404,-2.441,1.740,-0.366,66.667,614.000,1.000,0.009,0.000
187469.800,174028.500,588107.500,550353.900,153085.300,148410.500,135345.400,144243.100,-0.016,0.917,-0.404,-2.563,1.678,-0.244,66.667,615.000,1.000,1.946,0.000
187494.800,174032.100,588092.800,550362.800,153119.600,148422.800,135361.800,144260.300,-0.018,0.918,-0.404,-2.655,1.526,-0.061,66.667,616.000,1.000,8.704,0.000
187456.700,174027.200,588024.900,550248.400,153068.400,148406.900,135343.900,144206.500,-0.016,0.914,-0.402,-2.533,1.434,-0.061,66.667,617.000,1.000,2.471,0.000
187409.300,174014.400,587946.400,550125.200,152997.800,148384.600,135312.000,144139.900,-0.016,0.913,-0.405,-2.472,1.495,-0.122,66.667,618.000,1.000,3.825,0.000
187404.300,173996.500,587904.600,550109.400,152993.500,148373.500,135297.500,144142.900,-0.016,0.912,-0.404,-2.533,1.495,-0.122,66.667,619.000,1.000,9.226,0.000
187459.600,174009.100,587917.600,550189.100,153069.800,148397.200,135330.800,144220.400,-0.015,0.911,-0.402,-2.350,1.251,-0.031,66.667,620.000,1.000,0.008,0.000
187491.600,174025.400,587910.600,550209.700,153116.200,148416.000,135356.500,144258.000,-0.016,0.913,-0.402,-2.411,1.190,-0.092,66.667,621.000,1.000,1.887,0.000
187460.600,174032.300,587850.000,550106.900,153074.000,148411.300,135349.500,144210.900,-0.016,0.912,-0.406,-2.319,1.129,-0.153,66.667,622.000,1.000,11.855,0.000
187406.300,174015.900,587764.400,549980.400,152999.800,148379.200,135310.500,144144.300,-0.017,0.915,-0.405,-2.289,1.129,-0.153,66.667,623.000,1.000,0.012,0.000
187418.800,174019.000,587736.000,549980.200,153010.100,148380.200,135310.000,144163.800,-0.016,0.917,-0.406,-2.228,1.068,-0.183,66.667,624.000,1.000,1.929,0.000
187476.400,174031.600,587747.600,550058.300,153083.300,148407.600,135343.900,144238.000,-0.015,0.917,-0.404,-2.350,0.946,-0.122,66.667,625.000,1.000,3.777,0.000
187503.800,174039.500,587735.200,550073.900,153126.900,148425.900,135366.300,144272.300,-0.014,0.920,-0.403,-2.319,0.854,-0.092,66.667,626.000,1.000,11.868,0.000
187441.400,174013.100,587645.100,549937.800,153055.200,148388.200,135321.000,144194.900,-0.013,0.921,-0.403,-2.380,0.763,-0.122,66.667,627.000,1.000,0.017,0.000
187391.500,173996.600,587563.000,549811.900,152984.100,148357.100,135282.000,144126.400,-0.015,0.923,-0.405,-2.472,0.793,-0.092,66.667,628.000,1.000,2.412,0.000
187409.600,174003.300,587544.400,549816.000,153002.500,148367.600,135291.600,144156.700,-0.014,0.923,-0.404,-2.502,0.732,-0.275,66.667,629.000,1.000,0.014,0.000
187466.100,174018.000,587562.100,549898.000,153079.000,148400.200,135331.600,144239.100,-0.011,0.923,-0.405,-2.533,0.641,-0.275,66.667,630.000,1.000,2.011,0.000
187483.100,174019.600,587542.900,549908.400,153114.400,148415.000,135353.600,144269.700,-0.008,0.924,-0.407,-2.655,0.732,-0.244,66.667,631.000,1.000,12.333,0.000
187428.000,173998.000,587453.500,549780.000,153045.400,148381.600,135316.900,144199.500,-0.006,0.923,-0.405,-2.747,0.763,-0.336,66.667,632.000,1.000,3.079,0.000
187391.200,173991.100,587377.700,549661.900,152983.800,148362.800,135288.200,144139.200,-0.009,0.922,-0.402,-2.838,0.946,-0.305,66.667,633.000,1.000,0.005,0.000
187410.300,173995.700,587352.800,549664.800,152999.700,148369.400,135291.200,144161.300,-0.008,0.920,-0.399,-2.808,0.946,-0.397,66.667,634.000,1.000,1.978,0.000
187459.200,174003.700,587360.100,549741.400,153066.500,148388.900,135317.300,144234.700,-0.011,0.919,-0.400,-2.869,1.007,-0.275,66.667,635.000,1.000,2.579,0.000
187483.500,174014.000,587349.900,549757.800,153106.200,148404.700,135339.500,144264.300,-0.011,0.915,-0.402,-2.960,0.916,-0.092,66.667,636.000,1.000,8.664,0.000
187443.600,174009.100,587282.100,549642.000,153053.000,148387.600,135315.600,144203.000,-0.008,0.911,-0.405,-2.838,0.885,-0.092,66.667,637.000,1.000,2.429,0.000
187392.700,173987.600,587198.400,549514.800,152978.200,148358.900,135274.900,144127.300,-0.010,0.911,-0.406,-2.625,0.946,-0.122,66.667,638.000,1.000,3.926,0.000
187410.900,173995.000,587178.100,549519.300,152995.900,148368.400,135281.300,144155.200,-0.009,0.912,-0.403,-2.533,0.977,-0.183,66.667,639.000,1.000,9.187,0.000
187456.300,173999.000,587180.900,549587.900,153061.100,148385.700,135308.600,144225.200,-0.007,0.914,-0.401,-2.563,1.190,-0.183,66.667,640.000,1.000,0.008,0.000
187472.900,173997.200,587158.800,549594.100,153092.700,148394.800,135326.700,144249.800,-0.008,0.913,-0.400,-2.563,1.251,-0.214,66.667,641.000,1.000,1.922,0.000
187426.000,173985.900,587086.200,549476.900,153037.900,148379.600,135306.400,144192.200,-0.009,0.912,-0.399,-2.533,1.373,-0.214,66.667,642.000,1.000,10.019,0.000
187377.600,173969.400,587006.400,549353.000,152967.800,148349.300,135267.600,144128.100,-0.008,0.910,-0.403,-2.563,1.495,-0.214,66.667,643.000,1.000,3.086,0.000
187390.700,173968.800,586979.300,549352.400,152975.900,148348.800,135264.800,144144.300,-0.010,0.911,-0.402,-2.502,1.465,-0.244,66.667,644.000,1.000,0.009,0.000
187459.800,173995.800,587005.900,549444.200,153062.600,148387.400,135310.800,144230.500,-0.011,0.916,-0.401,-2.319,1.556,-0.275,66.667,645.000,1.000,1.919,0.000
187512.100,174035.700,587024.900,549486.800,153134.900,148434.200,135364.400,144293.500,-0.010,0.917,-0.401,-2.350,1.678,-0.397,66.667,646.000,1.000,24.998,0.000
187450.500,174011.400,586938.500,549349.900,153062.900,148399.500,135325.400,144216.900,-0.011,0.918,-0.402,-2.319,1.678,-0.458,66.667,647.000,1.000,2.493,0.000
187402.200,173997.800,586860.300,549222.000,152993.300,148369.700,135287.900,144146.000,-0.010,0.917,-0.402,-2.228,1.587,-0.519,66.667,648.000,1.000,2.452,0.000
187412.900,173996.700,586831.400,549218.900,153003.600,148369.000,135287.900,144161.400,-0.013,0.917,-0.403,-2.319,1.709,-0.458,66.667,649.000,1.000,2.584,0.000
187464.500,174004.000,586838.600,549292.600,153073.200,148391.200,135316.900,144231.900,-0.010,0.918,-0.402,-2.258,1.740,-0.458,66.667,650.000,1.000,2.441,0.000
187487.000,174011.800,586825.100,549307.600,153111.500,148405.000,135337.000,144262.500,-0.011,0.919,-0.401,-2.380,1.648,-0.488,66.667,651.000,1.000,2.534,0.000
187450.500,174013.500,586760.300,549197.400,153063.700,148394.400,135324.000,144208.700,-0.011,0.918,-0.402,-2.380,1.709,-0.519,66.667,652.000,1.000,2.411,0.000
187423.700,174019.300,586703.400,549095.100,153014.800,148386.800,135307.500,144157.900,-0.012,0.920,-0.399,-2.411,1.709,-0.488,66.667,653.000,1.000,2.585,0.000
187441.500,174021.000,586680.800,549100.300,153030.700,148388.400,135307.000,144178.100,-0.011,0.919,-0.400,-2.533,1.801,-0.458,66.667,654.000,1.000,2.474,0.000
187481.300,174020.200,586682.200,549168.800,153092.700,148398.900,135321.000,144242.200,-0.011,0.917,-0.400,-2.625,1.770,-0.397,66.667,655.000,1.000,3.019,0.000
187494.400,174018.100,586661.900,549172.200,153121.300,148411.600,135341.300,144261.200,-0.013,0.919,-0.402,-2.686,1.801,-0.458,66.667,656.000,1.000,0.007,0.000
187444.800,174002.400,586583.100,549044.600,153056.500,148389.800,135311.800,144194.200,-0.012,0.919,-0.400,-2.625,1.709,-0.397,66.667,657.000,1.000,5.787,0.000
187392.800,173985.800,586501.600,548920.400,152985.500,148365.400,135275.500,144128.800,-0.012,0.918,-0.402,-2.686,1.678,-0.458,66.667,658.000,1.000,2.377,0.000
187408.800,173992.800,586482.800,548928.100,153004.600,148372.500,135283.600,144152.100,-0.011,0.918,-0.403,-2.655,1.678,-0.488,66.667,659.000,1.000,2.626,0.000
187463.800,174011.400,586500.600,549012.400,153082.000,148401.400,135321.800,144231.000,-0.014,0.917,-0.401,-2.686,1.770,-0.427,66.667,660.000,1.000,4.281,0.000
187468.700,174004.900,586471.600,549007.500,153105.300,148405.100,135335.300,144247.500,-0.013,0.916,-0.404,-2.594,1.678,-0.458,66.667,661.000,1.000,0.004,0.000
187420.100,173997.900,586398.300,548888.400,153045.800,148384.300,135311.100,144187.600,-0.013,0.917,-0.404,-2.625,1.617,-0.458,66.667,662.000,1.000,10.703,0.000
187401.100,174012.600,586344.400,548791.300,152999.800,148384.900,135300.700,144146.000,-0.015,0.917,-0.402,-2.594,1.617,-0.427,66.667,663.000,1.000,3.071,0.000
187427.700,174022.900,586331.300,548804.900,153022.600,148400.700,135317.400,144180.400,-0.014,0.917,-0.404,-2.625,1.495,-0.458,66.667,664.000,1.000,0.007,0.000
187476.100,174027.400,586338.300,548878.500,153091.000,148418.700,135347.600,144254.000,-0.014,0.917,-0.406,-2.625,1.465,-0.549,66.667,665.000,1.000,1.924,0.000
187491.800,174025.400,586320.500,548885.300,153123.400,148425.000,135363.000,144281.000,-0.015,0.917,-0.405,-2.716,1.373,-0.549,66.667,666.000,1.000,8.719,0.000
187438.000,174006.500,586241.100,548758.400,153057.200,148395.400,135329.900,144213.500,-0.014,0.917,-0.404,-2.716,1.434,-0.580,66.667,667.000,1.000,2.466,0.000
187393.300,173995.500,586161.900,548637.600,152989.300,148369.000,135292.300,144147.700,-0.014,0.917,-0.401,-2.777,1.282,-0.549,66.667,668.000,1.000,14.966,0.000
187411.000,173999.800,586142.200,548645.600,153008.400,148375.600,135297.400,144168.800,-0.014,0.916,-0.406,-2.716,1.221,-0.488,66.667,669.000,1.000,0.020,0.000
187467.300,174017.100,586159.300,548728.400,153085.700,148405.400,135334.700,144247.400,-0.012,0.913,-0.403,-2.625,1.312,-0.458,66.667,670.000,1.000,0.007,0.000
187483.600,174017.700,586141.600,548734.400,153118.000,148414.200,135348.200,144273.500,-0.012,0.914,-0.399,-2.655,1.221,-0.549,66.667,671.000,1.000,3.076,0.000
187434.700,174007.900,586069.600,548612.300,153057.000,148395.600,135323.800,144205.900,-0.010,0.916,-0.399,-2.533,1.221,-0.488,66.667,672.000,1.000,0.015,0.000
187392.700,173996.400,585995.400,548494.100,152987.500,148373.300,135290.100,144136.800,-0.009,0.915,-0.400,-2.625,1.282,-0.488,66.667,673.000,1.000,2.009,0.000
187416.300,174001.500,585976.700,548502.400,153003.300,148382.200,135297.300,144160.100,-0.009,0.917,-0.401,-2.594,1.312,-0.580,66.667,674.000,1.000,11.153,0.000
187492.800,174034.100,586008.900,548601.800,153098.200,148428.400,135352.200,144252.200,-0.010,0.919,-0.401,-2.655,1.312,-0.519,66.667,675.000,1.000,3.058,0.000
187498.100,174025.600,585979.500,548598.800,153120.400,148424.200,135357.300,144268.200,-0.011,0.919,-0.399,-2.625,1.312,-0.488,66.667,676.000,1.000,0.010,0.000
187443.800,174004.900,585897.600,548472.100,153054.400,148387.300,135322.300,144199.300,-0.012,0.919,-0.401,-2.594,1.160,-0.519,66.667,677.000,1.000,1.871,0.000
187396.400,173988.000,585819.300,548346.900,152983.900,148360.000,135285.100,144127.900,-0.014,0.921,-0.402,-2.716,1.129,-0.488,66.667,678.000,1.000,8.776,0.000
187423.600,174001.200,585811.600,548366.800,153012.500,148378.000,135304.100,144165.100,-0.014,0.918,-0.400,-2.747,1.221,-0.427,66.667,679.000,1.000,2.531,0.000
187473.100,174008.000,585820.100,548442.800,153079.300,148396.100,135332.000,144234.700,-0.013,0.919,-0.399,-2.869,1.129,-0.549,66.667,680.000,1.000,3.730,0.000
187497.200,174020.000,585812.300,548457.600,153118.700,148412.600,135354.000,144267.500,-0.014,0.919,-0.401,-2.899,1.007,-0.458,66.667,681.000,1.000,9.233,0.000
187451.700,174012.800,585740.400,548339.400,153062.600,148398.200,135335.900,144210.200,-0.014,0.917,-0.403,-2.869,1.160,-0.458,66.667,682.000,1.000,0.013,0.000
187402.300,173996.000,585659.800,548216.200,152990.500,148369.400,135298.300,144139.100,-0.012,0.916,-0.401,-2.869,1.160,-0.458,66.667,683.000,1.000,5.705,0.000
187407.600,173987.200,585629.100,548214.800,152997.700,148363.400,135294.400,144153.500,-0.013,0.914,-0.402,-2.869,1.068,-0.610,66.667,684.000,1.000,2.640,0.000
187467.000,174006.800,585652.800,548306.400,153082.500,148399.900,135339.000,144244.600,-0.012,0.912,-0.400,-2.808,1.007,-0.519,66.667,685.000,1.000,2.440,0.000
187486.700,174014.500,585640.600,548318.200,153121.800,148415.700,135362.300,144279.700,-0.011,0.913,-0.400,-2.808,1.160,-0.549,66.667,686.000,1.000,8.778,0.000
187425.000,173992.600,585554.300,548187.200,153051.800,148387.600,135327.200,144206.100,-0.010,0.912,-0.401,-2.686,1.190,-0.519,66.667,687.000,1.000,3.029,0.000
187374.000,173975.200,585475.600,548066.100,152980.000,148355.900,135286.400,144140.600,-0.011,0.910,-0.402,-2.594,1.221,-0.641,66.667,688.000,1.000,0.010,0.000
187388.500,173977.200,585457.700,548075.400,152996.700,148359.800,135289.200,144165.200,-0.011,0.909,-0.404,-2.502,1.190,-0.671,66.667,689.000,1.000,5.715,0.000
187459.300,174008.300,585491.800,548172.000,153088.400,148402.500,135337.400,144257.700,-0.012,0.910,-0.403,-2.319,1.129,-0.671,66.667,690.000,1.000,9.309,0.000
187474.500,174011.500,585476.900,548177.400,153119.300,148414.200,135356.400,144284.600,-0.013,0.911,-0.403,-2.197,1.160,-0.641,66.667,691.000,1.000,0.006,0.000
187419.100,173994.300,585396.500,548049.700,153052.900,148385.000,135321.000,144215.200,-0.013,0.912,-0.401,-2.075,1.190,-0.702,66.667,692.000,1.000,1.876,0.000
187381.300,173989.700,585328.400,547935.200,152992.600,148366.500,135289.100,144153.300,-0.014,0.912,-0.400,-2.014,1.251,-0.671,66.667,693.000,1.000,3.837,0.000
187386.700,173978.600,585297.200,547935.000,152998.100,148359.600,135279.400,144162.500,-0.015,0.914,-0.399,-1.953,1.099,-0.763,66.667,694.000,1.000,3.603,0.000
187451.600,174001.900,585321.900,548027.200,153082.600,148398.500,135324.700,144252.000,-0.017,0.916,-0.401,-1.923,1.068,-0.854,66.667,695.000,1.000,4.432,0.000
187470.300,174007.500,585305.900,548034.900,153113.700,148409.000,135344.400,144276.000,-0.017,0.918,-0.402,-1.862,1.038,-0.793,66.667,696.000,1.000,0.010,0.000
187427.100,174004.200,585236.100,547917.900,153054.600,148388.700,135319.100,144213.500,-0.015,0.919,-0.400,-1.953,1.038,-0.732,66.667,697.000,1.000,13.036,0.000
187378.800,173989.400,585159.600,547797.600,152984.600,148361.000,135281.300,144144.400,-0.015,0.921,-0.398,-2.106,1.099,-0.732,66.667,698.000,1.000,2.586,0.000
187381.800,173976.200,585126.100,547790.900,152985.500,148348.900,135269.500,144149.900,-0.015,0.920,-0.402,-2.014,0.977,-0.641,66.667,699.000,1.000,2.456,0.000
187451.500,174003.900,585157.200,547886.800,153074.300,148389.100,135316.400,144237.000,-0.015,0.920,-0.404,-2.258,1.007,-0.671,66.667,700.000,1.000,2.565,0.000
187466.700,174007.700,585139.100,547890.300,153104.300,148400.700,135334.000,144256.700,-0.014,0.922,-0.406,-2.258,1.068,-0.610,66.667,701.000,1.000,11.273,0.000
187409.000,173987.700,585055.300,547757.100,153034.500,148372.400,135300.100,144182.100,-0.016,0.922,-0.405,-2.380,1.068,-0.549,66.667,702.000,1.000,2.990,0.000
187383.400,173991.300,584998.800,547655.600,152987.600,148364.100,135283.800,144133.800,-0.014,0.920,-0.405,-2.411,1.038,-0.488,66.667,703.000,1.000,0.005,0.000
187417.600,174007.800,584995.900,547682.900,153022.900,148384.200,135301.900,144172.600,-0.013,0.921,-0.404,-2.380,1.129,-0.519,66.667,704.000,1.000,1.988,0.000
187473.100,174014.100,585007.300,547762.900,153095.700,148404.800,135330.900,144246.600,-0.013,0.919,-0.403,-2.655,1.068,-0.427,66.667,705.000,1.000,2.503,0.000
187477.100,174004.000,584977.000,547756.400,153114.000,148400.200,135330.100,144259.200,-0.011,0.919,-0.403,-2.716,1.038,-0.336,66.667,706.000,1.000,8.707,0.000
187415.400,173979.600,584892.300,547626.200,153038.200,148363.600,135288.300,144184.200,-0.012,0.916,-0.405,-2.747,1.038,-0.305,66.667,707.000,1.000,4.188,0.000
187381.900,173976.500,584828.300,547520.700,152979.000,148345.000,135259.600,144126.800,-0.010,0.914,-0.405,-2.716,1.190,-0.244,66.667,708.000,1.000,0.005,0.000
187415.000,173996.100,584827.400,547547.100,153013.100,148367.100,135282.100,144168.400,-0.011,0.911,-0.405,-2.686,1.221,-0.214,66.667,709.000,1.000,7.048,0.000
187468.500,174009.000,584844.300,547630.300,153087.500,148389.600,135314.200,144244.200,-0.012,0.911,-0.403,-2.625,1.312,-0.244,66.667,710.000,1.000,2.553,0.000
187504.100,174033.500,584848.200,547655.300,153139.600,148421.400,135354.000,144290.000,-0.011,0.913,-0.403,-2.625,1.282,-0.183,66.667,711.000,1.000,2.451,0.000
187453.800,174023.000,584775.700,547533.600,153081.100,148405.600,135333.200,144227.400,-0.012,0.913,-0.406,-2.472,1.251,-0.183,66.667,712.000,1.000,6.243,0.000
187397.900,174001.000,584696.400,547410.400,153006.500,148377.000,135292.100,144158.100,-0.015,0.916,-0.405,-2.350,1.282,-0.214,66.667,713.000,1.000,4.399,0.000
187397.400,173985.000,584663.400,547405.500,153008.200,148366.700,135282.500,144169.800,-0.016,0.915,-0.402,-2.411,1.282,-0.275,66.667,714.000,1.000,0.021,0.000
187459.100,174005.200,584684.900,547492.300,153088.700,148398.500,135323.700,144248.600,-0.013,0.914,-0.402,-2.411,1.251,-0.305,66.667,715.000,1.000,10.564,0.000
187497.200,174031.900,584689.400,547517.800,153139.000,148432.000,135366.500,144296.100,-0.015,0.916,-0.403,-2.411,1.190,-0.305,66.667,716.000,1.000,3.070,0.000
187447.600,174019.900,584613.900,547393.100,153071.400,148406.600,135337.500,144231.200,-0.014,0.916,-0.401,-2.319,1.343,-0.305,66.667,717.000,1.000,0.008,0.000
187400.500,174004.200,584536.600,547273.000,152999.800,148377.000,135296.800,144162.300,-0.013,0.915,-0.401,-2.380,1.282,-0.305,66.667,718.000,1.000,1.862,0.000
187420.000,174010.500,584521.900,547287.900,153019.500,148383.500,135303.000,144190.200,-0.014,0.915,-0.401,-2.289,1.251,-0.336,66.667,719.000,1.000,6.403,0.000
187470.700,174020.100,584535.800,547366.700,153091.300,148406.400,135333.800,144258.400,-0.015,0.916,-0.398,-2.380,1.312,-0.427,66.667,720.000,1.000,9.276,0.000
187503.100,174034.500,584529.800,547380.300,153128.300,148423.300,135357.100,144288.700,-0.016,0.913,-0.404,-2.380,1.190,-0.427,66.667,721.000,1.000,0.007,0.000
187449.000,174015.800,584450.300,547250.300,153056.500,148391.800,135321.800,144215.300,-0.017,0.908,-0.401,-2.411,1.160,-0.519,66.667,722.000,1.000,1.921,0.000
187384.800,173981.200,584356.700,547114.300,152968.700,148345.900,135265.100,144129.000,-0.015,0.907,-0.408,-2.411,1.190,-0.549,66.667,723.000,1.000,9.305,0.000
187404.000,173980.600,584337.300,547126.400,152984.600,148346.200,135262.400,144149.800,-0.012,0.907,-0.408,-2.197,1.129,-0.458,66.667,724.000,1.000,0.009,0.000
187457.800,173987.400,584349.900,547205.300,153051.300,148367.000,135288.000,144216.700,-0.010,0.907,-0.408,-2.014,1.221,-0.549,66.667,725.000,1.000,2.529,0.000
187473.700,173992.500,584338.300,547209.600,153080.000,148377.700,135307.000,144238.700,-0.009,0.911,-0.408,-2.014,1.282,-0.458,66.667,726.000,1.000,0.008,0.000
187437.600,173997.600,584281.300,547103.300,153036.600,148375.500,135297.300,144186.700,-0.008,0.911,-0.410,-1.923,1.221,-0.366,66.667,727.000,1.000,13.146,0.000
187407.400,173999.500,584223.800,547003.300,152986.700,148367.100,135278.500,144135.600,-0.011,0.913,-0.409,-1.923,1.343,-0.244,66.667,728.000,1.000,2.442,0.000
187437.600,174017.300,584221.300,547028.500,153019.700,148383.000,135296.000,144173.400,-0.011,0.915,-0.409,-2.014,1.434,-0.214,66.667,729.000,1.000,2.524,0.000
187473.400,174013.400,584221.800,547094.400,153078.500,148393.200,135314.600,144235.000,-0.014,0.916,-0.410,-2.014,1.434,-0.214,66.667,730.000,1.000,2.463,0.000
187495.700,174028.900,584215.200,547108.300,153120.100,148418.300,135345.300,144267.500,-0.017,0.919,-0.407,-2.106,1.404,-0.275,66.667,731.000,1.000,11.985,0.000
187454.600,174025.400,584148.900,546994.800,153069.100,148405.400,135328.500,144213.500,-0.018,0.925,-0.408,-2.167,1.312,-0.366,66.667,732.000,1.000,0.013,0.000
187410.400,174009.500,584073.600,546880.500,153003.400,148377.700,135291.500,144151.200,-0.019,0.928,-0.406,-2.350,1.251,-0.397,66.667,733.000,1.000,2.343,0.000
187424.500,174007.100,584052.100,546892.600,153017.300,148372.600,135290.700,144171.100,-0.019,0.930,-0.408,-2.502,1.251,-0.366,66.667,734.000,1.000,0.019,0.000
187490.800,174029.700,584081.000,546986.200,153104.500,148409.300,135335.900,144256.300,-0.014,0.935,-0.406,-2.747,1.221,-0.397,66.667,735.000,1.000,1.988,0.000
187505.500,174032.100,584063.800,546989.600,153135.300,148416.400,135352.000,144278.800,-0.011,0.934,-0.407,-3.052,1.251,-0.336,66.667,736.000,1.000,11.180,0.000
187445.000,174009.100,583978.600,546855.800,153063.700,148382.300,135318.300,144206.500,-0.008,0.936,-0.408,-3.296,1.221,-0.244,66.667,737.000,1.000,4.967,0.000
187402.300,173997.400,583907.900,546742.800,152997.000,148358.100,135288.800,144148.500,-0.005,0.936,-0.408,-3.479,1.282,-0.031,66.667,738.000,1.000,2.509,0.000
187416.500,173997.300,583890.300,546752.100,153010.800,148363.600,135288.300,144170.000,-0.002,0.932,-0.404,-3.815,1.404,0.000,66.667,739.000,1.000,3.041,0.000
187469.700,174010.500,583910.200,546829.400,153084.300,148393.200,135323.500,144244.600,-0.002,0.928,-0.406,-4.059,1.526,0.183,66.667,740.000,1.000,0.006,0.000
187485.500,174016.800,583897.600,546832.700,153115.200,148403.300,135342.800,144266.700,-0.002,0.925,-0.404,-4.211,1.648,0.153,66.667,741.000,1.000,1.927,0.000
187450.000,174018.700,583840.400,546727.100,153069.000,148391.500,135331.400,144213.800,-0.002,0.921,-0.405,-4.333,1.862,0.366,66.667,742.000,1.000,8.804,0.000
187395.600,173996.600,583759.100,546604.700,152998.400,148356.700,135290.700,144142.700,-0.002,0.917,-0.404,-4.272,1.984,0.305,66.667,743.000,1.000,6.330,0.000
187415.100,174003.200,583743.800,546621.900,153020.900,148361.300,135299.000,144172.900,-0.004,0.915,-0.403,-4.242,2.045,0.336,66.667,744.000,1.000,0.009,0.000
187475.000,174019.800,583765.800,546708.300,153097.700,148388.000,135337.100,144255.300,-0.005,0.911,-0.406,-4.242,2.197,0.244,66.667,745.000,1.000,9.270,0.000
