EEG 1, EEG 2, EEG 3, EEG 4, EEG 5, EEG 6, EEG 7, EEG 8, ACC X, ACC Y, ACC Z, GYR X, GYR Y, GYR Z, BAT, CNT, VALID, DT, TRIG
136578.600,136578.600,26112.970,121369.400,136578.600,136578.600,136578.600,136578.600,-0.012,0.892,-0.378,0.000,0.000,0.000,66.667,1.000,1.000,0.000,0.000
469382.100,469382.100,101358.500,398753.900,430032.800,458039.300,469382.100,469382.100,-0.012,0.906,-0.388,0.000,0.000,0.000,66.667,2.000,1.000,12.686,0.000
696927.400,731059.300,211815.200,600228.000,471321.000,619610.400,731059.300,721683.900,-0.012,0.912,-0.393,0.000,0.000,0.000,66.667,3.000,1.000,2.926,0.000
670924.300,801568.300,368846.400,677451.600,125643.600,470759.800,801568.300,756351.200,-0.012,0.913,-0.395,0.000,0.000,0.000,66.667,4.000,1.000,2.297,0.000
588674.000,813407.500,535984.300,749506.500,-243488.600,309099.300,814894.100,730781.900,-0.012,0.917,-0.397,-2.167,2.960,-2.380,66.667,5.000,1.000,3.624,0.000
516974.200,736987.100,627393.300,779683.800,-518677.500,291906.400,797996.100,721940.400,-0.012,0.916,-0.401,-3.082,4.211,-2.716,66.667,6.000,1.000,24.982,0.000
403141.800,487151.600,669131.300,739253.400,-770134.400,338007.900,731418.800,696661.700,-0.013,0.918,-0.402,-2.594,3.265,-1.648,66.667,7.000,1.000,4.954,0.000
401157.900,309506.600,714745.800,717615.900,-672938.600,433808.400,695083.400,688053.800,-0.013,0.919,-0.403,-2.258,2.991,-1.221,66.667,8.000,1.000,2.617,0.000
593182.800,434716.500,740047.900,741355.700,-36840.200,601528.000,725707.700,731910.500,-0.013,0.921,-0.406,-2.136,2.838,-1.007,66.667,9.000,1.000,2.296,0.000
775047.700,665017.100,741689.700,769176.700,619479.800,771874.400,775234.200,790073.500,-0.014,0.923,-0.404,-2.075,2.716,-0.885,66.667,10.000,1.000,2.553,0.000
809800.600,764926.900,748916.800,764755.400,864339.800,814088.300,781121.700,790643.100,-0.018,0.925,-0.407,-2.289,2.716,-0.732,66.667,11.000,1.000,2.437,0.000
754190.400,765390.600,754850.900,723693.000,842369.900,723673.100,727119.200,721798.600,-0.016,0.927,-0.407,-2.350,2.594,-0.549,66.667,12.000,1.000,2.543,0.000
711230.500,761138.300,748614.000,708226.900,791917.900,673022.900,693304.600,682179.000,-0.018,0.927,-0.406,-2.380,2.594,-0.366,66.667,13.000,1.000,2.486,0.000
712698.600,742120.500,733288.100,728772.300,745842.100,726345.400,700792.200,708250.800,-0.018,0.926,-0.402,-2.411,2.472,-0.244,66.667,14.000,1.000,2.544,0.000
742636.800,714973.400,723540.600,750473.600,698975.600,763575.300,685617.600,725533.300,-0.016,0.924,-0.403,-2.625,2.441,-0.092,66.667,15.000,1.000,2.411,0.000
744708.300,685922.900,731705.400,746342.300,652498.400,680895.800,602334.300,652653.900,-0.017,0.925,-0.401,-2.686,2.350,0.092,66.667,16.000,1.000,3.087,0.000
670795.400,629809.300,739164.200,713985.000,588121.700,513245.500,468750.300,505169.300,-0.017,0.923,-0.405,-2.808,2.106,0.305,66.667,17.000,1.000,0.008,0.000
565321.000,557039.400,734401.900,701357.400,512232.700,394547.700,362752.300,388798.100,-0.016,0.922,-0.402,-2.747,1.953,0.366,66.667,18.000,1.000,1.925,0.000
478578.600,462448.600,721436.500,716223.400,408618.900,366773.600,314419.300,341522.900,-0.017,0.918,-0.401,-2.777,1.801,0.549,66.667,19.000,1.000,4.399,0.000
422132.800,367967.600,712899.900,731966.200,317353.900,356838.100,297683.600,325958.200,-0.017,0.916,-0.402,-2.747,1.678,0.610,66.667,20.000,1.000,0.011,0.000
372560.200,308367.400,718491.800,728419.900,287042.900,310778.800,271492.200,293614.900,-0.016,0.914,-0.401,-2.625,1.526,0.671,66.667,21.000,1.000,8.174,0.000
318658.800,288832.400,723765.000,703928.400,289209.400,235003.600,218491.000,232265.600,-0.017,0.914,-0.404,-2.625,1.373,0.671,66.667,22.000,1.000,3.065,0.000
287146.600,292409.200,719672.000,693836.200,286706.400,196125.800,180524.700,192670.000,-0.016,0.914,-0.398,-2.747,1.190,0.671,66.667,23.000,1.000,0.011,0.000
279697.300,275996.700,709269.800,703763.900,250189.100,215338.700,178775.200,195842.800,-0.013,0.914,-0.398,-2.777,1.068,0.671,66.667,24.000,1.000,5.649,0.000
284184.400,245865.900,702126.700,714351.900,213511.600,240208.700,195856.500,215858.000,-0.013,0.917,-0.402,-2.777,1.007,0.580,66.667,25.000,1.000,8.724,0.000
282002.300,232127.900,705499.600,711275.600,218735.600,233393.400,201596.100,218474.500,-0.011,0.918,-0.402,-2.716,0.885,0.519,66.667,26.000,1.000,3.046,0.000
264442.600,238527.800,708789.900,693465.800,241057.600,196359.100,179454.500,191334.400,-0.011,0.920,-0.399,-2.716,0.671,0.305,66.667,27.000,1.000,0.011,0.000
248993.500,249100.100,705235.500,685554.500,246686.300,173871.500,156945.000,168178.400,-0.011,0.921,-0.400,-2.777,0.580,0.214,66.667,28.000,1.000,1.886,0.000
241820.300,236023.400,697050.800,691363.100,217337.100,185440.500,153780.000,168546.200,-0.011,0.923,-0.400,-2.808,0.580,0.092,66.667,29.000,1.000,11.268,0.000
242117.400,211253.800,691133.900,697644.800,186785.700,200611.900,163907.300,180526.400,-0.008,0.925,-0.402,-2.930,0.488,0.000,66.667,30.000,1.000,3.055,0.000
240204.600,200536.400,692642.400,694929.600,190496.200,196283.700,168273.700,182656.500,-0.007,0.928,-0.402,-3.113,0.366,-0.214,66.667,31.000,1.000,0.008,0.000
229605.600,206665.600,694236.900,682615.600,209471.400,172542.600,154362.300,165436.300,-0.007,0.928,-0.405,-3.235,0.275,-0.275,66.667,32.000,1.000,8.258,0.000
219658.800,215274.100,691117.200,676523.300,214846.300,157236.000,138906.700,149663.400,-0.005,0.929,-0.400,-3.357,0.275,-0.366,66.667,33.000,1.000,12.353,0.000
213349.800,205413.300,684790.600,679010.400,192297.000,163031.500,135184.700,148257.100,-0.005,0.927,-0.404,-3.540,0.397,-0.366,66.667,34.000,1.000,0.020,0.000
211619.300,186573.800,679916.200,681807.600,168458.800,171372.100,140659.000,154736.600,-0.004,0.927,-0.401,-3.693,0.397,-0.427,66.667,35.000,1.000,0.010,0.000
209840.900,178407.600,679908.000,679356.800,170799.500,168907.300,143757.100,156314.300,-0.004,0.926,-0.404,-3.784,0.397,-0.549,66.667,36.000,1.000,2.572,0.000
204047.300,183426.400,680099.400,671418.100,185901.700,155225.700,135889.700,146462.500,-0.004,0.921,-0.403,-3.967,0.519,-0.580,66.667,37.000,1.000,2.538,0.000
197924.300,189672.500,677318.400,666797.100,190353.500,145307.600,125780.000,136256.500,-0.005,0.918,-0.401,-3.937,0.580,-0.610,66.667,38.000,1.000,2.471,0.000
192144.900,182206.600,672500.900,666701.400,173427.200,146422.900,121566.000,133358.200,-0.006,0.914,-0.401,-3.876,0.702,-0.671,66.667,39.000,1.000,9.363,0.000
188735.400,168203.000,668487.300,666774.600,155262.700,149252.500,123232.100,135363.300,-0.006,0.912,-0.402,-3.815,0.793,-0.763,66.667,40.000,1.000,0.012,0.000
186831.100,161975.800,667288.300,664506.100,156255.600,147973.900,125045.300,136221.700,-0.008,0.912,-0.400,-3.754,0.793,-0.793,66.667,41.000,1.000,1.913,0.000
184416.000,165683.800,666357.200,659926.900,167599.100,141852.400,121626.100,131826.400,-0.006,0.914,-0.403,-3.754,0.854,-0.793,66.667,42.000,1.000,3.724,0.000
181001.700,169671.100,663829.900,656457.100,170921.500,136021.000,115597.400,125837.900,-0.004,0.915,-0.401,-3.754,1.068,-0.732,66.667,43.000,1.000,14.340,0.000
175637.800,164032.600,660198.400,654207.400,158614.000,133591.000,111074.000,121845.000,-0.004,0.915,-0.399,-3.540,1.221,-0.732,66.667,44.000,1.000,0.013,0.000
171015.000,153959.500,656874.100,650331.900,145210.300,132226.100,109821.400,120433.300,-0.004,0.916,-0.399,-3.479,1.282,-0.732,66.667,45.000,1.000,1.889,0.000
168932.200,149253.600,654777.600,643189.500,145059.000,131684.500,110498.500,120592.400,-0.006,0.915,-0.402,-3.357,1.404,-0.702,66.667,46.000,1.000,2.507,0.000
168840.000,151690.300,652981.400,634044.300,153030.700,131049.200,110251.100,120125.100,-0.008,0.916,-0.399,-3.326,1.404,-0.641,66.667,47.000,1.000,2.555,0.000
167370.400,153752.400,650635.400,624077.000,155268.300,128290.200,107304.900,117311.900,-0.010,0.917,-0.400,-3.265,1.404,-0.610,66.667,48.000,1.000,8.694,0.000
162461.100,149574.000,647901.900,613548.100,146747.200,123417.700,102725.600,112680.100,-0.009,0.917,-0.399,-3.174,1.465,-0.732,66.667,49.000,1.000,3.080,0.000
157080.200,142645.000,645111.800,603604.500,137265.100,119063.900,99387.200,108832.300,-0.010,0.916,-0.399,-3.174,1.495,-0.610,66.667,50.000,1.000,0.010,0.000
154827.100,139117.900,642372.100,596026.800,136202.200,118940.500,99123.610,108370.800,-0.009,0.917,-0.400,-2.991,1.617,-0.519,66.667,51.000,1.000,9.402,0.000
156227.100,140406.800,639938.400,590694.600,141284.500,122085.000,101021.300,110580.600,-0.008,0.920,-0.397,-2.930,1.556,-0.458,66.667,52.000,1.000,3.066,0.000
156069.500,140884.200,637714.300,583622.400,142539.300,121538.400,100309.200,110057.100,-0.011,0.918,-0.391,-2.869,1.648,-0.488,66.667,53.000,1.000,0.006,0.000
151622.100,137836.400,634763.600,574023.300,137030.600,115130.400,95859.070,105145.900,-0.010,0.918,-0.394,-2.777,1.587,-0.549,66.667,54.000,1.000,1.893,0.000
145873.000,133368.500,629367.900,564598.400,130703.300,108813.800,91148.230,99704.260,-0.010,0.917,-0.395,-2.777,1.617,-0.397,66.667,55.000,1.000,8.775,0.000
143508.300,130763.400,621516.500,558315.400,128972.500,108888.300,90152.720,98746.400,-0.010,0.916,-0.397,-2.716,1.648,-0.427,66.667,56.000,1.000,3.111,0.000
145792.300,131104.800,613597.900,555275.000,131686.100,114445.600,93387.380,102649.700,-0.011,0.915,-0.402,-2.716,1.678,-0.366,66.667,57.000,1.000,0.007,0.000
146499.000,130383.500,606489.400,549869.900,132119.100,115435.800,94236.160,103708.300,-0.012,0.915,-0.399,-2.655,1.587,-0.244,66.667,58.000,1.000,1.945,0.000
142549.500,128223.900,600175.100,541041.400,128955.800,108249.800,90075.540,98811.350,-0.010,0.915,-0.396,-2.686,1.587,-0.336,66.667,59.000,1.000,13.700,0.000
136757.200,125629.100,594033.900,532219.000,125099.900,100813.400,84585.140,92460.640,-0.008,0.914,-0.398,-2.594,1.709,-0.244,66.667,60.000,1.000,3.062,0.000
134335.800,123716.600,587049.100,526900.200,122911.500,100923.300,83042.210,91109.470,-0.010,0.916,-0.398,-2.411,1.709,-0.244,66.667,61.000,1.000,0.012,0.000
137006.900,123273.800,580327.500,525322.600,123726.700,107785.100,86949.710,95897.000,-0.009,0.914,-0.397,-2.411,1.648,-0.366,66.667,62.000,1.000,1.930,0.000
138176.300,121645.000,574467.400,521072.300,123458.800,109714.300,88761.630,97927.260,-0.008,0.913,-0.399,-2.380,1.617,-0.275,66.667,63.000,1.000,3.681,0.000
134706.700,120142.900,569433.300,512988.600,122032.600,102299.400,84965.480,93248.210,-0.009,0.914,-0.399,-2.319,1.709,-0.397,66.667,64.000,1.000,8.824,0.000
129135.700,118948.000,564355.600,504823.200,120065.700,94423.940,79181.380,86561.250,-0.008,0.916,-0.400,-2.136,1.678,-0.397,66.667,65.000,1.000,3.037,0.000
126771.100,117601.900,558058.400,500262.600,117656.400,94525.700,77323.520,84989.590,-0.009,0.920,-0.402,-2.075,1.709,-0.366,66.667,66.000,1.000,0.007,0.000
129539.200,116605.300,551993.600,499604.100,117075.700,101923.600,81486.450,90127.710,-0.010,0.921,-0.399,-2.197,1.678,-0.305,66.667,67.000,1.000,10.758,0.000
130917.800,114371.000,546978.000,496180.400,116278.300,104376.100,83848.970,92695.550,-0.008,0.923,-0.400,-2.197,1.648,-0.427,66.667,68.000,1.000,2.997,0.000
127907.300,113347.300,542895.800,488834.100,116094.500,97155.190,80476.590,88376.380,-0.008,0.922,-0.402,-2.289,1.648,-0.427,66.667,69.000,1.000,0.005,0.000
122719.600,113139.600,538634.900,481345.800,115509.500,89340.270,74750.640,81756.630,-0.010,0.922,-0.400,-2.228,1.617,-0.458,66.667,70.000,1.000,8.134,0.000
120442.300,112203.900,532924.100,477337.100,113018.800,89362.260,72708.250,80043.950,-0.008,0.923,-0.400,-2.289,1.617,-0.458,66.667,71.000,1.000,3.087,0.000
123056.000,110812.300,527406.200,477147.500,111430.700,96686.880,76768.570,85093.480,-0.007,0.924,-0.400,-2.380,1.709,-0.488,66.667,72.000,1.000,0.017,0.000
124468.800,108236.100,523047.500,474312.300,110267.400,99357.620,79366.750,87880.200,-0.007,0.925,-0.401,-2.380,1.678,-0.488,66.667,73.000,1.000,1.913,0.000
121912.100,107570.200,519663.600,467713.800,110938.000,92641.770,76457.470,84029.120,-0.007,0.925,-0.398,-2.472,1.709,-0.549,66.667,74.000,1.000,8.743,0.000
117207.900,108002.600,515996.000,460908.900,111298.000,85225.410,71029.520,77756.710,-0.005,0.923,-0.399,-2.502,1.678,-0.427,66.667,75.000,1.000,4.280,0.000
115045.900,107341.500,510793.000,457307.300,108826.600,85120.500,68912.360,75979.730,-0.005,0.920,-0.401,-2.655,1.617,-0.397,66.667,76.000,1.000,0.011,0.000
117357.700,105692.900,505757.500,457278.000,106565.800,91957.650,72644.840,80658.800,-0.007,0.922,-0.401,-2.747,1.740,-0.397,66.667,77.000,1.000,1.905,0.000
118664.500,102956.600,501893.600,454827.400,105147.100,94594.230,75229.790,83410.630,-0.004,0.923,-0.403,-2.716,1.740,-0.336,66.667,78.000,1.000,11.297,0.000
116510.400,102526.300,498987.800,448929.800,106328.500,88548.070,72759.730,80054.720,-0.003,0.921,-0.402,-2.838,1.770,-0.458,66.667,79.000,1.000,2.487,0.000
112358.500,103355.100,495762.500,442806.100,107301.200,81776.820,67795.240,74331.010,-0.003,0.917,-0.399,-2.960,1.801,-0.488,66.667,80.000,1.000,4.324,0.000
110372.300,102914.400,491043.800,439543.400,104969.800,81575.230,65719.350,72588.030,-0.003,0.918,-0.398,-2.930,1.740,-0.580,66.667,81.000,1.000,0.009,0.000
112328.000,101161.200,486469.800,439498.400,102351.200,87701.650,69012.660,76744.340,-0.002,0.918,-0.399,-3.021,1.831,-0.641,66.667,82.000,1.000,1.895,0.000
113468.600,98436.660,483013.500,437318.600,100812.800,90167.710,71445.130,79311.070,-0.006,0.913,-0.400,-2.991,1.923,-0.671,66.667,83.000,1.000,11.331,0.000
111690.900,98171.100,480457.800,432098.800,102277.000,84904.590,69414.630,76469.950,-0.006,0.911,-0.401,-2.960,1.923,-0.793,66.667,84.000,1.000,5.596,0.000
108108.100,99194.510,477563.200,426634.500,103600.800,78911.910,65021.060,71404.880,-0.008,0.911,-0.402,-2.838,2.014,-0.824,66.667,85.000,1.000,0.012,0.000
106292.600,98877.150,473261.900,423622.000,101443.500,78592.930,63041.770,69725.960,-0.010,0.912,-0.399,-2.747,1.923,-0.977,66.667,86.000,1.000,1.857,0.000
107834.400,97082.230,469073.500,423405.000,98650.770,83835.050,65798.450,73239.280,-0.011,0.919,-0.397,-2.747,1.892,-1.099,66.667,87.000,1.000,2.500,0.000
108742.500,94447.670,465905.400,421370.400,97043.210,85994.050,67938.680,75489.540,-0.013,0.922,-0.396,-2.838,1.892,-1.129,66.667,88.000,1.000,6.280,0.000
107266.000,94250.090,463551.800,416745.400,98567.480,81505.410,66271.050,73114.990,-0.013,0.923,-0.399,-2.930,1.740,-1.160,66.667,89.000,1.000,8.681,0.000
104224.900,95315.410,460885.500,411891.900,100027.900,76339.370,62476.440,68750.240,-0.012,0.922,-0.396,-3.052,1.617,-1.251,66.667,90.000,1.000,4.346,0.000
102604.500,95095.420,456981.100,409103.900,98101.660,75948.110,60665.480,67199.820,-0.011,0.920,-0.398,-3.113,1.434,-1.282,66.667,91.000,1.000,0.008,0.000
103756.600,93362.160,453169.300,408675.600,95331.860,80295.850,62902.820,70074.760,-0.011,0.918,-0.398,-3.113,1.434,-1.282,66.667,92.000,1.000,1.877,0.000
104427.100,90913.660,450247.700,406741.300,93744.640,82119.680,64722.940,71976.150,-0.013,0.919,-0.396,-3.113,1.312,-1.282,66.667,93.000,1.000,11.309,0.000
103213.100,90752.990,448037.300,402667.400,95211.910,78400.520,63394.230,70043.580,-0.014,0.918,-0.396,-3.052,1.251,-1.251,66.667,94.000,1.000,3.146,0.000
100677.400,91757.610,445539.300,398375.700,96661.880,74059.260,60199.020,66372.910,-0.014,0.916,-0.396,-3.113,1.190,-1.251,66.667,95.000,1.000,0.013,0.000
99234.520,91575.000,441973.400,395755.600,94961.590,73595.130,58564.690,64955.280,-0.016,0.914,-0.401,-3.174,1.038,-1.251,66.667,96.000,1.000,1.832,0.000
100012.700,89937.990,438484.900,395069.000,92319.200,77050.050,60287.310,67199.130,-0.014,0.913,-0.398,-3.143,0.977,-1.129,66.667,97.000,1.000,8.787,0.000
100451.700,87718.020,435758.400,393186.300,90801.110,78517.130,61762.770,68730.200,-0.012,0.914,-0.398,-3.143,0.854,-0.977,66.667,98.000,1.000,3.073,0.000
99458.160,87562.500,433636.200,389597.100,92124.440,75511.660,60717.260,67181.910,-0.010,0.913,-0.396,-2.930,0.946,-0.977,66.667,99.000,1.000,0.010,0.000
97380.950,88442.200,431259.600,385807.800,93463.590,71952.240,58084.050,64161.710,-0.008,0.910,-0.399,-2.808,0.916,-0.824,66.667,100.000,1.000,1.841,0.000
96106.120,88264.810,427991.100,383327.100,91984.370,71433.450,56633.450,62882.440,-0.010,0.912,-0.402,-2.655,0.977,-0.702,66.667,101.000,1.000,11.315,0.000
96544.690,86748.840,424785.600,382380.700,89540.360,74054.940,57879.820,64538.690,-0.010,0.913,-0.403,-2.594,1.007,-0.610,66.667,102.000,1.000,3.083,0.000
96767.730,84779.220,422216.800,380524.600,88123.340,75177.070,59021.010,65714.080,-0.009,0.918,-0.400,-2.563,1.038,-0.580,66.667,103.000,1.000,0.010,0.000
95957.580,84613.850,420151.700,377362.600,89255.330,72819.980,58224.530,64511.360,-0.010,0.919,-0.400,-2.502,1.007,-0.549,66.667,104.000,1.000,1.987,0.000
94290.500,85341.850,417874.300,374026.300,90431.960,69985.950,56121.340,62101.630,-0.009,0.922,-0.402,-2.472,1.099,-0.366,66.667,105.000,1.000,9.992,0.000
93179.000,85160.470,414874.100,371672.300,89172.100,69436.630,54864.450,60974.160,-0.010,0.926,-0.399,-2.594,1.068,-0.458,66.667,106.000,1.000,2.401,0.000
93320.000,83775.060,411907.500,370477.100,86962.320,71295.840,55676.860,62096.980,-0.009,0.928,-0.398,-2.563,1.068,-0.519,66.667,107.000,1.000,2.444,0.000
93331.530,82036.340,409445.600,368612.500,85641.770,72068.270,56477.360,62914.450,-0.009,0.933,-0.401,-2.808,1.038,-0.549,66.667,108.000,1.000,3.822,0.000
92647.780,81827.670,407397.700,365798.600,86535.880,70251.160,55858.820,61979.290,-0.006,0.938,-0.398,-2.899,1.129,-0.458,66.667,109.000,1.000,9.370,0.000
91317.500,82373.680,405186.700,362845.700,87499.380,68043.100,54206.270,60095.770,-0.004,0.940,-0.397,-3.113,1.160,-0.336,66.667,110.000,1.000,0.015,0.000
90354.360,82180.300,402425.700,360610.600,86439.320,67485.800,53136.670,59120.200,-0.002,0.941,-0.396,-3.387,1.251,-0.305,66.667,111.000,1.000,1.818,0.000
90274.400,80963.470,399697.900,359228.900,84512.480,68721.560,53611.250,59815.530,0.001,0.938,-0.394,-3.571,1.343,-0.122,66.667,112.000,1.000,8.827,0.000
90130.460,79477.410,397352.100,357373.800,83328.090,69211.130,54134.610,60339.070,0.002,0.936,-0.395,-3.784,1.495,-0.183,66.667,113.000,1.000,3.065,0.000
89549.410,79229.410,395319.100,354850.600,83990.160,67850.650,53658.230,59621.360,0.002,0.935,-0.395,-4.059,1.587,-0.183,66.667,114.000,1.000,0.018,0.000
88498.120,79592.800,393161.200,352216.500,84731.340,66175.120,52391.460,58181.190,0.000,0.930,-0.396,-4.272,1.862,-0.153,66.667,115.000,1.000,1.894,0.000
87652.220,79362.220,390592.600,350070.900,83836.160,65608.170,51483.500,57331.700,0.000,0.927,-0.396,-4.181,2.045,-0.122,66.667,116.000,1.000,8.708,0.000
87372.740,78274.600,388044.100,348513.000,82165.060,66293.680,51656.140,57650.820,-0.001,0.926,-0.395,-4.303,2.136,-0.122,66.667,117.000,1.000,14.365,0.000
87092.270,77005.910,385785.800,346661.800,81106.400,66523.980,51930.990,57917.700,-0.003,0.924,-0.392,-4.242,2.197,-0.366,66.667,118.000,1.000,0.012,0.000
86596.580,76725.700,383769.300,344394.400,81555.840,65539.010,51569.400,57385.930,-0.004,0.920,-0.389,-4.120,2.380,-0.427,66.667,119.000,1.000,1.871,0.000
85777.010,76923.550,381657.900,342035.100,82082.480,64302.640,50619.800,56319.020,-0.004,0.915,-0.389,-4.028,2.472,-0.610,66.667,120.000,1.000,2.517,0.000
85035.210,76660.080,379254.300,339966.500,81325.660,63730.730,49845.040,55578.450,-0.004,0.909,-0.386,-3.845,2.472,-0.793,66.667,121.000,1.000,6.203,0.000
84616.110,75713.450,376873.000,338274.800,79908.530,63982.410,49782.950,55602.300,-0.005,0.907,-0.390,-3.754,2.533,-1.007,66.667,122.000,1.000,3.727,0.000
84243.060,74659.950,374706.700,336437.000,78985.190,64017.740,49863.370,55665.370,-0.005,0.906,-0.393,-3.479,2.594,-1.190,66.667,123.000,1.000,4.305,0.000
83809.940,74352.160,372707.600,334369.800,79240.250,63336.200,49585.700,55270.420,-0.006,0.906,-0.394,-3.326,2.594,-1.312,66.667,124.000,1.000,0.009,0.000
83165.200,74394.820,370632.700,332225.100,79563.640,62458.580,48893.040,54499.980,-0.010,0.908,-0.390,-3.082,2.502,-1.556,66.667,125.000,1.000,8.855,0.000
82507.800,74098.200,368368.600,330229.300,78928.450,61909.200,48247.650,53865.040,-0.011,0.906,-0.388,-2.899,2.533,-1.740,66.667,126.000,1.000,0.030,0.000
81982.340,73273.660,366122.900,328443.900,77743.550,61830.510,48012.610,53665.050,-0.013,0.908,-0.391,-2.625,2.441,-1.770,66.667,127.000,1.000,2.406,0.000
81525.000,72390.340,364018.500,326612.500,76930.340,61696.880,47927.020,53552.160,-0.014,0.911,-0.390,-2.411,2.319,-1.892,66.667,128.000,1.000,0.009,0.000
81122.890,72046.230,362025.800,324698.100,77006.790,61237.730,47701.720,53248.470,-0.018,0.909,-0.390,-2.289,2.075,-1.923,66.667,129.000,1.000,8.192,0.000
80611.200,71955.780,359987.300,322731.900,77151.950,60643.590,47214.060,52712.650,-0.019,0.909,-0.387,-2.136,1.923,-2.014,66.667,130.000,1.000,7.486,0.000
80025.330,71628.410,357840.600,320802.900,76610.910,60119.860,46676.080,52167.530,-0.021,0.910,-0.388,-1.984,1.770,-2.136,66.667,131.000,1.000,2.559,0.000
79422.900,70901.160,355700.200,318943.100,75617.890,59784.860,46306.520,51794.170,-0.023,0.915,-0.388,-1.953,1.587,-2.258,66.667,132.000,1.000,2.393,0.000
78900.460,70154.410,353645.100,317111.400,74895.680,59513.270,46085.920,51539.440,-0.025,0.915,-0.389,-1.801,1.373,-2.258,66.667,133.000,1.000,2.538,0.000
78518.280,69784.400,351667.000,315314.300,74821.600,59212.830,45890.710,51297.660,-0.023,0.915,-0.390,-1.648,1.221,-2.136,66.667,134.000,1.000,3.767,0.000
78106.960,69589.190,349669.600,313490.100,74814.750,58825.880,45553.680,50936.650,-0.021,0.917,-0.393,-1.495,0.946,-2.014,66.667,135.000,1.000,9.366,0.000
77586.000,69242.060,347631.800,311628.000,74354.010,58328.610,45105.400,50469.950,-0.017,0.920,-0.395,-1.495,0.824,-2.014,66.667,136.000,1.000,0.011,0.000
76954.110,68614.960,345602.100,309745.700,73544.480,57823.100,44658.020,49993.140,-0.014,0.921,-0.391,-1.434,0.793,-1.984,66.667,137.000,1.000,1.835,0.000
76404.610,67994.590,343609.800,307940.800,72917.860,57459.040,44350.130,49649.540,-0.014,0.922,-0.391,-1.556,0.732,-1.801,66.667,138.000,1.000,3.775,0.000
76036.590,67602.950,341650.400,306237.600,72721.970,57266.380,44172.500,49449.730,-0.014,0.922,-0.395,-1.648,0.732,-1.587,66.667,139.000,1.000,8.672,0.000
75693.000,67317.910,339685.400,304522.200,72584.000,57024.450,43942.000,49212.300,-0.016,0.922,-0.396,-1.770,0.763,-1.434,66.667,140.000,1.000,4.400,0.000
75214.620,66946.100,337723.900,302714.500,72174.750,56545.730,43556.320,48801.250,-0.015,0.924,-0.400,-1.770,0.763,-1.190,66.667,141.000,1.000,0.010,0.000
74561.390,66390.440,335770.200,300820.900,71505.020,55917.350,43048.890,48249.040,-0.015,0.924,-0.398,-1.740,0.732,-1.068,66.667,142.000,1.000,1.910,0.000
73998.050,65870.070,333834.100,299045.400,70957.240,55489.620,42676.540,47843.350,-0.013,0.923,-0.398,-1.831,0.763,-0.885,66.667,143.000,1.000,8.667,0.000
73642.190,65472.550,331910.000,297421.000,70673.330,55372.950,42510.180,47673.480,-0.011,0.921,-0.396,-1.862,0.763,-0.824,66.667,144.000,1.000,4.309,0.000
73345.830,65128.390,329988.800,295793.000,70438.630,55237.360,42361.490,47526.190,-0.013,0.925,-0.396,-1.923,0.793,-0.671,66.667,145.000,1.000,0.008,0.000
72907.970,64747.870,328102.800,294039.900,70077.410,54794.290,42042.060,47170.370,-0.014,0.921,-0.399,-2.014,0.824,-0.519,66.667,146.000,1.000,13.340,0.000
72254.270,64252.640,326214.800,292153.500,69525.190,54102.530,41513.000,46581.280,-0.013,0.921,-0.402,-2.167,0.916,-0.427,66.667,147.000,1.000,3.013,0.000
71670.820,63791.180,324307.600,290389.100,69027.870,53620.060,41086.110,46119.350,-0.013,0.921,-0.400,-2.167,0.916,-0.458,66.667,148.000,1.000,0.012,0.000
71299.420,63367.520,322394.100,288800.200,68659.740,53524.170,40900.060,45940.520,-0.012,0.922,-0.400,-2.075,0.977,-0.519,66.667,149.000,1.000,1.790,0.000
71020.900,62967.510,320502.600,287226.300,68341.310,53441.640,40786.240,45834.460,-0.012,0.922,-0.397,-2.197,1.007,-0.397,66.667,150.000,1.000,2.613,0.000
70608.580,62576.320,318675.600,285519.600,68009.520,53026.160,40505.080,45513.120,-0.010,0.923,-0.400,-2.289,1.038,-0.183,66.667,151.000,1.000,3.661,0.000
69975.130,62141.160,316856.400,283668.200,67558.200,52319.690,39980.580,44921.660,-0.012,0.923,-0.400,-2.319,1.038,-0.275,66.667,152.000,1.000,9.404,0.000
69408.770,61753.240,315009.500,281949.500,67126.650,51833.570,39549.280,44452.540,-0.010,0.923,-0.398,-2.380,1.007,-0.244,66.667,153.000,1.000,0.012,0.000
69040.660,61336.430,313137.200,280410.000,66719.090,51764.360,39369.550,44281.480,-0.010,0.925,-0.396,-2.533,1.160,-0.275,66.667,154.000,1.000,1.896,0.000
68770.570,60905.690,311283.700,278887.300,66346.520,51715.680,39284.090,44204.260,-0.010,0.922,-0.393,-2.563,1.160,-0.275,66.667,155.000,1.000,14.327,0.000
68366.700,60499.130,309497.100,277217.900,66026.520,51315.130,39027.200,43903.070,-0.011,0.918,-0.394,-2.716,1.099,-0.305,66.667,156.000,1.000,0.011,0.000
67738.190,60088.250,307710.800,275386.300,65630.300,50594.940,38502.360,43304.820,-0.013,0.916,-0.397,-2.533,1.221,-0.366,66.667,157.000,1.000,2.479,0.000
67177.950,59737.290,305899.200,273693.300,65233.130,50095.670,38061.410,42826.610,-0.014,0.915,-0.396,-2.533,1.312,-0.336,66.667,158.000,1.000,0.006,0.000
66809.520,59323.210,304064.800,272186.300,64796.430,50022.060,37873.550,42654.120,-0.011,0.917,-0.397,-2.563,1.282,-0.397,66.667,159.000,1.000,13.204,0.000
66538.430,58871.590,302248.500,270697.800,64385.130,49978.290,37792.820,42585.360,-0.012,0.921,-0.395,-2.441,1.129,-0.336,66.667,160.000,1.000,3.592,0.000
66144.130,58460.220,300503.400,269068.400,64077.600,49600.630,37555.550,42306.710,-0.012,0.920,-0.393,-2.472,1.190,-0.336,66.667,161.000,1.000,0.008,0.000
65535.200,58072.630,298753.700,267277.500,63731.180,48901.800,37047.950,41730.760,-0.012,0.919,-0.396,-2.472,1.099,-0.305,66.667,162.000,1.000,0.003,0.000
64974.500,57732.570,296962.200,265605.300,63351.890,48394.110,36597.370,41246.190,-0.010,0.914,-0.398,-2.441,1.160,-0.305,66.667,163.000,1.000,3.203,0.000
64584.090,57304.230,295144.400,264107.600,62882.800,48292.050,36386.360,41049.640,-0.008,0.911,-0.397,-2.319,1.251,-0.214,66.667,164.000,1.000,0.006,0.000
64300.840,56838.850,293358.100,262643.300,62443.950,48239.240,36301.640,40974.960,-0.007,0.908,-0.395,-2.350,1.282,-0.244,66.667,165.000,1.000,28.215,0.000
63924.830,56434.570,291655.700,261060.200,62151.000,47891.190,36088.950,40721.390,-0.009,0.909,-0.395,-2.075,1.312,-0.244,66.667,166.000,1.000,3.619,0.000
63362.040,56080.470,289956.200,259330.700,61854.650,47243.830,35622.890,40188.920,-0.010,0.912,-0.400,-1.923,1.312,-0.153,66.667,167.000,1.000,0.011,0.000
62831.950,55767.790,288212.700,257703.400,61509.720,46763.090,35192.420,39726.090,-0.013,0.914,-0.400,-1.862,1.282,-0.427,66.667,168.000,1.000,0.004,0.000
62444.110,55353.810,286440.300,256229.300,61045.220,46651.700,34975.830,39521.900,-0.014,0.915,-0.398,-1.740,1.190,-0.336,66.667,169.000,1.000,3.723,0.000
62156.930,54897.550,284698.200,254786.100,60603.400,46590.030,34883.620,39436.070,-0.015,0.916,-0.401,-1.648,1.282,-0.519,66.667,170.000,1.000,0.008,0.000
61785.240,54494.530,283025.500,253229.000,60304.920,46253.750,34670.210,39185.160,-0.017,0.916,-0.399,-1.648,1.190,-0.671,66.667,171.000,1.000,0.003,0.000
61246.610,54147.040,281349.800,251538.700,60016.060,45635.740,34220.090,38676.110,-0.015,0.916,-0.396,-1.526,1.160,-0.763,66.667,172.000,1.000,2.566,0.000
60735.120,53838.980,279633.900,249942.000,59678.070,45162.380,33799.580,38224.500,-0.012,0.916,-0.401,-1.404,1.007,-0.854,66.667,173.000,1.000,2.577,0.000
60335.540,53419.850,277882.400,248473.200,59201.670,45009.670,33560.020,37992.400,-0.012,0.918,-0.399,-1.312,1.038,-0.854,66.667,174.000,1.000,2.359,0.000
60019.210,52951.310,276153.200,247028.300,58736.100,44901.640,33428.820,37862.890,-0.013,0.921,-0.398,-1.312,0.946,-0.885,66.667,175.000,1.000,8.779,0.000
59642.410,52547.420,274500.100,245497.100,58427.870,44573.050,33211.060,37604.230,-0.013,0.923,-0.398,-1.343,0.977,-0.824,66.667,176.000,1.000,3.035,0.000
59138.800,52222.130,272862.100,243865.900,58162.950,44016.600,32807.810,37138.930,-0.011,0.927,-0.398,-1.373,1.007,-0.793,66.667,177.000,1.000,0.008,0.000
58661.520,51937.450,271194.700,242318.400,57853.790,43583.210,32428.920,36724.860,-0.010,0.931,-0.400,-1.434,1.038,-0.671,66.667,178.000,1.000,1.923,0.000
58276.110,51544.190,269495.800,240879.000,57403.230,43417.390,32199.170,36496.030,-0.007,0.930,-0.404,-1.495,1.038,-0.549,66.667,179.000,1.000,13.815,0.000
57961.410,51097.820,267814.500,239460.900,56957.060,43288.550,32063.600,36359.870,-0.008,0.929,-0.406,-1.648,1.129,-0.519,66.667,180.000,1.000,3.113,0.000
57589.900,50698.490,266188.600,237962.000,56649.570,42967.320,31847.510,36111.440,-0.006,0.928,-0.404,-1.709,1.190,-0.305,66.667,181.000,1.000,0.010,0.000
57104.630,50364.530,264563.900,236368.100,56381.320,42443.640,31462.000,35676.860,-0.007,0.926,-0.403,-1.801,1.343,-0.275,66.667,182.000,1.000,1.958,0.000
56641.990,50069.700,262919.000,234846.400,56074.890,42024.980,31095.720,35283.300,-0.006,0.922,-0.400,-1.831,1.434,-0.336,66.667,183.000,1.000,2.278,0.000
56260.790,49686.890,261260.800,233424.100,55643.920,41839.430,30862.380,35052.390,-0.008,0.918,-0.398,-1.892,1.526,-0.244,66.667,184.000,1.000,7.720,0.000
55937.340,49254.970,259618.000,232019.600,55212.750,41689.140,30711.000,34900.520,-0.006,0.918,-0.402,-1.892,1.648,-0.336,66.667,185.000,1.000,2.430,0.000
55563.980,48860.130,258015.400,230543.900,54902.660,41380.270,30491.490,34653.050,-0.009,0.917,-0.400,-1.709,1.678,-0.336,66.667,186.000,1.000,6.287,0.000
55099.100,48526.810,256411.700,228990.700,54634.280,40903.020,30131.690,34250.720,-0.010,0.917,-0.398,-1.709,1.892,-0.275,66.667,187.000,1.000,2.432,0.000
54646.140,48221.570,254785.600,227491.300,54323.750,40502.040,29779.040,33871.710,-0.010,0.917,-0.399,-1.678,1.953,-0.305,66.667,188.000,1.000,3.795,0.000
54251.380,47834.320,253142.900,226067.200,53892.440,40281.330,29526.860,33615.890,-0.011,0.916,-0.400,-1.648,2.045,-0.458,66.667,189.000,1.000,9.342,0.000
53911.700,47413.000,251522.400,224668.900,53467.020,40098.770,29351.960,33434.420,-0.010,0.917,-0.401,-1.648,2.075,-0.549,66.667,190.000,1.000,0.010,0.000
53547.680,47037.680,249951.600,223231.000,53162.470,39808.230,29141.090,33193.960,-0.012,0.916,-0.400,-1.678,2.014,-0.732,66.667,191.000,1.000,1.857,0.000
53119.830,46724.420,248388.000,221737.300,52906.770,39390.600,28826.270,32835.670,-0.013,0.915,-0.399,-1.617,1.984,-0.732,66.667,192.000,1.000,3.854,0.000
52690.920,46424.840,246798.400,220272.900,52604.450,39019.170,28503.420,32481.710,-0.012,0.917,-0.399,-1.556,1.984,-0.793,66.667,193.000,1.000,8.612,0.000
52291.290,46041.090,245182.600,218854.000,52182.640,38771.570,28242.300,32209.750,-0.013,0.920,-0.400,-1.526,1.923,-0.885,66.667,194.000,1.000,3.074,0.000
51932.650,45624.440,243581.800,217457.000,51761.590,38552.910,28041.390,31997.350,-0.014,0.920,-0.400,-1.556,1.953,-1.038,66.667,195.000,1.000,0.011,0.000
51559.070,45246.610,242020.800,216033.200,51442.120,38255.230,27816.860,31744.560,-0.014,0.918,-0.399,-1.526,1.923,-1.068,66.667,196.000,1.000,10.634,0.000
51143.000,44925.080,240469.600,214571.500,51170.430,37863.290,27515.460,31407.310,-0.012,0.917,-0.398,-1.587,1.923,-1.099,66.667,197.000,1.000,3.126,0.000
50733.610,44623.230,238908.700,213142.000,50869.110,37514.100,27214.020,31079.830,-0.012,0.917,-0.402,-1.648,1.862,-1.007,66.667,198.000,1.000,0.014,0.000
50352.030,44262.960,237338.300,211754.100,50476.140,37267.040,26966.480,30817.150,-0.012,0.917,-0.400,-1.648,1.740,-1.007,66.667,199.000,1.000,1.869,0.000
50002.520,43875.520,235780.400,210381.600,50082.040,37045.230,26765.540,30598.020,-0.013,0.915,-0.401,-1.648,1.770,-1.038,66.667,200.000,1.000,14.425,0.000
49635.650,43508.750,234244.300,208981.300,49761.890,36758.330,26539.360,30342.870,-0.013,0.916,-0.402,-1.587,1.862,-1.068,66.667,201.000,1.000,0.017,0.000
49228.290,43178.010,232705.900,207544.300,49474.960,36387.470,26245.290,30017.320,-0.013,0.915,-0.403,-1.617,1.831,-1.007,66.667,202.000,1.000,1.891,0.000
48815.680,42854.610,231154.600,206123.600,49157.990,36034.740,25940.370,29692.320,-0.010,0.914,-0.405,-1.648,1.709,-1.007,66.667,203.000,1.000,6.302,0.000
48423.000,42487.470,229600.400,204738.100,48770.930,35759.230,25677.250,29419.950,-0.009,0.914,-0.400,-1.526,1.801,-0.946,66.667,204.000,1.000,2.434,0.000
48068.030,42112.810,228072.200,203382.400,48398.360,35523.120,25467.380,29198.260,-0.011,0.913,-0.402,-1.556,1.770,-0.854,66.667,205.000,1.000,2.538,0.000
47716.490,41768.400,226575.800,202022.200,48098.710,35260.030,25256.500,28965.180,-0.013,0.915,-0.404,-1.556,1.617,-0.793,66.667,206.000,1.000,2.990,0.000
47342.330,41459.070,225081.700,200640.200,47832.040,34942.320,25000.990,28681.640,-0.012,0.917,-0.404,-1.526,1.587,-0.763,66.667,207.000,1.000,0.007,0.000
46958.140,41151.570,223573.400,199264.800,47535.570,34629.060,24729.790,28388.460,-0.014,0.918,-0.401,-1.617,1.587,-0.732,66.667,208.000,1.000,3.138,0.000
46575.230,40799.840,222052.800,197903.000,47168.960,34353.080,24473.780,28117.820,-0.016,0.917,-0.400,-1.617,1.465,-0.610,66.667,209.000,1.000,13.888,0.000
46206.270,40426.800,220537.100,196549.100,46795.310,34089.280,24241.940,27869.310,-0.015,0.919,-0.403,-1.678,1.343,-0.610,66.667,210.000,1.000,3.086,0.000
45838.370,40069.790,219038.800,195189.900,46471.800,33804.470,24008.040,27613.560,-0.017,0.920,-0.404,-1.770,1.282,-0.702,66.667,211.000,1.000,0.069,0.000
45464.980,39745.780,217550.200,193824.000,46183.540,33490.300,23751.970,27333.370,-0.016,0.923,-0.404,-1.923,1.160,-0.702,66.667,212.000,1.000,1.894,0.000
45088.240,39427.960,216059.700,192465.000,45879.110,33182.630,23487.880,27046.580,-0.017,0.924,-0.403,-2.136,1.099,-0.641,66.667,213.000,1.000,3.185,0.000
44709.140,39079.370,214563.500,191114.600,45522.370,32896.220,23231.880,26770.070,-0.015,0.924,-0.400,-2.228,1.038,-0.610,66.667,214.000,1.000,7.875,0.000
44343.970,38721.840,213077.900,189778.400,45164.160,32623.180,22998.100,26515.380,-0.014,0.926,-0.401,-2.380,0.824,-0.610,66.667,215.000,1.000,3.117,0.000
43988.290,38383.870,211612.100,188448.300,44848.180,32350.180,22773.310,26268.090,-0.014,0.926,-0.404,-2.563,0.885,-0.671,66.667,216.000,1.000,0.007,0.000
43629.360,38068.860,210151.500,187115.000,44558.280,32062.500,22535.550,26007.490,-0.013,0.926,-0.405,-2.716,0.854,-0.610,66.667,217.000,1.000,1.876,0.000
43263.820,37755.410,208689.000,185785.400,44256.100,31774.020,22288.080,25739.220,-0.015,0.927,-0.404,-2.930,0.916,-0.580,66.667,218.000,1.000,13.858,0.000
42897.320,37425.450,207228.900,184464.200,43922.750,31497.960,22046.170,25476.760,-0.014,0.925,-0.403,-3.052,0.793,-0.641,66.667,219.000,1.000,2.463,0.000
42537.030,37086.340,205774.100,183149.300,43586.910,31230.780,21815.600,25223.070,-0.013,0.926,-0.401,-3.265,0.763,-0.458,66.667,220.000,1.000,3.027,0.000
42177.250,36749.970,204322.800,181832.500,43270.800,30960.820,21583.830,24968.360,-0.010,0.923,-0.402,-3.479,0.732,-0.458,66.667,221.000,1.000,0.015,0.000
41820.670,36431.550,202876.900,180520.100,42976.180,30685.160,21348.860,24713.400,-0.009,0.920,-0.401,-3.571,0.702,-0.366,66.667,222.000,1.000,1.925,0.000
41461.280,36116.500,201434.300,179211.900,42675.190,30405.320,21109.250,24455.390,-0.009,0.919,-0.401,-3.723,0.763,-0.427,66.667,223.000,1.000,8.688,0.000
41091.230,35782.710,199987.900,177899.300,42343.240,30117.230,20861.970,24188.080,-0.009,0.917,-0.401,-3.876,0.977,-0.458,66.667,224.000,1.000,4.339,0.000
40721.440,35439.300,198544.500,176590.100,42004.630,29830.860,20618.350,23922.150,-0.009,0.915,-0.403,-3.845,0.946,-0.580,66.667,225.000,1.000,0.007,0.000
40362.560,35103.750,197111.900,175294.200,41685.580,29553.740,20383.290,23665.610,-0.009,0.914,-0.404,-3.906,1.007,-0.610,66.667,226.000,1.000,8.135,0.000
40020.640,34789.290,195694.000,174016.100,41392.910,29286.510,20158.700,23422.590,-0.007,0.911,-0.405,-3.845,1.160,-0.549,66.667,227.000,1.000,2.460,0.000
39681.930,34483.070,194286.300,172744.300,41103.170,29021.000,19935.770,23182.930,-0.010,0.912,-0.404,-3.693,1.221,-0.610,66.667,228.000,1.000,3.890,0.000
39331.410,34167.560,192877.800,171465.300,40794.520,28745.480,19703.760,22931.740,-0.010,0.911,-0.402,-3.571,1.343,-0.671,66.667,229.000,1.000,6.170,0.000
38970.840,33840.790,191464.800,170181.100,40475.070,28465.710,19465.030,22672.060,-0.009,0.912,-0.402,-3.448,1.343,-0.610,66.667,230.000,1.000,4.313,0.000
38610.040,33509.850,190049.000,168899.100,40157.890,28191.340,19226.310,22415.120,-0.010,0.912,-0.398,-3.387,1.434,-0.580,66.667,231.000,1.000,0.010,0.000
38259.470,33187.690,188638.300,167626.300,39853.570,27927.270,18996.630,22167.410,-0.011,0.911,-0.399,-3.387,1.526,-0.580,66.667,232.000,1.000,10.674,0.000
37912.510,32872.610,187239.600,166358.700,39553.410,27663.090,18769.990,21919.860,-0.011,0.915,-0.399,-3.326,1.495,-0.519,66.667,233.000,1.000,3.080,0.000
37563.040,32559.900,185850.500,165094.500,39248.840,27388.770,18538.700,21666.090,-0.011,0.918,-0.401,-3.357,1.495,-0.458,66.667,234.000,1.000,0.016,0.000
37212.030,32243.910,184463.400,163834.800,38940.030,27114.090,18304.770,21409.120,-0.011,0.918,-0.398,-3.326,1.648,-0.366,66.667,235.000,1.000,1.910,0.000
36867.460,31926.850,183075.900,162582.000,38631.840,26851.690,18076.250,21158.530,-0.014,0.920,-0.399,-3.296,1.617,-0.275,66.667,236.000,1.000,11.244,0.000
36535.510,31617.400,181694.900,161338.400,38333.860,26601.610,17858.830,20920.140,-0.016,0.923,-0.399,-3.204,1.556,-0.214,66.667,237.000,1.000,4.274,0.000
36204.830,31312.400,180325.600,160095.300,38040.570,26346.530,17642.460,20681.400,-0.017,0.922,-0.397,-3.204,1.526,-0.244,66.667,238.000,1.000,0.010,0.000
35867.610,31010.700,178965.100,158850.500,37747.520,26076.330,17418.820,20435.470,-0.017,0.920,-0.399,-3.204,1.526,-0.092,66.667,239.000,1.000,8.250,0.000
35519.780,30702.230,177602.000,157604.400,37447.900,25799.410,17185.930,20183.780,-0.016,0.917,-0.396,-3.296,1.495,-0.122,66.667,240.000,1.000,2.453,0.000
35169.070,30383.790,176232.000,156362.400,37140.930,25531.730,16955.240,19936.270,-0.012,0.917,-0.393,-3.387,1.495,-0.061,66.667,241.000,1.000,4.864,0.000
34829.010,30067.150,174865.300,155132.300,36838.390,25280.390,16738.400,19701.840,-0.012,0.917,-0.396,-3.326,1.587,0.031,66.667,242.000,1.000,0.013,0.000
34495.300,29757.500,173510.000,153906.200,36540.490,25027.470,16523.330,19467.320,-0.011,0.917,-0.394,-3.326,1.587,0.031,66.667,243.000,1.000,0.003,0.000
34159.590,29456.400,172165.000,152679.800,36247.130,24760.440,16300.160,19223.220,-0.012,0.913,-0.400,-3.021,1.617,0.122,66.667,244.000,1.000,2.613,0.000
33817.040,29154.210,170822.000,151455.100,35952.400,24490.110,16071.280,18973.950,-0.011,0.911,-0.399,-2.960,1.709,0.092,66.667,245.000,1.000,8.767,0.000
33476.380,28847.440,169476.800,150237.500,35653.730,24230.650,15847.080,18731.540,-0.011,0.911,-0.401,-2.808,1.678,0.122,66.667,246.000,1.000,9.345,0.000
33147.030,28540.330,168135.700,149030.300,35359.050,23982.720,15633.920,18501.680,-0.011,0.911,-0.401,-2.655,1.709,0.092,66.667,247.000,1.000,0.013,0.000
32820.440,28233.460,166803.900,147825.300,35068.100,23728.300,15421.430,18271.420,-0.012,0.910,-0.397,-2.502,1.770,0.031,66.667,248.000,1.000,8.745,0.000
32489.480,27934.290,165481.100,146621.100,34783.840,23462.720,15204.250,18034.860,-0.011,0.912,-0.397,-2.319,1.770,0.000,66.667,249.000,1.000,0.018,0.000
32152.570,27637.980,164160.500,145418.400,34498.640,23199.600,14983.600,17794.550,-0.013,0.916,-0.398,-2.167,1.770,0.000,66.667,250.000,1.000,6.269,0.000
31822.340,27341.230,162839.900,144223.800,34208.230,22952.610,14770.630,17560.630,-0.014,0.917,-0.398,-2.075,1.709,0.031,66.667,251.000,1.000,0.048,0.000
31504.340,27044.090,161523.300,143039.500,33919.230,22719.670,14569.260,17338.530,-0.013,0.918,-0.397,-2.045,1.678,-0.092,66.667,252.000,1.000,8.561,0.000
31180.380,26739.880,160207.200,141848.800,33627.840,22472.280,14358.090,17110.460,-0.012,0.919,-0.396,-2.045,1.648,-0.061,66.667,253.000,1.000,0.013,0.000
30849.140,26440.760,158897.400,140654.900,33343.040,22207.040,14135.720,16872.030,-0.012,0.919,-0.396,-1.984,1.709,-0.153,66.667,254.000,1.000,8.809,0.000
30518.630,26151.350,157597.700,139468.600,33063.940,21947.260,13915.540,16632.860,-0.012,0.920,-0.395,-2.045,1.770,-0.183,66.667,255.000,1.000,0.015,0.000
30192.380,25860.980,156298.800,138291.000,32778.060,21700.990,13702.730,16401.010,-0.016,0.920,-0.399,-1.984,1.678,-0.122,66.667,256.000,1.000,6.151,0.000
29871.480,25563.100,154999.500,137120.400,32487.460,21461.930,13496.850,16178.770,-0.014,0.921,-0.398,-2.075,1.526,-0.305,66.667,257.000,1.000,0.008,0.000
29548.790,25259.500,153703.600,135947.100,32196.470,21212.360,13286.750,15951.790,-0.011,0.923,-0.396,-2.228,1.495,-0.366,66.667,258.000,1.000,2.455,0.000
29219.850,24958.930,152410.500,134768.800,31909.460,20946.220,13065.720,15710.400,-0.013,0.923,-0.398,-2.228,1.526,-0.397,66.667,259.000,1.000,0.007,0.000
28889.020,24662.290,151121.000,133593.000,31622.910,20680.930,12839.980,15463.610,-0.012,0.925,-0.395,-2.258,1.556,-0.397,66.667,260.000,1.000,13.266,0.000
28569.540,24371.910,149839.800,132431.000,31337.040,20435.760,12625.810,15230.980,-0.011,0.927,-0.398,-2.319,1.404,-0.580,66.667,261.000,1.000,4.280,0.000
28262.670,24086.610,148568.600,131282.500,31055.720,20208.580,12427.610,15015.370,-0.008,0.924,-0.398,-2.472,1.434,-0.610,66.667,262.000,1.000,0.009,0.000
27956.600,23802.190,147304.500,130135.600,30778.570,19976.980,12231.140,14799.490,-0.011,0.922,-0.397,-2.655,1.404,-0.580,66.667,263.000,1.000,8.762,0.000
27646.780,23522.490,146045.600,128988.100,30509.560,19732.650,12029.760,14576.890,-0.009,0.921,-0.398,-2.716,1.373,-0.671,66.667,264.000,1.000,0.010,0.000
27331.120,23242.490,144786.600,127841.900,30238.450,19484.270,11823.580,14350.270,-0.009,0.919,-0.402,-2.899,1.373,-0.763,66.667,265.000,1.000,6.212,0.000
27015.220,22957.880,143525.200,126700.800,29957.450,19242.300,11618.650,14127.550,-0.012,0.919,-0.401,-2.777,1.465,-0.824,66.667,266.000,1.000,0.009,0.000
26704.040,22668.560,142266.300,125566.600,29672.440,19006.570,11417.400,13911.330,-0.012,0.915,-0.402,-2.838,1.495,-0.854,66.667,267.000,1.000,8.792,0.000
26388.860,22372.930,141008.700,124428.300,29384.880,18757.280,11207.290,13686.290,-0.013,0.913,-0.405,-2.838,1.404,-0.977,66.667,268.000,1.000,0.014,0.000
26067.890,22080.290,139753.700,123286.200,29102.690,18493.560,10988.200,13449.960,-0.012,0.911,-0.401,-2.960,1.343,-0.977,66.667,269.000,1.000,6.140,0.000
25749.550,21797.700,138507.200,122151.600,28829.390,18237.280,10773.020,13217.060,-0.011,0.911,-0.404,-2.808,1.343,-0.977,66.667,270.000,1.000,0.011,0.000
25440.000,21520.950,137268.300,121029.600,28559.750,17998.580,10568.830,12997.860,-0.011,0.913,-0.403,-2.716,1.434,-0.977,66.667,271.000,1.000,5.742,0.000
25137.770,21244.220,136035.700,119917.000,28292.280,17773.590,10374.380,12791.510,-0.013,0.916,-0.405,-2.716,1.312,-1.007,66.667,272.000,1.000,4.238,0.000
24835.630,20966.610,134808.200,118804.500,28026.610,17547.100,10180.630,12583.620,-0.012,0.917,-0.406,-2.716,1.251,-0.824,66.667,273.000,1.000,0.006,0.000
24527.650,20687.750,133581.800,117686.800,27761.700,17307.750,9979.160,12362.370,-0.015,0.919,-0.403,-2.930,1.282,-0.793,66.667,274.000,1.000,3.324,0.000
24215.640,20406.550,132356.000,116569.400,27493.300,17062.390,9771.406,12135.070,-0.018,0.920,-0.401,-2.960,1.068,-0.702,66.667,275.000,1.000,8.647,0.000
23909.990,20128.380,131135.900,115463.400,27223.340,16826.890,9570.229,11919.120,-0.018,0.925,-0.403,-3.113,1.007,-0.671,66.667,276.000,1.000,3.124,0.000
23611.290,19852.420,129921.700,114367.400,26953.800,16602.890,9379.271,11714.780,-0.019,0.927,-0.401,-3.204,1.007,-0.610,66.667,277.000,1.000,0.013,0.000
23309.980,19575.740,128709.100,113269.500,26683.400,16375.320,9188.055,11507.160,-0.018,0.928,-0.400,-3.448,0.885,-0.488,66.667,278.000,1.000,10.662,0.000
23004.200,19303.600,127498.800,112169.900,26416.910,16140.520,8992.428,11291.880,-0.018,0.930,-0.403,-3.571,0.702,-0.427,66.667,279.000,1.000,2.927,0.000
22698.220,19035.320,126293.700,111074.500,26152.750,15905.900,8794.053,11073.670,-0.017,0.932,-0.406,-3.723,0.641,-0.244,66.667,280.000,1.000,0.007,0.000
22393.490,18763.170,125090.400,109983.700,25884.150,15673.430,8594.900,10856.260,-0.014,0.930,-0.403,-3.876,0.488,-0.122,66.667,281.000,1.000,2.023,0.000
22085.290,18480.790,123883.500,108893.000,25608.280,15440.140,8395.302,10637.960,-0.011,0.930,-0.399,-4.028,0.519,-0.153,66.667,282.000,1.000,8.693,0.000
21779.160,18198.560,122681.700,107805.600,25335.570,15207.180,8198.876,10421.420,-0.009,0.928,-0.398,-4.242,0.549,-0.092,66.667,283.000,1.000,2.557,0.000
21485.860,17930.760,121496.300,106729.100,25076.260,14977.360,8008.368,10211.610,-0.004,0.927,-0.397,-4.425,0.732,0.000,66.667,284.000,1.000,2.457,0.000
21198.230,17668.750,120319.100,105657.800,24818.660,14747.330,7817.279,10002.440,-0.001,0.923,-0.397,-4.395,0.824,0.122,66.667,285.000,1.000,8.868,0.000
20904.830,17399.180,119136.200,104583.800,24552.170,14515.790,7622.351,9788.406,0.001,0.920,-0.399,-4.486,0.977,0.366,66.667,286.000,1.000,2.968,0.000
20605.520,17122.860,117949.700,103508.400,24281.210,14286.160,7427.072,9571.344,0.001,0.919,-0.398,-4.456,1.160,0.397,66.667,287.000,1.000,0.012,0.000
20307.660,16849.130,116769.400,102436.500,24015.040,14058.350,7234.187,9356.098,0.001,0.920,-0.397,-4.395,1.373,0.427,66.667,288.000,1.000,11.996,0.000
20013.400,16580.900,115596.500,101369.500,23755.450,13826.150,7040.370,9143.925,0.000,0.922,-0.397,-4.364,1.740,0.458,66.667,289.000,1.000,3.077,0.000
19718.800,16314.220,114426.100,100305.600,23495.150,13587.750,6842.540,8930.597,0.000,0.920,-0.397,-4.364,1.892,0.488,66.667,290.000,1.000,0.049,0.000
19426.520,16050.030,113259.800,99248.050,23234.280,13353.000,6646.567,8717.569,0.000,0.919,-0.395,-4.181,1.953,0.427,66.667,291.000,1.000,1.908,0.000
19140.780,15788.940,112102.200,98199.840,22977.930,13127.940,6457.888,8511.066,0.000,0.917,-0.393,-4.211,2.289,0.336,66.667,292.000,1.000,6.090,0.000
18858.570,15528.660,110950.800,97157.000,22726.260,12906.720,6274.258,8310.384,-0.002,0.917,-0.394,-4.181,2.411,0.305,66.667,293.000,1.000,2.581,0.000
18577.050,15270.370,109802.800,96116.400,22479.360,12686.800,6092.618,8111.137,-0.002,0.914,-0.396,-4.059,2.594,0.153,66.667,294.000,1.000,2.468,0.000
18297.630,15016.120,108659.900,95079.270,22235.620,12469.910,5912.400,7913.322,-0.004,0.917,-0.394,-3.967,2.655,0.122,66.667,295.000,1.000,8.869,0.000
18018.360,14761.690,107519.900,94044.980,21988.660,12252.760,5731.328,7717.511,-0.005,0.917,-0.394,-3.754,2.777,-0.061,66.667,296.000,1.000,3.059,0.000
17734.470,14501.330,106378.400,93010.140,21735.250,12032.340,5546.321,7520.009,-0.008,0.917,-0.395,-3.632,2.747,-0.183,66.667,297.000,1.000,0.010,0.000
17448.480,14238.910,105237.200,91975.860,21481.220,11810.730,5359.806,7319.247,-0.010,0.917,-0.392,-3.540,2.747,-0.427,66.667,298.000,1.000,10.582,0.000
17163.590,13979.210,104098.700,90944.200,21230.140,11590.030,5174.157,7116.874,-0.010,0.915,-0.390,-3.479,2.808,-0.549,66.667,299.000,1.000,3.044,0.000
16879.080,13721.640,102964.400,89916.130,20980.000,11370.370,4988.732,6915.433,-0.011,0.914,-0.390,-3.387,2.808,-0.824,66.667,300.000,1.000,0.010,0.000
16595.800,13464.600,101834.500,88892.760,20729.310,11152.000,4804.095,6717.179,-0.014,0.912,-0.388,-3.326,2.686,-0.916,66.667,301.000,1.000,1.930,0.000
16313.530,13205.960,100707.100,87871.640,20476.600,10936.020,4621.022,6520.538,-0.013,0.911,-0.392,-3.174,2.655,-1.038,66.667,302.000,1.000,11.342,0.000
16033.210,12949.100,99584.890,86853.160,20226.650,10724.330,4441.390,6325.801,-0.014,0.912,-0.388,-2.991,2.441,-1.129,66.667,303.000,1.000,3.034,0.000
15752.170,12694.560,98468.270,85837.790,19980.410,10513.010,4261.850,6131.170,-0.016,0.911,-0.390,-2.808,2.441,-1.221,66.667,304.000,1.000,0.005,0.000
15468.270,12439.260,97354.520,84825.320,19731.930,10298.090,4078.953,5934.348,-0.014,0.911,-0.392,-2.533,2.289,-1.343,66.667,305.000,1.000,1.954,0.000
15185.220,12183.580,96243.270,83816.810,19480.070,10081.350,3894.744,5736.713,-0.014,0.912,-0.393,-2.319,2.136,-1.312,66.667,306.000,1.000,8.679,0.000
14906.550,11929.540,95136.020,82813.010,19228.710,9866.270,3712.789,5539.975,-0.013,0.915,-0.394,-2.350,2.014,-1.221,66.667,307.000,1.000,3.049,0.000
14635.450,11682.120,94037.290,81817.360,18984.710,9657.560,3538.084,5348.910,-0.013,0.915,-0.393,-2.136,2.106,-1.160,66.667,308.000,1.000,0.005,0.000
14366.050,11437.540,92943.690,80825.590,18744.940,9451.245,3365.746,5159.887,-0.015,0.917,-0.392,-2.106,2.014,-0.977,66.667,309.000,1.000,1.917,0.000
14092.350,11188.520,91849.400,79831.490,18501.560,9240.466,3188.784,4966.006,-0.017,0.919,-0.391,-2.045,1.923,-0.824,66.667,310.000,1.000,13.770,0.000
13817.220,10936.770,90755.110,78836.640,18254.470,9025.659,3008.157,4767.390,-0.018,0.918,-0.392,-1.923,1.801,-0.793,66.667,311.000,1.000,2.580,0.000
13540.970,10684.420,89661.060,77842.690,18004.880,8807.817,2825.017,4564.866,-0.018,0.918,-0.393,-1.770,1.617,-0.671,66.667,312.000,1.000,2.427,0.000
13263.620,10432.810,88569.460,76852.580,17756.380,8590.324,2642.940,4363.951,-0.018,0.918,-0.395,-1.740,1.587,-0.458,66.667,313.000,1.000,7.525,0.000
12988.840,10185.110,87485.740,75870.800,17513.970,8379.267,2466.633,4170.985,-0.019,0.917,-0.396,-1.709,1.465,-0.366,66.667,314.000,1.000,3.009,0.000
12719.610,9943.593,86412.090,74897.650,17278.040,8175.128,2295.483,3983.905,-0.015,0.919,-0.395,-1.678,1.343,-0.244,66.667,315.000,1.000,0.007,0.000
12454.010,9705.941,85344.710,73928.660,17044.630,7972.525,2124.218,3795.379,-0.016,0.922,-0.393,-1.617,1.282,-0.122,66.667,316.000,1.000,1.946,0.000
12186.430,9465.974,84278.250,72958.380,16808.540,7766.238,1948.710,3601.426,-0.014,0.923,-0.392,-1.709,1.038,-0.031,66.667,317.000,1.000,3.738,0.000
11914.190,9220.728,83210.210,71985.760,16568.780,7555.530,1770.003,3404.327,-0.013,0.924,-0.393,-1.678,1.068,0.000,66.667,318.000,1.000,11.323,0.000
11643.200,8976.630,82145.330,71018.070,16332.390,7348.011,1595.342,3211.420,-0.013,0.923,-0.396,-1.709,0.977,0.061,66.667,319.000,1.000,3.088,0.000
11381.590,8742.185,81091.480,70062.870,16105.610,7151.467,1430.762,3029.534,-0.014,0.924,-0.396,-1.740,0.916,0.122,66.667,320.000,1.000,0.024,0.000
11126.460,8513.710,80046.900,69116.270,15883.220,6961.308,1271.802,2854.580,-0.014,0.924,-0.398,-1.678,0.885,0.183,66.667,321.000,1.000,1.859,0.000
10866.260,8278.770,78999.780,68166.540,15653.340,6765.619,1107.503,2674.042,-0.013,0.924,-0.396,-1.709,0.916,0.000,66.667,322.000,1.000,6.172,0.000
10598.520,8035.110,77946.240,67211.600,15414.600,6562.162,935.240,2486.910,-0.011,0.925,-0.395,-1.923,0.793,0.031,66.667,323.000,1.000,4.309,0.000
10332.680,7793.438,76895.940,66261.470,15178.230,6360.972,764.858,2304.494,-0.009,0.926,-0.396,-1.984,0.885,-0.061,66.667,324.000,1.000,0.007,0.000
10071.380,7557.364,75852.600,65318.400,14947.370,6164.944,600.400,2126.307,-0.010,0.927,-0.399,-2.075,0.793,-0.153,66.667,325.000,1.000,30.773,0.000
9810.644,7322.573,74813.410,64377.950,14717.490,5970.040,438.653,1947.622,-0.010,0.928,-0.398,-2.136,0.916,-0.153,66.667,326.000,1.000,2.969,0.000
9553.078,7090.482,73781.170,63442.210,14490.370,5777.585,279.717,1773.794,-0.009,0.928,-0.395,-2.228,0.946,-0.183,66.667,327.000,1.000,0.015,0.000
9297.056,6857.872,72752.310,62507.990,14262.560,5583.072,117.243,1599.792,-0.008,0.928,-0.395,-2.350,1.068,-0.153,66.667,328.000,1.000,1.908,0.000
9037.894,6619.306,71719.990,61570.380,14028.010,5381.036,-53.424,1418.053,-0.009,0.925,-0.396,-2.411,1.160,-0.183,66.667,329.000,1.000,2.452,0.000
8778.119,6378.161,70687.090,60633.980,13790.800,5175.163,-226.068,1233.897,-0.009,0.918,-0.398,-2.472,1.160,-0.092,66.667,330.000,1.000,2.546,0.000
8519.022,6137.510,69658.640,59701.520,13555.370,4968.693,-397.230,1049.839,-0.009,0.917,-0.398,-2.502,1.129,-0.183,66.667,331.000,1.000,2.504,0.000
8260.003,5898.014,68636.120,58772.500,13321.920,4762.941,-567.955,864.705,-0.008,0.913,-0.402,-2.502,1.251,-0.305,66.667,332.000,1.000,2.492,0.000
8003.711,5661.957,67619.640,57849.450,13091.040,4560.604,-737.249,680.189,-0.007,0.915,-0.400,-2.258,1.343,-0.336,66.667,333.000,1.000,2.434,0.000
7755.196,5433.909,66612.310,56936.090,12866.530,4365.906,-900.422,501.016,-0.006,0.918,-0.398,-2.289,1.373,-0.366,66.667,334.000,1.000,2.565,0.000
7511.635,5211.760,65612.390,56028.290,12647.350,4176.213,-1058.519,327.690,-0.007,0.916,-0.396,-2.228,1.465,-0.397,66.667,335.000,1.000,2.483,0.000
7265.028,4988.122,64612.950,55119.270,12426.840,3984.387,-1217.706,153.978,-0.007,0.914,-0.396,-2.167,1.587,-0.366,66.667,336.000,1.000,3.007,0.000
7017.092,4764.004,63614.790,54212.510,12205.010,3791.234,-1377.833,-21.272,-0.007,0.910,-0.396,-2.106,1.709,-0.427,66.667,337.000,1.000,0.008,0.000
6771.636,4541.444,62621.000,53311.650,11983.210,3597.640,-1539.990,-196.907,-0.007,0.909,-0.394,-2.014,1.801,-0.336,66.667,338.000,1.000,1.917,0.000
6524.858,4315.369,61628.240,52411.240,11757.110,3399.223,-1709.367,-377.516,-0.008,0.911,-0.399,-1.831,1.862,-0.366,66.667,339.000,1.000,14.482,0.000
6276.553,4085.781,60635.910,51509.930,11528.760,3199.033,-1881.216,-562.379,-0.010,0.913,-0.398,-1.801,1.892,-0.488,66.667,340.000,1.000,0.009,0.000
6032.891,3860.383,59649.790,50614.300,11306.000,3006.182,-2045.417,-743.267,-0.013,0.915,-0.396,-1.740,1.862,-0.641,66.667,341.000,1.000,1.914,0.000
5795.966,3642.992,58672.400,49727.110,11089.760,2823.154,-2200.283,-917.450,-0.015,0.917,-0.395,-1.678,1.831,-0.732,66.667,342.000,1.000,5.004,0.000
5561.811,3429.861,57700.600,48844.820,10875.820,2645.066,-2351.002,-1088.075,-0.017,0.914,-0.401,-1.709,1.648,-0.854,66.667,343.000,1.000,5.017,0.000
5323.472,3213.740,56728.560,47961.200,10659.910,2464.080,-2504.607,-1260.024,-0.018,0.915,-0.398,-1.617,1.648,-0.946,66.667,344.000,1.000,2.322,0.000
5078.364,2992.026,55753.790,47074.200,10440.540,2277.052,-2663.760,-1435.788,-0.016,0.916,-0.400,-1.648,1.495,-1.068,66.667,345.000,1.000,2.645,0.000
4830.186,2767.085,54778.930,46187.090,10218.870,2086.888,-2825.150,-1612.613,-0.015,0.922,-0.399,-1.678,1.465,-1.068,66.667,346.000,1.000,2.428,0.000
4586.746,2544.695,53810.310,45306.360,10000.570,1899.447,-2981.996,-1783.429,-0.016,0.923,-0.399,-1.648,1.526,-1.129,66.667,347.000,1.000,4.347,0.000
4353.738,2331.562,52853.800,44437.680,9792.601,1721.617,-3128.087,-1942.630,-0.015,0.923,-0.401,-1.648,1.312,-1.068,66.667,348.000,1.000,0.010,0.000
4123.522,2122.004,51902.580,43574.580,9588.595,1548.711,-3269.575,-2098.389,-0.013,0.922,-0.401,-1.801,1.282,-1.068,66.667,349.000,1.000,13.062,0.000
3887.657,1906.469,50947.570,42708.830,9378.609,1369.626,-3418.306,-2261.693,-0.011,0.923,-0.403,-1.770,1.221,-1.038,66.667,350.000,1.000,3.090,0.000
3651.267,1690.466,49995.070,41845.500,9167.956,1187.464,-3571.034,-2427.772,-0.011,0.924,-0.402,-1.984,1.190,-0.946,66.667,351.000,1.000,0.007,0.000
3415.848,1478.341,49047.960,40985.970,8960.366,1007.068,-3721.397,-2591.462,-0.010,0.923,-0.402,-1.984,1.312,-0.916,66.667,352.000,1.000,1.956,0.000
3176.603,1265.183,48100.470,40124.940,8750.480,825.996,-3871.652,-2754.868,-0.009,0.923,-0.401,-2.136,1.373,-0.793,66.667,353.000,1.000,2.447,0.000
2937.515,1051.901,47155.530,39266.440,8539.115,645.310,-4022.423,-2917.233,-0.007,0.922,-0.398,-2.136,1.465,-0.641,66.667,354.000,1.000,8.754,0.000
2700.592,838.506,46214.200,38412.110,8327.161,463.351,-4175.295,-3081.385,-0.007,0.921,-0.399,-2.106,1.495,-0.458,66.667,355.000,1.000,20.599,0.000
2466.932,627.147,45277.860,37562.130,8118.220,282.926,-4326.645,-3245.218,-0.007,0.921,-0.401,-2.136,1.526,-0.458,66.667,356.000,1.000,0.022,0.000
2241.195,425.007,44352.810,36721.860,7919.456,111.791,-4469.749,-3401.834,-0.008,0.921,-0.404,-2.258,1.648,-0.366,66.667,357.000,1.000,0.008,0.000
2013.260,221.441,43428.290,35881.820,7718.507,-61.108,-4615.756,-3563.224,-0.009,0.920,-0.403,-2.289,1.740,-0.275,66.667,358.000,1.000,0.008,0.000
1774.949,5.186,42494.040,35032.130,7502.933,-246.896,-4774.055,-3737.797,-0.010,0.921,-0.402,-2.380,1.831,-0.153,66.667,359.000,1.000,4.321,0.000
1541.396,-208.434,41565.180,34186.840,7289.325,-429.355,-4927.525,-3907.260,-0.010,0.921,-0.397,-2.411,1.831,-0.122,66.667,360.000,1.000,0.007,0.000
1318.847,-410.995,40649.650,33354.230,7087.333,-600.002,-5068.298,-4064.310,-0.010,0.920,-0.400,-2.319,1.923,-0.275,66.667,361.000,1.000,0.003,0.000
1092.234,-617.496,39733.270,32522.120,6881.407,-775.322,-5213.814,-4224.302,-0.012,0.917,-0.396,-2.380,1.892,-0.275,66.667,362.000,1.000,3.909,0.000
857.560,-832.312,38812.060,31687.340,6667.507,-958.627,-5367.886,-4390.453,-0.012,0.918,-0.397,-2.441,1.831,-0.244,66.667,363.000,1.000,3.643,0.000
623.598,-1045.733,37894.950,30857.640,6456.058,-1138.379,-5518.133,-4553.805,-0.012,0.918,-0.399,-2.472,1.770,-0.336,66.667,364.000,1.000,19.429,0.000
388.956,-1259.089,36980.020,30030.120,6245.586,-1317.246,-5666.451,-4716.736,-0.013,0.917,-0.399,-2.472,1.648,-0.305,66.667,365.000,1.000,0.020,0.000
148.047,-1479.003,36060.910,29198.140,6029.291,-1503.928,-5823.392,-4886.333,-0.012,0.917,-0.399,-2.441,1.648,-0.336,66.667,366.000,1.000,2.988,0.000
-90.779,-1696.855,35146.380,28369.690,5814.942,-1691.024,-5982.265,-5055.883,-0.011,0.915,-0.398,-2.411,1.648,-0.427,66.667,367.000,1.000,0.026,0.000
-316.960,-1901.623,34247.380,27555.530,5612.715,-1866.688,-6129.041,-5215.855,-0.011,0.912,-0.401,-2.350,1.526,-0.488,66.667,368.000,1.000,0.023,0.000
-535.660,-2099.366,33357.890,26750.160,5417.145,-2033.941,-6266.017,-5369.631,-0.013,0.911,-0.400,-2.136,1.495,-0.549,66.667,369.000,1.000,2.467,0.000
-755.736,-2299.330,32468.640,25943.800,5220.119,-2201.703,-6403.024,-5522.252,-0.013,0.912,-0.397,-2.136,1.465,-0.580,66.667,370.000,1.000,2.463,0.000
-972.680,-2495.425,31585.390,25140.990,5027.592,-2366.569,-6537.648,-5668.996,-0.012,0.912,-0.396,-2.045,1.434,-0.610,66.667,371.000,1.000,8.862,0.000
-1182.514,-2682.215,30713.500,24347.100,4844.232,-2523.979,-6666.990,-5810.324,-0.011,0.911,-0.396,-2.014,1.465,-0.671,66.667,372.000,1.000,9.199,0.000
-1395.817,-2871.648,29841.940,23553.010,4658.800,-2683.713,-6801.161,-5958.179,-0.014,0.914,-0.400,-1.923,1.465,-0.671,66.667,373.000,1.000,0.012,0.000
-1618.318,-3070.957,28963.440,22753.070,4464.259,-2851.752,-6944.065,-6115.420,-0.014,0.916,-0.401,-1.984,1.434,-0.549,66.667,374.000,1.000,6.904,0.000
-1844.687,-3274.080,28082.170,21951.540,4264.404,-3024.141,-7090.071,-6275.855,-0.015,0.918,-0.400,-2.045,1.373,-0.671,66.667,375.000,1.000,0.026,0.000
-2070.352,-3476.111,27202.350,21152.640,4062.740,-3196.588,-7235.264,-6434.576,-0.012,0.920,-0.398,-1.953,1.373,-0.702,66.667,376.000,1.000,0.009,0.000
-2292.812,-3675.227,26327.770,20360.750,3863.521,-3364.604,-7375.951,-6586.230,-0.012,0.921,-0.398,-1.953,1.160,-0.763,66.667,377.000,1.000,2.417,0.000
-2512.618,-3873.248,25458.890,19575.910,3667.772,-3529.452,-7512.739,-6731.047,-0.013,0.922,-0.399,-2.014,1.160,-0.671,66.667,378.000,1.000,6.389,0.000
-2729.648,-4069.762,24595.630,18794.810,3474.266,-3693.234,-7647.272,-6874.341,-0.015,0.925,-0.398,-2.136,1.129,-0.580,66.667,379.000,1.000,9.260,0.000
-2944.222,-4262.586,23737.790,18015.300,3282.691,-3854.386,-7779.555,-7020.524,-0.014,0.925,-0.400,-2.289,1.068,-0.488,66.667,380.000,1.000,0.018,0.000
-3162.593,-4457.912,22878.150,17232.740,3087.779,-4018.569,-7916.418,-7174.452,-0.016,0.924,-0.399,-2.411,1.038,-0.366,66.667,381.000,1.000,2.500,0.000
-3387.500,-4660.266,22012.570,16445.070,2885.682,-4192.060,-8062.576,-7335.707,-0.015,0.923,-0.399,-2.563,1.038,-0.275,66.667,382.000,1.000,0.009,0.000
-3612.283,-4863.755,21148.410,15658.320,2681.886,-4369.591,-8211.453,-7497.188,-0.011,0.923,-0.400,-2.594,1.038,-0.275,66.667,383.000,1.000,13.161,0.000
-3825.779,-5057.276,20298.010,14883.690,2488.256,-4537.792,-8351.057,-7649.283,-0.012,0.921,-0.401,-2.655,1.007,-0.244,66.667,384.000,1.000,2.995,0.000
-4022.541,-5233.984,19467.330,14127.750,2311.653,-4688.263,-8474.326,-7785.857,-0.011,0.920,-0.403,-2.686,0.977,-0.305,66.667,385.000,1.000,0.008,0.000
-4213.934,-5404.611,18645.130,13380.360,2141.255,-4831.925,-8590.642,-7916.270,-0.011,0.918,-0.399,-2.655,0.885,-0.366,66.667,386.000,1.000,2.017,0.000
-4414.268,-5584.399,17817.100,12627.790,1962.787,-4984.024,-8713.797,-8053.243,-0.010,0.916,-0.399,-2.655,0.885,-0.458,66.667,387.000,1.000,3.679,0.000
-4622.185,-5772.200,16984.100,11870.740,1777.561,-5142.757,-8843.895,-8196.323,-0.009,0.914,-0.400,-2.838,0.977,-0.366,66.667,388.000,1.000,13.707,0.000
-4831.901,-5962.627,16150.260,11113.040,1590.415,-5303.172,-8977.694,-8343.135,-0.008,0.914,-0.399,-2.808,1.007,-0.427,66.667,389.000,1.000,3.043,0.000
-5045.481,-6157.960,15312.700,10351.810,1398.291,-5468.511,-9117.676,-8496.142,-0.007,0.912,-0.401,-2.594,1.038,-0.397,66.667,390.000,1.000,0.015,0.000
-5261.616,-6356.883,14473.350,9589.349,1201.703,-5637.809,-9261.785,-8653.264,-0.008,0.913,-0.400,-2.533,1.099,-0.458,66.667,391.000,1.000,1.888,0.000
-5469.405,-6548.309,13643.470,8837.477,1011.174,-5800.364,-9398.354,-8804.462,-0.009,0.914,-0.397,-2.625,1.160,-0.397,66.667,392.000,1.000,2.511,0.000
-5664.381,-6726.646,12828.420,8101.006,832.585,-5951.212,-9521.471,-8942.887,-0.009,0.913,-0.398,-2.594,1.160,-0.427,66.667,393.000,1.000,8.139,0.000
-5861.665,-6906.192,12014.760,7364.830,652.210,-6105.261,-9646.496,-9081.496,-0.007,0.915,-0.399,-2.380,1.160,-0.580,66.667,394.000,1.000,0.009,0.000
-6072.135,-7097.165,11191.910,6617.415,459.225,-6271.322,-9783.828,-9232.677,-0.007,0.917,-0.398,-2.228,1.190,-0.702,66.667,395.000,1.000,1.896,0.000
-6282.796,-7287.096,10371.310,5871.545,266.881,-6434.472,-9920.003,-9383.346,-0.006,0.917,-0.400,-2.258,1.495,-0.763,66.667,396.000,1.000,8.793,0.000
-6486.146,-7471.349,9559.445,5134.753,83.362,-6589.321,-10049.050,-9525.196,-0.006,0.919,-0.397,-2.258,1.556,-0.793,66.667,397.000,1.000,2.490,0.000
-6688.350,-7656.758,8750.456,4400.192,-97.791,-6743.580,-10176.030,-9664.833,-0.009,0.919,-0.399,-2.228,1.587,-0.549,66.667,398.000,1.000,4.257,0.000
-6885.061,-7835.872,7949.518,3672.578,-273.214,-6891.694,-10294.760,-9798.009,-0.009,0.922,-0.395,-2.258,1.648,-0.641,66.667,399.000,1.000,0.010,0.000
-7072.904,-8004.601,7160.732,2956.825,-439.847,-7030.101,-10404.100,-9921.087,-0.009,0.923,-0.398,-2.350,1.648,-0.641,66.667,400.000,1.000,13.136,0.000
-7265.194,-8177.314,6370.852,2240.221,-610.852,-7173.942,-10520.230,-10048.280,-0.011,0.923,-0.395,-2.380,1.678,-0.702,66.667,401.000,1.000,2.580,0.000
-7468.033,-8358.741,5573.453,1515.712,-792.444,-7329.479,-10648.880,-10187.780,-0.012,0.922,-0.394,-2.258,1.617,-0.763,66.667,402.000,1.000,3.093,0.000
-7670.051,-8538.034,4779.182,793.398,-973.496,-7482.833,-10776.950,-10328.280,-0.010,0.921,-0.396,-2.380,1.678,-0.763,66.667,403.000,1.000,0.010,0.000
-7865.541,-8712.882,3992.735,78.603,-1148.523,-7628.197,-10899.290,-10462.570,-0.010,0.923,-0.398,-2.533,1.587,-0.641,66.667,404.000,1.000,1.827,0.000
-8062.714,-8892.147,3205.649,-636.240,-1325.953,-7776.541,-11026.330,-10598.900,-0.010,0.921,-0.400,-2.502,1.648,-0.641,66.667,405.000,1.000,8.911,0.000
-8266.462,-9077.866,2414.041,-1355.532,-1510.291,-7932.325,-11160.310,-10741.980,-0.010,0.919,-0.400,-2.472,1.526,-0.519,66.667,406.000,1.000,2.956,0.000
-8467.770,-9259.540,1627.187,-2071.177,-1692.351,-8084.884,-11289.410,-10882.140,-0.010,0.918,-0.397,-2.502,1.556,-0.549,66.667,407.000,1.000,0.008,0.000
-8658.884,-9430.951,851.773,-2776.349,-1865.723,-8230.047,-11410.110,-11013.880,-0.011,0.916,-0.399,-2.533,1.587,-0.458,66.667,408.000,1.000,10.710,0.000
-8849.107,-9603.179,78.462,-3478.739,-2040.349,-8379.928,-11534.410,-11147.670,-0.011,0.915,-0.403,-2.441,1.648,-0.549,66.667,409.000,1.000,3.070,0.000
-9046.049,-9783.821,-698.670,-4183.448,-2222.514,-8539.026,-11667.470,-11287.870,-0.011,0.913,-0.400,-2.350,1.709,-0.427,66.667,410.000,1.000,0.006,0.000
-9240.865,-9962.415,-1469.212,-4882.099,-2402.092,-8694.376,-11796.980,-11423.570,-0.010,0.914,-0.403,-2.197,1.709,-0.397,66.667,411.000,1.000,1.900,0.000
-9430.808,-10135.790,-2231.304,-5574.888,-2575.689,-8842.057,-11917.710,-11554.090,-0.011,0.914,-0.398,-2.106,1.770,-0.366,66.667,412.000,1.000,8.797,0.000
-9621.719,-10310.130,-2993.378,-6269.290,-2749.209,-8989.645,-12037.220,-11687.690,-0.011,0.913,-0.402,-2.075,1.770,-0.427,66.667,413.000,1.000,2.572,0.000
-9810.276,-10480.370,-3752.364,-6960.292,-2919.284,-9134.324,-12154.990,-11819.370,-0.010,0.911,-0.399,-2.075,1.678,-0.427,66.667,414.000,1.000,3.629,0.000
-9994.653,-10643.520,-4503.963,-7642.972,-3082.721,-9273.118,-12267.830,-11944.410,-0.011,0.915,-0.398,-2.014,1.709,-0.336,66.667,415.000,1.000,9.404,0.000
-10181.040,-10808.390,-5253.999,-8322.925,-3246.310,-9414.006,-12381.120,-12069.790,-0.011,0.915,-0.398,-1.831,1.678,-0.458,66.667,416.000,1.000,0.012,0.000
-10370.130,-10978.240,-6005.265,-9003.143,-3414.294,-9559.943,-12498.030,-12198.430,-0.011,0.915,-0.397,-1.831,1.648,-0.519,66.667,417.000,1.000,1.930,0.000
-10554.920,-11144.860,-6751.390,-9678.532,-3581.055,-9701.979,-12612.230,-12323.560,-0.014,0.917,-0.398,-1.770,1.587,-0.488,66.667,418.000,1.000,15.408,0.000
-10736.250,-11307.640,-7492.503,-10349.880,-3745.306,-9838.059,-12722.630,-12444.990,-0.013,0.918,-0.396,-1.862,1.556,-0.458,66.667,419.000,1.000,0.008,0.000
-10922.620,-11474.790,-8235.948,-11024.850,-3913.336,-9976.033,-12836.340,-12571.280,-0.015,0.921,-0.399,-1.801,1.556,-0.427,66.667,420.000,1.000,2.586,0.000
-11113.410,-11645.950,-8981.176,-11703.170,-4085.493,-10118.070,-12955.260,-12703.450,-0.015,0.922,-0.398,-1.862,1.556,-0.397,66.667,421.000,1.000,0.005,0.000
-11306.310,-11820.290,-9727.290,-12382.390,-4261.264,-10265.120,-13079.790,-12839.350,-0.016,0.923,-0.398,-1.923,1.434,-0.458,66.667,422.000,1.000,1.990,0.000
-11501.250,-11996.850,-10473.410,-13060.690,-4439.407,-10415.030,-13207.480,-12976.360,-0.015,0.924,-0.399,-2.014,1.251,-0.488,66.667,423.000,1.000,8.678,0.000
-11694.020,-12169.350,-11213.840,-13733.170,-4613.632,-10560.310,-13330.980,-13109.600,-0.013,0.922,-0.396,-2.075,1.221,-0.397,66.667,424.000,1.000,16.194,0.000
-11879.700,-12334.440,-11944.850,-14396.000,-4779.931,-10698.630,-13446.530,-13236.990,-0.012,0.921,-0.396,-2.197,1.099,-0.397,66.667,425.000,1.000,0.015,0.000
-12057.020,-12492.470,-12666.630,-15049.590,-4939.870,-10832.650,-13555.790,-13359.130,-0.012,0.918,-0.396,-2.136,1.038,-0.397,66.667,426.000,1.000,0.007,0.000
-12230.820,-12647.570,-13383.070,-15699.510,-5098.170,-10965.900,-13663.110,-13478.890,-0.013,0.919,-0.399,-2.197,1.038,-0.458,66.667,427.000,1.000,2.459,0.000
-12404.310,-12803.130,-14096.250,-16348.450,-5255.962,-11098.520,-13769.350,-13596.320,-0.012,0.917,-0.402,-2.197,0.977,-0.488,66.667,428.000,1.000,2.619,0.000
-12576.220,-12959.180,-14806.000,-16994.160,-5411.911,-11230.010,-13873.930,-13709.650,-0.013,0.917,-0.399,-2.197,0.977,-0.549,66.667,429.000,1.000,2.405,0.000
-12749.670,-13118.160,-15516.160,-17639.000,-5569.622,-11364.950,-13981.250,-13824.120,-0.009,0.917,-0.398,-2.197,1.099,-0.549,66.667,430.000,1.000,2.629,0.000
-12928.240,-13281.060,-16229.510,-18286.500,-5731.515,-11503.970,-14093.140,-13945.870,-0.010,0.918,-0.397,-2.075,0.977,-0.488,66.667,431.000,1.000,2.345,0.000
-13109.820,-13445.100,-16944.060,-18935.240,-5895.615,-11642.110,-14207.220,-14073.810,-0.010,0.918,-0.399,-2.075,1.160,-0.488,66.667,432.000,1.000,2.641,0.000
-13294.040,-13611.110,-17660.010,-19585.080,-6063.878,-11781.940,-14325.600,-14206.780,-0.010,0.917,-0.399,-2.167,1.129,-0.610,66.667,433.000,1.000,8.682,0.000
-13479.800,-13778.850,-18376.110,-20235.550,-6235.598,-11926.910,-14447.940,-14341.450,-0.013,0.916,-0.401,-2.258,1.099,-0.610,66.667,434.000,1.000,4.347,0.000
-13658.480,-13941.260,-19084.060,-20879.270,-6401.499,-12069.500,-14566.090,-14468.090,-0.011,0.916,-0.399,-2.167,1.190,-0.671,66.667,435.000,1.000,0.019,0.000
-13822.270,-14092.430,-19776.720,-21507.880,-6554.989,-12200.210,-14673.040,-14580.870,-0.010,0.915,-0.402,-2.106,1.251,-0.641,66.667,436.000,1.000,3.679,0.000
-13978.400,-14237.520,-20460.300,-22127.090,-6702.961,-12322.320,-14773.030,-14687.970,-0.010,0.915,-0.401,-2.197,1.404,-0.732,66.667,437.000,1.000,0.007,0.000
-14145.760,-14390.900,-21150.930,-22753.790,-6860.037,-12450.650,-14880.160,-14805.770,-0.011,0.915,-0.400,-2.136,1.343,-0.763,66.667,438.000,1.000,13.251,0.000
-14325.560,-14553.650,-21849.080,-23387.520,-7025.240,-12587.280,-14995.160,-14933.730,-0.013,0.917,-0.401,-2.045,1.373,-0.763,66.667,439.000,1.000,4.844,0.000
-14498.620,-14709.680,-22538.390,-24011.280,-7182.861,-12718.130,-15103.340,-15054.060,-0.013,0.917,-0.402,-2.045,1.221,-0.732,66.667,440.000,1.000,0.012,0.000
-14659.000,-14854.160,-23214.370,-24621.610,-7329.136,-12838.350,-15200.660,-15161.420,-0.013,0.918,-0.403,-2.136,1.160,-0.671,66.667,441.000,1.000,0.011,0.000
-14818.610,-14998.280,-23887.500,-25229.930,-7474.615,-12957.610,-15296.710,-15267.230,-0.012,0.919,-0.403,-2.167,1.190,-0.793,66.667,442.000,1.000,2.493,0.000
-14985.600,-15149.800,-24565.800,-25844.960,-7627.458,-13085.480,-15400.270,-15381.590,-0.013,0.920,-0.400,-2.136,1.221,-0.763,66.667,443.000,1.000,6.248,0.000
-15155.380,-15304.370,-25245.650,-26463.230,-7784.623,-13219.840,-15509.600,-15502.000,-0.014,0.920,-0.400,-2.167,1.251,-0.763,66.667,444.000,1.000,14.274,0.000
-15319.770,-15454.670,-25918.990,-27076.360,-7938.279,-13351.460,-15616.750,-15620.060,-0.012,0.923,-0.401,-2.197,1.221,-0.763,66.667,445.000,1.000,0.015,0.000
-15482.040,-15603.850,-26588.320,-27686.320,-8089.671,-13480.320,-15721.730,-15736.970,-0.013,0.922,-0.400,-2.289,1.099,-0.610,66.667,446.000,1.000,6.367,0.000
-15645.500,-15753.820,-27255.470,-28294.260,-8239.938,-13608.010,-15824.870,-15852.840,-0.014,0.920,-0.398,-2.197,1.068,-0.519,66.667,447.000,1.000,0.009,0.000
-15805.110,-15898.940,-27915.160,-28894.540,-8384.448,-13730.140,-15922.420,-15962.200,-0.012,0.920,-0.399,-2.319,1.038,-0.641,66.667,448.000,1.000,1.887,0.000
-15962.980,-16041.600,-28570.830,-29489.790,-8526.991,-13849.470,-16018.390,-16068.210,-0.012,0.919,-0.397,-2.319,1.068,-0.549,66.667,449.000,1.000,14.336,0.000
-16125.400,-16188.200,-29229.250,-30087.120,-8674.912,-13972.480,-16118.940,-16178.150,-0.014,0.918,-0.399,-2.441,1.038,-0.610,66.667,450.000,1.000,0.012,0.000
-16293.340,-16339.450,-29891.530,-30688.910,-8829.192,-14100.300,-16224.720,-16294.490,-0.015,0.921,-0.401,-2.502,0.977,-0.580,66.667,451.000,1.000,9.265,0.000
-16463.500,-16492.590,-30555.090,-31291.700,-8986.587,-14231.160,-16333.330,-16413.130,-0.014,0.920,-0.404,-2.533,0.916,-0.580,66.667,452.000,1.000,0.008,0.000
-16631.070,-16643.680,-31215.080,-31889.350,-9142.324,-14361.620,-16441.140,-16528.320,-0.012,0.919,-0.401,-2.533,0.916,-0.519,66.667,453.000,1.000,0.003,0.000
-16792.640,-16788.570,-31866.400,-32477.820,-9291.492,-14485.690,-16542.310,-16637.500,-0.012,0.918,-0.403,-2.441,0.946,-0.549,66.667,454.000,1.000,3.236,0.000
-16951.770,-16930.530,-32511.580,-33061.160,-9436.578,-14604.850,-16638.060,-16744.840,-0.012,0.915,-0.404,-2.472,0.854,-0.519,66.667,455.000,1.000,0.008,0.000
-17111.960,-17074.490,-33155.070,-33644.450,-9581.968,-14724.950,-16735.130,-16853.960,-0.011,0.915,-0.401,-2.441,0.946,-0.458,66.667,456.000,1.000,1.958,0.000
-17266.380,-17213.570,-33790.550,-34221.920,-9721.997,-14841.230,-16829.480,-16958.150,-0.012,0.915,-0.398,-2.350,0.977,-0.397,66.667,457.000,1.000,3.631,0.000
-17417.800,-17349.440,-34421.040,-34795.500,-9860.041,-14956.420,-16922.630,-17060.210,-0.011,0.915,-0.397,-2.289,1.129,-0.427,66.667,458.000,1.000,13.808,0.000
-17578.200,-17494.080,-35059.770,-35376.740,-10008.710,-15081.580,-17025.420,-17172.440,-0.010,0.914,-0.400,-2.136,1.068,-0.458,66.667,459.000,1.000,2.961,0.000
-17741.830,-17642.010,-35701.630,-35960.290,-10162.430,-15209.890,-17131.210,-17288.440,-0.010,0.915,-0.400,-2.167,1.099,-0.519,66.667,460.000,1.000,0.005,0.000
-17899.840,-17783.960,-36336.400,-36536.660,-10309.940,-15331.870,-17230.040,-17397.930,-0.009,0.916,-0.401,-2.106,1.068,-0.427,66.667,461.000,1.000,1.930,0.000
-18055.310,-17923.400,-36966.400,-37108.340,-10451.460,-15450.990,-17325.850,-17504.590,-0.009,0.918,-0.398,-2.167,1.190,-0.458,66.667,462.000,1.000,2.647,0.000
-18208.200,-18061.360,-37592.240,-37675.880,-10587.830,-15567.470,-17419.170,-17609.250,-0.007,0.918,-0.399,-2.197,1.160,-0.458,66.667,463.000,1.000,3.604,0.000
-18357.420,-18196.750,-38212.740,-38238.490,-10721.580,-15680.320,-17509.480,-17710.880,-0.008,0.915,-0.401,-2.106,1.129,-0.458,66.667,464.000,1.000,8.800,0.000
-18508.090,-18334.270,-38832.550,-38800.970,-10860.290,-15796.690,-17603.510,-17814.940,-0.009,0.917,-0.400,-2.075,1.251,-0.427,66.667,465.000,1.000,3.088,0.000
-18661.180,-18475.290,-39452.610,-39364.680,-11004.340,-15919.020,-17702.320,-17921.850,-0.011,0.917,-0.400,-2.045,1.282,-0.519,66.667,466.000,1.000,0.017,0.000
-18813.640,-18617.370,-40070.690,-39926.800,-11148.660,-16042.270,-17801.900,-18027.890,-0.009,0.917,-0.400,-2.045,1.404,-0.549,66.667,467.000,1.000,1.881,0.000
-18965.290,-18759.580,-40687.600,-40486.410,-11292.240,-16164.220,-17901.190,-18132.890,-0.010,0.918,-0.401,-1.984,1.373,-0.519,66.667,468.000,1.000,13.803,0.000
-19116.750,-18900.970,-41303.300,-41043.590,-11435.970,-16285.980,-18000.470,-18238.380,-0.013,0.917,-0.400,-2.075,1.465,-0.610,66.667,469.000,1.000,5.548,0.000
-19263.130,-19035.750,-41911.360,-41593.870,-11574.430,-16401.900,-18093.990,-18339.630,-0.014,0.917,-0.401,-2.075,1.404,-0.610,66.667,470.000,1.000,0.008,0.000
-19400.510,-19160.560,-42507.880,-42133.980,-11702.700,-16506.170,-18176.850,-18430.460,-0.013,0.918,-0.397,-2.136,1.373,-0.671,66.667,471.000,1.000,1.868,0.000
-19538.710,-19285.230,-43103.480,-42672.640,-11831.030,-16609.120,-18259.960,-18521.300,-0.011,0.919,-0.398,-2.197,1.434,-0.671,66.667,472.000,1.000,2.525,0.000
-19683.250,-19415.000,-43703.640,-43214.370,-11965.990,-16717.150,-18350.120,-18621.470,-0.013,0.919,-0.397,-2.106,1.373,-0.793,66.667,473.000,1.000,2.255,0.000
-19827.630,-19544.910,-44300.900,-43754.370,-12100.100,-16824.040,-18439.680,-18722.490,-0.011,0.917,-0.402,-2.136,1.312,-0.793,66.667,474.000,1.000,6.611,0.000
-19971.380,-19674.830,-44894.250,-44293.250,-12231.620,-16930.900,-18527.390,-18821.040,-0.012,0.918,-0.399,-2.075,1.343,-0.763,66.667,475.000,1.000,2.370,0.000
-20117.380,-19807.020,-45488.070,-44833.690,-12365.600,-17042.680,-18618.200,-18923.950,-0.014,0.917,-0.398,-2.167,1.251,-0.702,66.667,476.000,1.000,3.685,0.000
-20262.570,-19938.810,-46080.070,-45372.750,-12501.030,-17156.060,-18709.780,-19028.980,-0.013,0.917,-0.399,-2.045,1.282,-0.641,66.667,477.000,1.000,16.971,0.000
-20404.680,-20067.790,-46665.980,-45906.750,-12634.260,-17267.100,-18798.380,-19129.050,-0.013,0.917,-0.401,-2.136,1.221,-0.641,66.667,478.000,1.000,0.017,0.000
-20544.470,-20194.800,-47246.530,-46435.710,-12765.800,-17376.340,-18885.570,-19225.340,-0.014,0.915,-0.399,-2.136,1.221,-0.641,66.667,479.000,1.000,1.919,0.000
-20684.760,-20322.850,-47826.660,-46962.390,-12898.740,-17486.050,-18974.940,-19323.340,-0.011,0.914,-0.400,-2.136,1.221,-0.641,66.667,480.000,1.000,3.006,0.000
-20827.480,-20452.220,-48407.880,-47488.300,-13032.580,-17595.910,-19065.090,-19423.040,-0.012,0.916,-0.401,-2.014,1.282,-0.671,66.667,481.000,1.000,0.014,0.000
-20967.850,-20577.680,-48983.960,-48010.400,-13161.260,-17701.790,-19150.060,-19518.400,-0.013,0.917,-0.405,-2.045,1.160,-0.519,66.667,482.000,1.000,1.918,0.000
-21104.440,-20699.450,-49553.420,-48527.230,-13284.090,-17804.090,-19231.130,-19608.460,-0.014,0.915,-0.403,-2.106,1.129,-0.458,66.667,483.000,1.000,8.702,0.000
-21243.210,-20822.950,-50122.850,-49042.860,-13407.760,-17906.110,-19312.510,-19699.430,-0.013,0.916,-0.402,-2.106,1.099,-0.580,66.667,484.000,1.000,3.130,0.000
-21387.720,-20950.750,-50696.420,-49561.720,-13537.110,-18009.770,-19394.760,-19795.030,-0.012,0.917,-0.400,-2.045,1.129,-0.519,66.667,485.000,1.000,0.013,0.000
-21536.210,-21082.230,-51271.990,-50082.520,-13670.890,-18118.130,-19480.600,-19893.050,-0.012,0.918,-0.401,-2.106,1.129,-0.580,66.667,486.000,1.000,24.416,0.000
-21682.030,-21211.800,-51842.890,-50598.980,-13802.650,-18228.270,-19569.070,-19989.700,-0.012,0.918,-0.402,-2.167,1.038,-0.580,66.667,487.000,1.000,2.428,0.000
-21819.260,-21334.750,-52405.240,-51108.020,-13928.690,-18333.360,-19653.960,-20083.350,-0.014,0.918,-0.402,-2.197,1.038,-0.671,66.667,488.000,1.000,2.520,0.000
-21952.820,-21456.700,-52965.190,-51614.730,-14054.720,-18438.570,-19738.330,-20176.280,-0.014,0.917,-0.402,-2.106,1.007,-0.671,66.667,489.000,1.000,2.443,0.000
-22091.370,-21584.180,-53528.800,-52124.060,-14185.740,-18549.970,-19827.790,-20271.000,-0.013,0.917,-0.400,-2.106,1.160,-0.641,66.667,490.000,1.000,3.104,0.000
-22236.210,-21715.530,-54094.050,-52635.280,-14319.990,-18663.210,-19919.660,-20368.080,-0.011,0.919,-0.401,-2.045,1.007,-0.763,66.667,491.000,1.000,0.013,0.000
-22383.280,-21846.160,-54656.720,-53145.170,-14454.560,-18775.040,-20009.820,-20465.490,-0.013,0.918,-0.399,-2.045,1.038,-0.793,66.667,492.000,1.000,3.057,0.000
-22527.170,-21972.170,-55212.540,-53650.350,-14585.130,-18883.430,-20095.250,-20558.430,-0.011,0.915,-0.400,-2.045,0.916,-0.763,66.667,493.000,1.000,0.013,0.000
-22665.070,-22092.700,-55760.110,-54149.860,-14708.660,-18986.780,-20176.300,-20647.210,-0.012,0.913,-0.402,-2.106,1.129,-0.732,66.667,494.000,1.000,0.004,0.000
-22800.560,-22211.910,-56303.770,-54646.030,-14829.070,-19088.190,-20257.230,-20736.060,-0.013,0.912,-0.403,-2.136,1.129,-0.641,66.667,495.000,1.000,2.628,0.000
-22936.620,-22332.260,-56845.700,-55139.190,-14950.310,-19188.360,-20337.880,-20823.640,-0.013,0.914,-0.404,-2.075,1.190,-0.580,66.667,496.000,1.000,2.549,0.000
-23068.160,-22448.680,-57381.310,-55624.810,-15068.740,-19282.730,-20412.710,-20905.440,-0.015,0.915,-0.401,-2.106,1.129,-0.519,66.667,497.000,1.000,11.188,0.000
-23196.020,-22561.940,-57913.400,-56106.220,-15185.640,-19374.910,-20484.960,-20985.840,-0.016,0.917,-0.401,-1.953,1.129,-0.549,66.667,498.000,1.000,8.078,0.000
-23329.960,-22681.020,-58451.640,-56594.130,-15309.170,-19474.860,-20565.280,-21075.180,-0.015,0.917,-0.400,-2.045,1.221,-0.580,66.667,499.000,1.000,0.015,0.000
-23467.170,-22803.290,-58991.990,-57085.250,-15434.920,-19578.270,-20650.260,-21170.380,-0.014,0.919,-0.401,-2.075,1.282,-0.549,66.667,500.000,1.000,2.438,0.000
-23594.150,-22915.690,-59520.140,-57564.750,-15550.250,-19671.060,-20725.830,-21256.670,-0.012,0.919,-0.399,-2.228,1.190,-0.610,66.667,501.000,1.000,0.012,0.000
-23714.900,-23022.620,-60039.720,-58035.640,-15660.830,-19758.980,-20796.660,-21336.370,-0.011,0.918,-0.400,-2.228,1.099,-0.488,66.667,502.000,1.000,18.854,0.000
-23846.410,-23141.540,-60568.350,-58516.140,-15783.980,-19861.230,-20880.590,-21428.120,-0.011,0.917,-0.401,-2.258,1.190,-0.397,66.667,503.000,1.000,0.030,0.000
-23985.010,-23267.740,-61102.710,-59004.290,-15915.310,-19972.080,-20972.430,-21529.220,-0.013,0.913,-0.401,-2.350,1.251,-0.427,66.667,504.000,1.000,2.380,0.000
-24117.380,-23386.610,-61629.270,-59485.710,-16040.800,-20074.500,-21057.380,-21623.600,-0.015,0.909,-0.402,-2.228,1.343,-0.336,66.667,505.000,1.000,0.007,0.000
-24246.670,-23501.710,-62151.610,-59961.450,-16163.530,-20173.080,-21140.140,-21714.270,-0.015,0.909,-0.405,-2.136,1.221,-0.305,66.667,506.000,1.000,2.536,0.000
-24378.070,-23619.200,-62675.230,-60436.390,-16287.340,-20274.690,-21224.990,-21806.600,-0.015,0.911,-0.404,-2.197,1.221,-0.336,66.667,507.000,1.000,0.015,0.000
-24507.150,-23734.310,-63194.590,-60906.440,-16406.390,-20373.430,-21304.640,-21894.060,-0.014,0.912,-0.405,-2.136,1.282,-0.336,66.667,508.000,1.000,1.846,0.000
-24629.590,-23842.610,-63703.900,-61367.140,-16517.130,-20465.230,-21376.680,-21973.580,-0.014,0.912,-0.404,-2.075,1.282,-0.305,66.667,509.000,1.000,13.844,0.000
-24744.930,-23944.960,-64202.990,-61819.250,-16620.900,-20551.370,-21443.780,-22047.610,-0.015,0.909,-0.402,-2.075,1.190,-0.305,66.667,510.000,1.000,3.521,0.000
-24860.640,-24048.400,-64700.570,-62271.850,-16726.740,-20638.960,-21512.460,-22123.630,-0.015,0.909,-0.405,-1.953,1.251,-0.305,66.667,511.000,1.000,0.010,0.000
-24988.170,-24162.630,-65208.800,-62736.210,-16846.220,-20737.050,-21592.020,-22211.960,-0.014,0.909,-0.404,-1.862,1.160,-0.061,66.667,512.000,1.000,0.004,0.000
-25119.390,-24280.790,-65720.680,-63204.090,-16969.910,-20837.560,-21674.880,-22303.940,-0.015,0.917,-0.402,-1.801,1.099,-0.061,66.667,513.000,1.000,2.555,0.000
-25242.420,-24392.250,-66224.290,-63661.950,-17084.580,-20930.270,-21749.450,-22386.280,-0.015,0.924,-0.404,-1.831,1.038,-0.122,66.667,514.000,1.000,8.763,0.000
-25367.510,-24505.100,-66727.300,-64116.660,-17198.560,-21023.920,-21822.940,-22467.130,-0.016,0.927,-0.405,-1.862,1.068,-0.031,66.667,515.000,1.000,2.577,0.000
-25498.190,-24622.170,-67232.970,-64573.220,-17314.710,-21121.120,-21898.270,-22551.650,-0.017,0.928,-0.401,-2.167,0.946,-0.153,66.667,516.000,1.000,2.455,0.000
-25622.860,-24733.200,-67731.700,-65023.410,-17424.340,-21212.560,-21968.640,-22632.160,-0.018,0.927,-0.402,-2.289,0.916,-0.214,66.667,517.000,1.000,8.788,0.000
-25739.380,-24836.310,-68221.160,-65464.490,-17527.880,-21297.130,-22034.150,-22707.330,-0.016,0.929,-0.406,-2.533,0.854,-0.214,66.667,518.000,1.000,3.058,0.000
-25855.270,-24938.890,-68707.910,-65903.110,-17632.300,-21382.090,-22099.980,-22782.930,-0.014,0.928,-0.408,-2.716,0.793,-0.153,66.667,519.000,1.000,0.012,0.000
-25976.490,-25046.690,-69198.040,-66346.230,-17743.340,-21475.660,-22172.140,-22863.880,-0.012,0.924,-0.406,-2.777,0.702,-0.122,66.667,520.000,1.000,8.167,0.000
-26101.580,-25157.890,-69690.160,-66793.010,-17860.560,-21577.350,-22249.540,-22949.440,-0.010,0.925,-0.404,-2.930,0.824,-0.092,66.667,521.000,1.000,3.069,0.000
-26221.690,-25265.230,-70175.960,-67234.360,-17975.000,-21674.980,-22322.190,-23032.030,-0.007,0.924,-0.405,-2.991,0.885,-0.122,66.667,522.000,1.000,0.007,0.000
-26336.090,-25369.300,-70655.950,-67668.820,-18084.420,-21765.130,-22389.360,-23110.730,-0.006,0.922,-0.406,-3.143,1.068,0.000,66.667,523.000,1.000,1.863,0.000
-26454.760,-25477.340,-71139.640,-68105.910,-18197.230,-21856.290,-22459.090,-23192.990,-0.007,0.917,-0.404,-3.265,1.129,-0.031,66.667,524.000,1.000,18.883,0.000
-26577.840,-25588.200,-71626.360,-68547.040,-18314.100,-21950.340,-22531.970,-23279.000,-0.006,0.919,-0.404,-3.265,1.251,-0.031,66.667,525.000,1.000,2.989,0.000
-26699.600,-25697.860,-72110.790,-68987.140,-18430.670,-22046.400,-22606.950,-23364.830,-0.005,0.920,-0.405,-3.174,1.404,-0.092,66.667,526.000,1.000,0.011,0.000
-26819.010,-25804.610,-72591.210,-69423.040,-18545.640,-22142.640,-22682.060,-23446.860,-0.002,0.918,-0.403,-3.174,1.678,-0.122,66.667,527.000,1.000,1.946,0.000
-26934.770,-25905.450,-73063.860,-69850.590,-18656.230,-22233.030,-22751.090,-23519.730,-0.003,0.916,-0.400,-3.204,1.831,-0.153,66.667,528.000,1.000,2.482,0.000
-27048.230,-26002.890,-73529.730,-70271.120,-18762.820,-22319.150,-22815.880,-23586.740,-0.003,0.916,-0.402,-3.174,1.953,-0.183,66.667,529.000,1.000,2.557,0.000
-27158.970,-26099.260,-73991.380,-70687.730,-18865.450,-22403.810,-22879.800,-23654.210,-0.003,0.912,-0.401,-3.174,2.075,-0.183,66.667,530.000,1.000,2.437,0.000
-27266.340,-26194.710,-74450.280,-71102.030,-18963.780,-22486.110,-22942.740,-23723.260,-0.004,0.911,-0.400,-3.113,2.258,-0.336,66.667,531.000,1.000,3.774,0.000
-27377.500,-26294.760,-74913.060,-71520.100,-19064.730,-22571.540,-23010.140,-23797.150,-0.004,0.910,-0.398,-2.991,2.289,-0.458,66.667,532.000,1.000,3.774,0.000
-27493.260,-26398.880,-75379.640,-71940.890,-19170.160,-22660.800,-23081.730,-23873.900,-0.004,0.912,-0.399,-2.869,2.472,-0.519,66.667,533.000,1.000,14.221,0.000
-27604.890,-26498.870,-75840.900,-72355.380,-19272.730,-22744.460,-23148.690,-23945.690,-0.005,0.913,-0.398,-2.899,2.472,-0.519,66.667,534.000,1.000,0.009,0.000
-27711.740,-26594.490,-76295.880,-72764.730,-19372.720,-22821.800,-23211.610,-24015.140,-0.008,0.915,-0.400,-2.960,2.533,-0.610,66.667,535.000,1.000,1.966,0.000
-27819.120,-26690.500,-76749.800,-73174.960,-19475.050,-22900.310,-23276.630,-24088.110,-0.011,0.915,-0.398,-2.930,2.411,-0.702,66.667,536.000,1.000,2.489,0.000
-27927.060,-26786.750,-77202.430,-73584.360,-19577.610,-22980.890,-23342.700,-24162.240,-0.013,0.915,-0.400,-2.808,2.380,-0.885,66.667,537.000,1.000,2.489,0.000
-28036.350,-26884.610,-77654.130,-73992.120,-19680.470,-23063.370,-23408.800,-24236.870,-0.015,0.916,-0.401,-2.777,2.350,-1.038,66.667,538.000,1.000,9.356,0.000
-28146.720,-26983.580,-78104.030,-74397.400,-19783.820,-23146.230,-23473.790,-24310.510,-0.016,0.917,-0.397,-2.808,2.136,-1.190,66.667,539.000,1.000,0.008,0.000
-28253.630,-27078.380,-78547.530,-74796.110,-19882.570,-23223.900,-23534.270,-24377.940,-0.018,0.915,-0.395,-2.777,2.106,-1.190,66.667,540.000,1.000,1.907,0.000
-28358.340,-27171.930,-78988.230,-75192.200,-19979.340,-23298.730,-23593.790,-24444.180,-0.017,0.915,-0.396,-2.777,1.862,-1.282,66.667,541.000,1.000,3.716,0.000
-28467.670,-27271.480,-79434.550,-75594.480,-20082.710,-23379.130,-23659.400,-24519.290,-0.018,0.916,-0.399,-2.655,1.740,-1.373,66.667,542.000,1.000,9.399,0.000
-28578.910,-27370.980,-79881.450,-75999.000,-20188.390,-23461.770,-23726.970,-24597.460,-0.018,0.915,-0.397,-2.655,1.617,-1.343,66.667,543.000,1.000,0.013,0.000
-28685.380,-27463.580,-80320.480,-76397.620,-20289.110,-23539.720,-23789.780,-24669.470,-0.017,0.915,-0.401,-2.655,1.526,-1.343,66.667,544.000,1.000,1.882,0.000
-28790.460,-27556.000,-80756.380,-76793.480,-20389.510,-23618.300,-23852.380,-24739.610,-0.015,0.914,-0.403,-2.533,1.404,-1.221,66.667,545.000,1.000,8.741,0.000
-28896.430,-27651.690,-81192.090,-77188.770,-20491.270,-23700.810,-23917.660,-24810.430,-0.015,0.916,-0.404,-2.594,1.312,-1.068,66.667,546.000,1.000,3.083,0.000
-29001.000,-27747.210,-81623.440,-77580.640,-20591.360,-23783.530,-23983.030,-24879.070,-0.014,0.914,-0.398,-2.472,1.190,-0.946,66.667,547.000,1.000,0.010,0.000
-29104.660,-27841.890,-82050.390,-77970.180,-20691.420,-23865.860,-24048.680,-24947.380,-0.015,0.913,-0.396,-2.350,1.068,-0.854,66.667,548.000,1.000,1.876,0.000
-29208.600,-27936.610,-82476.290,-78359.880,-20793.210,-23948.510,-24114.400,-25017.670,-0.016,0.914,-0.396,-2.350,1.099,-0.732,66.667,549.000,1.000,16.578,0.000
-29310.870,-28029.040,-82900.040,-78746.480,-20893.240,-24028.650,-24176.730,-25086.050,-0.015,0.914,-0.398,-2.289,1.007,-0.519,66.667,550.000,1.000,5.252,0.000
-29412.430,-28119.830,-83321.740,-79128.880,-20990.710,-24105.630,-24236.700,-25151.930,-0.015,0.914,-0.398,-2.258,0.977,-0.488,66.667,551.000,1.000,0.009,0.000
-29518.040,-28215.080,-83746.550,-79512.880,-21090.840,-24184.980,-24299.910,-25220.780,-0.013,0.915,-0.400,-2.319,0.885,-0.397,66.667,552.000,1.000,1.937,0.000
-29623.370,-28310.590,-84170.030,-79896.340,-21190.640,-24265.570,-24363.550,-25290.260,-0.014,0.915,-0.404,-2.228,0.824,-0.275,66.667,553.000,1.000,2.505,0.000
-29718.550,-28395.280,-84581.290,-80269.380,-21280.290,-24337.720,-24418.770,-25352.030,-0.014,0.915,-0.399,-2.136,0.763,-0.275,66.667,554.000,1.000,2.530,0.000
-29808.790,-28474.080,-84984.980,-80634.690,-21363.980,-24403.850,-24469.060,-25408.300,-0.014,0.916,-0.401,-2.167,0.732,-0.244,66.667,555.000,1.000,2.459,0.000
-29906.590,-28559.100,-85392.740,-81002.700,-21453.820,-24475.080,-24524.660,-25468.950,-0.014,0.918,-0.401,-2.258,0.732,-0.275,66.667,556.000,1.000,3.775,0.000
-30008.330,-28646.930,-85800.810,-81370.890,-21546.630,-24548.780,-24581.820,-25532.730,-0.014,0.918,-0.399,-2.167,0.702,-0.183,66.667,557.000,1.000,14.342,0.000
-30108.000,-28733.150,-86205.270,-81735.860,-21636.880,-24620.170,-24636.150,-25596.550,-0.013,0.919,-0.405,-2.228,0.610,-0.275,66.667,558.000,1.000,0.013,0.000
-30209.260,-28822.720,-86612.030,-82103.660,-21729.280,-24694.260,-24693.260,-25663.850,-0.014,0.920,-0.402,-2.319,0.702,-0.305,66.667,559.000,1.000,4.377,0.000
-30308.990,-28912.550,-87018.520,-82472.610,-21822.610,-24769.050,-24751.560,-25730.890,-0.012,0.922,-0.401,-2.380,0.671,-0.366,66.667,560.000,1.000,3.062,0.000
-30400.920,-28995.870,-87418.390,-82835.430,-21911.970,-24838.310,-24805.550,-25792.770,-0.013,0.924,-0.401,-2.380,0.671,-0.397,66.667,561.000,1.000,0.006,0.000
-30487.440,-29074.390,-87812.970,-83191.600,-21997.870,-24903.600,-24855.790,-25851.560,-0.011,0.922,-0.403,-2.502,0.671,-0.336,66.667,562.000,1.000,1.983,0.000
-30577.100,-29155.230,-88208.020,-83547.820,-22085.390,-24971.650,-24907.880,-25913.100,-0.011,0.921,-0.401,-2.502,0.580,-0.366,66.667,563.000,1.000,3.711,0.000
-30675.980,-29243.020,-88607.520,-83909.560,-22179.340,-25047.050,-24967.190,-25980.850,-0.010,0.921,-0.399,-2.533,0.519,-0.397,66.667,564.000,1.000,8.688,0.000
-30777.290,-29330.750,-89005.050,-84270.410,-22273.650,-25122.230,-25026.660,-26047.240,-0.011,0.923,-0.400,-2.533,0.641,-0.458,66.667,565.000,1.000,3.109,0.000
-30870.320,-29409.840,-89392.080,-84621.580,-22359.290,-25188.330,-25076.950,-26104.230,-0.012,0.924,-0.404,-2.808,0.671,-0.305,66.667,566.000,1.000,0.012,0.000
-30957.450,-29485.690,-89772.630,-84966.950,-22439.990,-25250.870,-25123.530,-26157.290,-0.013,0.923,-0.402,-2.869,0.702,-0.244,66.667,567.000,1.000,1.906,0.000
-31046.440,-29566.750,-90154.680,-85313.830,-22524.180,-25318.180,-25174.830,-26213.760,-0.014,0.926,-0.402,-2.899,0.854,-0.275,66.667,568.000,1.000,11.262,0.000
-31138.520,-29652.770,-90539.480,-85662.880,-22613.540,-25390.650,-25231.030,-26274.130,-0.015,0.922,-0.400,-3.021,0.732,-0.397,66.667,569.000,1.000,5.514,0.000
-31233.050,-29741.220,-90927.470,-86013.770,-22706.620,-25466.700,-25290.070,-26338.060,-0.014,0.921,-0.399,-3.174,0.824,-0.336,66.667,570.000,1.000,0.012,0.000
-31328.680,-29829.030,-91317.100,-86364.730,-22800.270,-25542.550,-25349.020,-26401.770,-0.014,0.917,-0.400,-3.143,0.793,-0.275,66.667,571.000,1.000,1.908,0.000
-31420.960,-29911.430,-91701.840,-86710.430,-22890.300,-25612.000,-25404.130,-26459.530,-0.013,0.917,-0.401,-3.082,0.885,-0.214,66.667,572.000,1.000,2.581,0.000
-31507.840,-29988.410,-92078.890,-87050.260,-22976.610,-25675.610,-25455.180,-26514.300,-0.012,0.915,-0.406,-3.113,0.854,-0.275,66.667,573.000,1.000,8.761,0.000
-31593.110,-30064.930,-92452.230,-87389.350,-23062.820,-25739.620,-25505.660,-26572.600,-0.011,0.914,-0.401,-3.052,0.916,-0.305,66.667,574.000,1.000,3.053,0.000
-31680.660,-30144.120,-92824.660,-87729.430,-23150.900,-25806.670,-25558.210,-26633.970,-0.011,0.913,-0.399,-3.021,0.916,-0.183,66.667,575.000,1.000,0.010,0.000
-31764.530,-30220.320,-93189.200,-88062.090,-23233.900,-25869.900,-25606.740,-26689.370,-0.012,0.909,-0.399,-2.869,1.038,-0.244,66.667,576.000,1.000,1.916,0.000
-31843.560,-30292.650,-93545.650,-88385.660,-23309.790,-25927.910,-25649.820,-26738.000,-0.011,0.905,-0.401,-2.838,1.038,-0.244,66.667,577.000,1.000,11.254,0.000
-31932.350,-30373.940,-93910.480,-88715.710,-23393.160,-25994.230,-25701.390,-26794.310,-0.010,0.904,-0.399,-2.625,1.190,-0.214,66.667,578.000,1.000,6.833,0.000
-32029.940,-30462.150,-94283.860,-89053.480,-23484.860,-26068.220,-25761.750,-26858.540,-0.010,0.904,-0.401,-2.411,1.160,-0.275,66.667,579.000,1.000,0.013,0.000
-32121.530,-30543.210,-94650.840,-89384.880,-23571.190,-26136.150,-25817.290,-26918.930,-0.013,0.906,-0.401,-2.197,1.251,-0.214,66.667,580.000,1.000,1.890,0.000
-32208.690,-30618.840,-95011.930,-89710.470,-23653.080,-26198.670,-25867.050,-26976.140,-0.014,0.909,-0.403,-2.045,1.251,-0.275,66.667,581.000,1.000,9.342,0.000
-32297.790,-30694.910,-95373.410,-90037.320,-23735.870,-26261.310,-25915.880,-27034.000,-0.016,0.913,-0.402,-1.923,1.343,-0.275,66.667,582.000,1.000,0.011,0.000
-32386.270,-30771.150,-95734.520,-90364.020,-23818.290,-26324.200,-25965.250,-27091.320,-0.017,0.915,-0.400,-1.831,1.373,-0.427,66.667,583.000,1.000,6.255,0.000
-32470.100,-30845.550,-96091.210,-90685.300,-23898.550,-26385.550,-26013.450,-27145.160,-0.020,0.916,-0.402,-1.892,1.434,-0.488,66.667,584.000,1.000,0.012,0.000
-32550.050,-30917.930,-96442.390,-91001.860,-23977.390,-26445.120,-26058.670,-27196.560,-0.017,0.919,-0.402,-1.770,1.312,-0.549,66.667,585.000,1.000,7.004,0.000
-32635.090,-30995.680,-96796.570,-91324.160,-24062.710,-26511.690,-26109.050,-27255.540,-0.017,0.920,-0.404,-1.709,1.282,-0.641,66.667,586.000,1.000,14.217,0.000
-32726.500,-31078.260,-97154.910,-91651.770,-24154.670,-26585.580,-26166.180,-27321.360,-0.017,0.920,-0.403,-1.709,1.221,-0.610,66.667,587.000,1.000,0.019,0.000
-32813.000,-31153.990,-97505.550,-91970.320,-24240.140,-26651.800,-26217.470,-27378.800,-0.018,0.921,-0.400,-1.831,1.068,-0.549,66.667,588.000,1.000,2.458,0.000
-32889.970,-31219.720,-97844.440,-92276.160,-24313.890,-26704.820,-26257.700,-27423.130,-0.018,0.923,-0.400,-1.923,1.160,-0.549,66.667,589.000,1.000,0.011,0.000
-32963.820,-31282.590,-98178.930,-92578.130,-24382.930,-26753.810,-26293.930,-27463.560,-0.017,0.923,-0.401,-2.045,0.977,-0.549,66.667,590.000,1.000,6.270,0.000
-33044.790,-31352.760,-98519.540,-92885.390,-24458.510,-26811.740,-26337.490,-27510.990,-0.014,0.921,-0.404,-2.045,1.099,-0.458,66.667,591.000,1.000,0.009,0.000
-33136.570,-31434.950,-98871.140,-93201.470,-24546.760,-26884.590,-26393.990,-27570.850,-0.013,0.922,-0.401,-2.075,1.068,-0.427,66.667,592.000,1.000,13.703,0.000
-33227.950,-31518.270,-99222.710,-93517.880,-24636.760,-26959.800,-26451.730,-27634.830,-0.010,0.921,-0.406,-2.106,1.251,-0.305,66.667,593.000,1.000,0.011,0.000
-33305.760,-31588.120,-99558.960,-93821.210,-24713.120,-27020.600,-26496.190,-27688.060,-0.009,0.920,-0.404,-2.045,1.312,-0.366,66.667,594.000,1.000,2.476,0.000
-33375.870,-31650.420,-99885.090,-94115.380,-24782.110,-27073.550,-26535.460,-27733.790,-0.009,0.915,-0.405,-2.075,1.434,-0.244,66.667,595.000,1.000,0.014,0.000
-33449.960,-31717.450,-100213.600,-94412.220,-24856.230,-27131.600,-26581.340,-27782.910,-0.006,0.914,-0.404,-2.045,1.526,-0.122,66.667,596.000,1.000,1.889,0.000
-33525.390,-31785.710,-100541.100,-94708.810,-24930.590,-27189.880,-26627.270,-27832.380,-0.006,0.915,-0.405,-1.984,1.648,-0.183,66.667,597.000,1.000,16.913,0.000
-33596.920,-31849.590,-100861.800,-94999.280,-24999.240,-27242.650,-26667.150,-27877.130,-0.008,0.913,-0.401,-1.953,1.831,-0.305,66.667,598.000,1.000,0.019,0.000
-33673.320,-31918.190,-101186.000,-95292.380,-25073.120,-27301.130,-26711.340,-27925.300,-0.009,0.912,-0.404,-1.801,1.923,-0.366,66.667,599.000,1.000,14.934,0.000
-33761.210,-31996.990,-101520.300,-95594.070,-25158.410,-27370.860,-26764.770,-27982.250,-0.009,0.913,-0.402,-1.801,1.984,-0.366,66.667,600.000,1.000,0.020,0.000
-33846.500,-32071.140,-101850.100,-95891.390,-25239.060,-27435.130,-26812.290,-28035.580,-0.008,0.912,-0.403,-1.801,2.167,-0.305,66.667,601.000,1.000,0.010,0.000
-33921.700,-32135.370,-102169.100,-96179.340,-25309.090,-27487.930,-26849.060,-28080.940,-0.011,0.911,-0.403,-1.740,2.197,-0.458,66.667,602.000,1.000,0.008,0.000
-33993.110,-32197.580,-102484.500,-96464.130,-25376.730,-27537.100,-26883.080,-28123.970,-0.014,0.911,-0.403,-1.862,2.258,-0.519,66.667,603.000,1.000,2.975,0.000
-34061.360,-32258.030,-102797.100,-96745.530,-25442.680,-27584.510,-26916.390,-28164.590,-0.016,0.912,-0.405,-1.740,2.289,-0.488,66.667,604.000,1.000,0.005,0.000
-34127.090,-32317.220,-103107.200,-97024.680,-25507.780,-27633.180,-26951.860,-28205.370,-0.016,0.914,-0.405,-1.709,2.289,-0.702,66.667,605.000,1.000,0.003,0.000
-34195.730,-32379.020,-103418.100,-97306.660,-25577.110,-27686.040,-26993.030,-28251.330,-0.017,0.918,-0.405,-1.831,2.319,-0.732,66.667,606.000,1.000,6.413,0.000
-34272.250,-32447.200,-103733.900,-97595.310,-25654.470,-27744.670,-27041.510,-28304.860,-0.017,0.919,-0.403,-1.892,2.136,-0.824,66.667,607.000,1.000,2.547,0.000
-34354.070,-32520.480,-104053.600,-97886.740,-25736.040,-27807.790,-27093.650,-28361.650,-0.017,0.919,-0.403,-1.984,2.045,-0.763,66.667,608.000,1.000,3.723,0.000
-34434.630,-32592.510,-104371.000,-98173.430,-25814.750,-27869.270,-27141.960,-28415.560,-0.018,0.920,-0.403,-1.953,1.984,-0.702,66.667,609.000,1.000,7.475,0.000
-34509.230,-32658.270,-104681.200,-98452.190,-25886.730,-27923.860,-27183.070,-28464.370,-0.018,0.919,-0.402,-2.167,1.953,-0.732,66.667,610.000,1.000,3.059,0.000
-34575.040,-32716.200,-104981.600,-98722.340,-25950.480,-27970.950,-27216.990,-28506.590,-0.016,0.920,-0.401,-2.228,2.014,-0.671,66.667,611.000,1.000,0.010,0.000
-34637.150,-32770.440,-105276.500,-98987.830,-26010.850,-28015.970,-27247.590,-28544.510,-0.017,0.919,-0.403,-2.258,1.984,-0.610,66.667,612.000,1.000,10.696,0.000
-34705.700,-32828.730,-105574.900,-99256.110,-26076.190,-28065.570,-27282.190,-28584.890,-0.015,0.918,-0.405,-2.289,1.831,-0.458,66.667,613.000,1.000,3.068,0.000
-34779.640,-32890.930,-105877.000,-99527.280,-26145.390,-28117.610,-27319.780,-28627.720,-0.015,0.917,-0.404,-2.441,1.740,-0.366,66.667,614.000,1.000,0.009,0.000
-34849.690,-32949.220,-106175.000,-99795.390,-26211.510,-28165.140,-27353.970,-28667.560,-0.016,0.917,-0.404,-2.563,1.678,-0.244,66.667,615.000,1.000,1.946,0.000
-34915.980,-33005.490,-106468.600,-100061.800,-26277.190,-28211.520,-27388.840,-28709.420,-0.018,0.918,-0.404,-2.655,1.526,-0.061,66.667,616.000,1.000,8.704,0.000
-34979.480,-33062.460,-106758.000,-100326.600,-26343.480,-28259.380,-27425.540,-28754.810,-0.016,0.914,-0.402,-2.533,1.434,-0.061,66.667,617.000,1.000,2.471,0.000
-35038.340,-33115.980,-107040.700,-100585.000,-26406.020,-28304.240,-27457.910,-28795.030,-0.016,0.913,-0.405,-2.472,1.495,-0.122,66.667,618.000,1.000,3.825,0.000
-35102.980,-33174.050,-107325.900,-100844.700,-26472.100,-28352.240,-27493.530,-28836.730,-0.016,0.912,-0.404,-2.533,1.495,-0.122,66.667,619.000,1.000,9.226,0.000
-35179.900,-33244.200,-107621.000,-101112.200,-26547.210,-28410.610,-27539.810,-28888.190,-0.015,0.911,-0.402,-2.350,1.251,-0.031,66.667,620.000,1.000,0.008,0.000
-35256.170,-33313.650,-107914.900,-101377.200,-26620.160,-28469.920,-27585.640,-28937.800,-0.016,0.913,-0.402,-2.411,1.190,-0.092,66.667,621.000,1.000,1.887,0.000
-35318.790,-33367.960,-108195.500,-101628.800,-26680.560,-28517.250,-27618.800,-28974.210,-0.016,0.912,-0.406,-2.319,1.129,-0.153,66.667,622.000,1.000,11.855,0.000
-35373.010,-33412.090,-108466.800,-101871.400,-26734.110,-28556.110,-27643.740,-29003.040,-0.017,0.915,-0.405,-2.289,1.129,-0.153,66.667,623.000,1.000,0.012,0.000
-35432.130,-33460.480,-108741.500,-102117.400,-26792.830,-28600.140,-27674.090,-29036.440,-0.016,0.917,-0.406,-2.228,1.068,-0.183,66.667,624.000,1.000,1.929,0.000
-35497.510,-33516.590,-109022.000,-102369.100,-26858.450,-28651.060,-27711.900,-29077.320,-0.015,0.917,-0.404,-2.350,0.946,-0.122,66.667,625.000,1.000,3.777,0.000
-35563.390,-33576.000,-109302.800,-102621.200,-26924.980,-28701.380,-27750.090,-29119.980,-0.014,0.920,-0.403,-2.319,0.854,-0.092,66.667,626.000,1.000,11.868,0.000
-35630.440,-33637.640,-109583.100,-102873.500,-26991.200,-28751.580,-27789.710,-29162.580,-0.013,0.921,-0.403,-2.380,0.763,-0.122,66.667,627.000,1.000,0.017,0.000
-35700.210,-33701.250,-109863.500,-103127.900,-27059.460,-28805.970,-27834.460,-29208.000,-0.015,0.923,-0.405,-2.472,0.793,-0.092,66.667,628.000,1.000,2.412,0.000
-35766.620,-33761.120,-110138.400,-103378.600,-27124.920,-28858.800,-27876.450,-29251.020,-0.014,0.923,-0.404,-2.502,0.732,-0.275,66.667,629.000,1.000,0.014,0.000
-35827.500,-33815.080,-110405.200,-103621.900,-27184.660,-28904.120,-27909.240,-29286.360,-0.011,0.923,-0.405,-2.533,0.641,-0.275,66.667,630.000,1.000,2.011,0.000
-35890.150,-33869.710,-110671.100,-103862.800,-27244.940,-28946.630,-27938.600,-29319.430,-0.008,0.924,-0.407,-2.655,0.732,-0.244,66.667,631.000,1.000,12.333,0.000
-35957.400,-33928.770,-110942.000,-104105.500,-27309.780,-28992.770,-27971.450,-29355.910,-0.006,0.923,-0.405,-2.747,0.763,-0.336,66.667,632.000,1.000,3.079,0.000
-36021.890,-33987.240,-111213.500,-104347.500,-27374.750,-29040.860,-28006.900,-29394.290,-0.009,0.922,-0.402,-2.838,0.946,-0.305,66.667,633.000,1.000,0.005,0.000
-36078.170,-34039.910,-111478.800,-104584.700,-27434.110,-29085.230,-28040.210,-29431.040,-0.008,0.920,-0.399,-2.808,0.946,-0.397,66.667,634.000,1.000,1.978,0.000
-36133.800,-34091.480,-111741.500,-104819.800,-27492.600,-29129.420,-28074.160,-29468.250,-0.011,0.919,-0.400,-2.869,1.007,-0.275,66.667,635.000,1.000,2.579,0.000
-36195.350,-34146.160,-112005.000,-105055.500,-27555.400,-29177.780,-28111.590,-29507.710,-0.011,0.915,-0.402,-2.960,0.916,-0.092,66.667,636.000,1.000,8.664,0.000
-36255.730,-34197.970,-112263.100,-105287.200,-27616.240,-29223.720,-28146.270,-29545.140,-0.008,0.911,-0.405,-2.838,0.885,-0.092,66.667,637.000,1.000,2.429,0.000
-36311.080,-34246.230,-112514.400,-105515.100,-27672.760,-29264.410,-28176.940,-29580.880,-0.010,0.911,-0.406,-2.625,0.946,-0.122,66.667,638.000,1.000,3.926,0.000
-36367.130,-34297.010,-112766.000,-105744.100,-27730.450,-29305.330,-28208.920,-29618.750,-0.009,0.912,-0.403,-2.533,0.977,-0.183,66.667,639.000,1.000,9.187,0.000
-36426.750,-34350.660,-113020.900,-105975.400,-27790.850,-29349.490,-28242.900,-29657.370,-0.007,0.914,-0.401,-2.563,1.190,-0.183,66.667,640.000,1.000,0.008,0.000
-36489.850,-34407.160,-113279.200,-106209.100,-27853.930,-29397.390,-28278.100,-29696.530,-0.008,0.913,-0.400,-2.563,1.251,-0.214,66.667,641.000,1.000,1.922,0.000
-36553.030,-34464.540,-113536.600,-106440.700,-27916.500,-29444.240,-28311.390,-29734.210,-0.009,0.912,-0.399,-2.533,1.373,-0.214,66.667,642.000,1.000,10.019,0.000
-36612.410,-34518.190,-113787.100,-106666.100,-27974.420,-29486.020,-28340.650,-29766.790,-0.008,0.910,-0.403,-2.563,1.495,-0.214,66.667,643.000,1.000,3.086,0.000
-36670.120,-34569.940,-114033.900,-106888.900,-28031.780,-29528.680,-28371.610,-29799.260,-0.010,0.911,-0.402,-2.502,1.465,-0.244,66.667,644.000,1.000,0.009,0.000
-36725.210,-34619.410,-114278.200,-107109.600,-28089.150,-29572.130,-28403.680,-29834.170,-0.011,0.916,-0.401,-2.319,1.556,-0.275,66.667,645.000,1.000,1.919,0.000
-36769.300,-34657.140,-114510.700,-107319.100,-28135.160,-29604.310,-28424.840,-29860.060,-0.010,0.917,-0.401,-2.350,1.678,-0.397,66.667,646.000,1.000,24.998,0.000
-36807.910,-34687.690,-114734.900,-107521.900,-28173.090,-29628.670,-28438.220,-29877.390,-0.011,0.918,-0.402,-2.319,1.678,-0.458,66.667,647.000,1.000,2.493,0.000
-36857.140,-34728.110,-114967.200,-107735.000,-28220.970,-29662.980,-28460.930,-29904.050,-0.010,0.917,-0.402,-2.228,1.587,-0.519,66.667,648.000,1.000,2.452,0.000
-36915.460,-34777.850,-115207.700,-107957.000,-28278.640,-29707.530,-28492.840,-29942.000,-0.013,0.917,-0.403,-2.319,1.709,-0.458,66.667,649.000,1.000,2.584,0.000
-36974.210,-34829.320,-115449.300,-108178.200,-28337.280,-29753.230,-28525.610,-29982.030,-0.010,0.918,-0.402,-2.258,1.740,-0.458,66.667,650.000,1.000,2.441,0.000
-37032.400,-34881.820,-115690.800,-108396.700,-28396.240,-29798.660,-28559.390,-30021.320,-0.011,0.919,-0.401,-2.380,1.648,-0.488,66.667,651.000,1.000,2.534,0.000
-37086.910,-34930.400,-115927.900,-108609.100,-28452.220,-29840.800,-28590.580,-30056.060,-0.011,0.918,-0.402,-2.380,1.709,-0.519,66.667,652.000,1.000,2.411,0.000
-37130.800,-34967.180,-116152.300,-108809.300,-28497.460,-29872.200,-28610.250,-30080.560,-0.012,0.920,-0.399,-2.411,1.709,-0.488,66.667,653.000,1.000,2.585,0.000
-37167.610,-34997.410,-116367.600,-109001.600,-28535.310,-29896.910,-28623.200,-30099.620,-0.011,0.919,-0.400,-2.533,1.801,-0.458,66.667,654.000,1.000,2.474,0.000
-37211.540,-35035.880,-116587.900,-109199.400,-28579.580,-29929.880,-28645.850,-30125.680,-0.011,0.917,-0.400,-2.625,1.770,-0.397,66.667,655.000,1.000,3.019,0.000
-37268.900,-35087.380,-116819.600,-109408.900,-28636.580,-29974.850,-28681.680,-30163.390,-0.013,0.919,-0.402,-2.686,1.801,-0.458,66.667,656.000,1.000,0.007,0.000
-37331.160,-35143.900,-117055.400,-109623.800,-28699.910,-30021.630,-28719.330,-30205.990,-0.012,0.919,-0.400,-2.625,1.709,-0.397,66.667,657.000,1.000,5.787,0.000
-37389.850,-35197.270,-117287.900,-109835.500,-28760.960,-30063.160,-28752.130,-30244.450,-0.012,0.918,-0.402,-2.686,1.678,-0.458,66.667,658.000,1.000,2.377,0.000
-37445.090,-35245.200,-117514.900,-110040.600,-28816.510,-30100.140,-28780.210,-30276.740,-0.011,0.918,-0.403,-2.655,1.678,-0.488,66.667,659.000,1.000,2.626,0.000
-37495.980,-35285.970,-117734.000,-110237.800,-28865.200,-30133.000,-28801.900,-30304.150,-0.014,0.917,-0.401,-2.686,1.770,-0.427,66.667,660.000,1.000,4.281,0.000
-37545.960,-35324.830,-117950.500,-110433.300,-28912.860,-30166.310,-28822.150,-30331.770,-0.013,0.916,-0.404,-2.594,1.678,-0.458,66.667,661.000,1.000,0.004,0.000
-37600.910,-35369.070,-118172.100,-110633.900,-28966.510,-30205.570,-28848.260,-30363.940,-0.013,0.917,-0.404,-2.625,1.617,-0.458,66.667,662.000,1.000,10.703,0.000
-37651.420,-35409.530,-118389.600,-110829.500,-29017.580,-30241.760,-28872.400,-30391.920,-0.015,0.917,-0.402,-2.594,1.617,-0.427,66.667,663.000,1.000,3.071,0.000
-37689.040,-35439.190,-118595.100,-111012.800,-29058.770,-30266.250,-28885.920,-30409.110,-0.014,0.917,-0.404,-2.625,1.495,-0.458,66.667,664.000,1.000,0.007,0.000
-37724.250,-35469.480,-118797.800,-111194.400,-29098.580,-30288.470,-28896.320,-30424.120,-0.014,0.917,-0.406,-2.625,1.465,-0.549,66.667,665.000,1.000,1.924,0.000
-37767.040,-35509.170,-119006.100,-111382.300,-29144.470,-30319.700,-28914.210,-30445.370,-0.015,0.917,-0.405,-2.716,1.373,-0.549,66.667,666.000,1.000,8.719,0.000
-37815.660,-35555.040,-119217.900,-111573.700,-29194.800,-30359.120,-28940.570,-30472.080,-0.014,0.917,-0.404,-2.716,1.434,-0.580,66.667,667.000,1.000,2.466,0.000
-37867.320,-35602.950,-119431.500,-111766.100,-29247.740,-30401.880,-28971.550,-30502.700,-0.014,0.917,-0.401,-2.777,1.282,-0.549,66.667,668.000,1.000,14.966,0.000
-37919.970,-35649.940,-119645.600,-111958.500,-29301.300,-30444.040,-29003.120,-30536.030,-0.014,0.916,-0.406,-2.716,1.221,-0.488,66.667,669.000,1.000,0.020,0.000
-37968.290,-35691.090,-119853.800,-112145.700,-29350.060,-30479.720,-29029.110,-30566.460,-0.012,0.913,-0.403,-2.625,1.312,-0.458,66.667,670.000,1.000,0.007,0.000
-38010.610,-35726.070,-120054.400,-112326.500,-29393.290,-30508.840,-29049.330,-30591.000,-0.012,0.914,-0.399,-2.655,1.221,-0.549,66.667,671.000,1.000,3.076,0.000
-38051.700,-35760.500,-120252.400,-112505.400,-29436.150,-30537.450,-29069.740,-30614.290,-0.010,0.916,-0.399,-2.533,1.221,-0.488,66.667,672.000,1.000,0.015,0.000
-38095.680,-35798.510,-120451.600,-112686.000,-29482.650,-30568.620,-29092.320,-30642.130,-0.009,0.915,-0.400,-2.625,1.282,-0.488,66.667,673.000,1.000,2.009,0.000
-38141.530,-35839.910,-120652.400,-112868.200,-29533.240,-30602.040,-29116.360,-30674.020,-0.009,0.917,-0.401,-2.594,1.312,-0.580,66.667,674.000,1.000,11.153,0.000
-38180.810,-35876.520,-120848.100,-113044.900,-29579.450,-30630.740,-29135.430,-30700.760,-0.010,0.919,-0.401,-2.655,1.312,-0.519,66.667,675.000,1.000,3.058,0.000
-38213.030,-35905.800,-121037.200,-113214.100,-29617.670,-30653.850,-29148.400,-30720.240,-0.011,0.919,-0.399,-2.625,1.312,-0.488,66.667,676.000,1.000,0.010,0.000
-38250.880,-35939.680,-121230.200,-113385.600,-29658.880,-30684.790,-29167.280,-30742.620,-0.012,0.919,-0.401,-2.594,1.160,-0.519,66.667,677.000,1.000,1.871,0.000
-38297.800,-35983.120,-121429.800,-113563.900,-29707.350,-30726.300,-29194.840,-30771.780,-0.014,0.921,-0.402,-2.716,1.129,-0.488,66.667,678.000,1.000,8.776,0.000
-38345.570,-36027.250,-121627.000,-113742.000,-29755.620,-30765.670,-29220.750,-30800.740,-0.014,0.918,-0.400,-2.747,1.221,-0.427,66.667,679.000,1.000,2.531,0.000
-38389.690,-36066.370,-121817.700,-113914.600,-29800.530,-30798.050,-29241.130,-30825.120,-0.013,0.919,-0.399,-2.869,1.129,-0.549,66.667,680.000,1.000,3.730,0.000
-38430.200,-36101.290,-122004.400,-114082.800,-29844.120,-30827.690,-29260.090,-30847.410,-0.014,0.919,-0.401,-2.899,1.007,-0.458,66.667,681.000,1.000,9.233,0.000
-38465.290,-36130.320,-122185.700,-114245.600,-29883.290,-30852.240,-29275.380,-30865.940,-0.014,0.917,-0.403,-2.869,1.160,-0.458,66.667,682.000,1.000,0.013,0.000
-38500.130,-36158.760,-122366.400,-114406.900,-29920.590,-30874.520,-29288.190,-30883.010,-0.012,0.916,-0.401,-2.869,1.160,-0.458,66.667,683.000,1.000,5.705,0.000
-38544.420,-36196.770,-122554.900,-114575.300,-29965.630,-30906.070,-29308.420,-30907.860,-0.013,0.914,-0.402,-2.869,1.068,-0.610,66.667,684.000,1.000,2.640,0.000
-38594.560,-36240.480,-122746.500,-114746.900,-30015.180,-30943.760,-29334.150,-30936.440,-0.012,0.912,-0.400,-2.808,1.007,-0.519,66.667,685.000,1.000,2.440,0.000
-38638.200,-36277.430,-122929.500,-114910.500,-30057.290,-30973.590,-29353.190,-30956.150,-0.011,0.913,-0.400,-2.808,1.160,-0.549,66.667,686.000,1.000,8.778,0.000
-38675.990,-36308.420,-123106.200,-115067.900,-30093.710,-30996.420,-29366.740,-30970.690,-0.010,0.912,-0.401,-2.686,1.190,-0.519,66.667,687.000,1.000,3.029,0.000
-38718.040,-36343.440,-123286.600,-115228.400,-30134.750,-31023.720,-29385.460,-30990.820,-0.011,0.910,-0.402,-2.594,1.221,-0.641,66.667,688.000,1.000,0.010,0.000
-38764.290,-36382.250,-123468.800,-115390.900,-30180.070,-31057.100,-29409.630,-31014.290,-0.011,0.909,-0.404,-2.502,1.190,-0.671,66.667,689.000,1.000,5.715,0.000
-38806.080,-36416.390,-123644.400,-115549.100,-30221.790,-31087.720,-29431.260,-31034.360,-0.012,0.910,-0.403,-2.319,1.129,-0.671,66.667,690.000,1.000,9.309,0.000
-38840.310,-36443.400,-123811.700,-115701.600,-30257.720,-31110.900,-29446.390,-31050.280,-0.013,0.911,-0.403,-2.197,1.160,-0.641,66.667,691.000,1.000,0.006,0.000
-38873.630,-36470.440,-123978.300,-115853.500,-30294.010,-31133.130,-29460.420,-31066.980,-0.013,0.912,-0.401,-2.075,1.190,-0.702,66.667,692.000,1.000,1.876,0.000
-38908.980,-36499.990,-124147.000,-116006.400,-30331.960,-31158.260,-29477.540,-31085.920,-0.014,0.912,-0.400,-2.014,1.251,-0.671,66.667,693.000,1.000,3.837,0.000
-38945.700,-36531.050,-124316.600,-116159.500,-30370.460,-31185.280,-29497.480,-31107.020,-0.015,0.914,-0.399,-1.953,1.099,-0.763,66.667,694.000,1.000,3.603,0.000
-38985.220,-36565.510,-124488.600,-116313.700,-30412.080,-31214.510,-29520.030,-31131.170,-0.017,0.916,-0.401,-1.923,1.068,-0.854,66.667,695.000,1.000,4.432,0.000
-39023.370,-36599.090,-124659.200,-116465.500,-30453.970,-31242.290,-29540.060,-31154.040,-0.017,0.918,-0.402,-1.862,1.038,-0.793,66.667,696.000,1.000,0.010,0.000
-39055.300,-36626.080,-124823.300,-116611.200,-30491.660,-31265.750,-29554.210,-31172.760,-0.015,0.919,-0.400,-1.953,1.038,-0.732,66.667,697.000,1.000,13.036,0.000
-39084.550,-36649.370,-124982.800,-116753.100,-30526.770,-31287.860,-29566.530,-31189.490,-0.015,0.921,-0.398,-2.106,1.099,-0.732,66.667,698.000,1.000,2.586,0.000
-39119.280,-36677.790,-125145.100,-116898.900,-30565.650,-31314.570,-29583.490,-31209.950,-0.015,0.920,-0.402,-2.014,0.977,-0.641,66.667,699.000,1.000,2.456,0.000
-39158.610,-36711.630,-125310.800,-117049.300,-30608.790,-31345.730,-29605.220,-31235.520,-0.015,0.920,-0.404,-2.258,1.007,-0.671,66.667,700.000,1.000,2.565,0.000
-39194.900,-36743.010,-125473.100,-117196.700,-30649.440,-31373.820,-29624.890,-31260.660,-0.014,0.922,-0.406,-2.258,1.068,-0.610,66.667,701.000,1.000,11.273,0.000
-39228.920,-36772.070,-125632.600,-117341.200,-30687.390,-31397.860,-29641.370,-31284.220,-0.016,0.922,-0.405,-2.380,1.068,-0.549,66.667,702.000,1.000,2.990,0.000
-39260.800,-36799.730,-125789.200,-117482.900,-30722.240,-31418.990,-29654.230,-31303.910,-0.014,0.920,-0.405,-2.411,1.038,-0.488,66.667,703.000,1.000,0.005,0.000
-39282.770,-36818.650,-125935.200,-117613.600,-30746.460,-31431.790,-29657.670,-31311.990,-0.013,0.921,-0.404,-2.380,1.129,-0.519,66.667,704.000,1.000,1.988,0.000
-39300.590,-36834.680,-126077.000,-117738.900,-30767.110,-31442.910,-29659.670,-31316.040,-0.013,0.919,-0.403,-2.655,1.068,-0.427,66.667,705.000,1.000,2.503,0.000
-39330.180,-36863.880,-126230.800,-117875.000,-30801.040,-31467.960,-29676.600,-31332.750,-0.011,0.919,-0.403,-2.716,1.038,-0.336,66.667,706.000,1.000,8.707,0.000
-39370.500,-36903.370,-126393.400,-118019.500,-30846.310,-31503.930,-29705.420,-31359.480,-0.012,0.916,-0.405,-2.747,1.038,-0.305,66.667,707.000,1.000,4.188,0.000
-39408.960,-36939.350,-126550.900,-118159.000,-30890.010,-31537.150,-29731.310,-31383.270,-0.010,0.914,-0.405,-2.716,1.190,-0.244,66.667,708.000,1.000,0.005,0.000
-39437.210,-36963.580,-126696.400,-118287.300,-30923.810,-31559.150,-29744.990,-31396.810,-0.011,0.911,-0.405,-2.686,1.221,-0.214,66.667,709.000,1.000,7.048,0.000
-39460.130,-36980.520,-126835.100,-118410.500,-30951.130,-31574.340,-29750.930,-31404.460,-0.012,0.911,-0.403,-2.625,1.312,-0.244,66.667,710.000,1.000,2.553,0.000
-39483.910,-36997.450,-126972.900,-118533.700,-30977.690,-31589.690,-29756.310,-31412.520,-0.011,0.913,-0.403,-2.625,1.282,-0.183,66.667,711.000,1.000,2.451,0.000
-39503.680,-37011.190,-127105.700,-118652.200,-30998.940,-31599.590,-29756.330,-31416.630,-0.012,0.913,-0.406,-2.472,1.251,-0.183,66.667,712.000,1.000,6.243,0.000
-39525.730,-37027.690,-127239.000,-118771.400,-31021.150,-31608.350,-29756.500,-31421.520,-0.015,0.916,-0.405,-2.350,1.282,-0.214,66.667,713.000,1.000,4.399,0.000
-39562.370,-37058.460,-127384.600,-118902.800,-31057.740,-31629.840,-29770.530,-31438.280,-0.016,0.915,-0.402,-2.411,1.282,-0.275,66.667,714.000,1.000,0.021,0.000
-39606.200,-37096.500,-127537.200,-119041.300,-31103.190,-31660.690,-29793.350,-31463.080,-0.013,0.914,-0.402,-2.411,1.251,-0.305,66.667,715.000,1.000,10.564,0.000
-39639.040,-37123.910,-127680.200,-119170.400,-31139.970,-31683.730,-29806.970,-31481.060,-0.015,0.916,-0.403,-2.411,1.190,-0.305,66.667,716.000,1.000,3.070,0.000
-39657.260,-37137.460,-127809.300,-119285.700,-31164.510,-31694.470,-29807.470,-31486.430,-0.014,0.916,-0.401,-2.319,1.343,-0.305,66.667,717.000,1.000,0.008,0.000
-39674.660,-37151.160,-127937.200,-119399.800,-31189.870,-31706.510,-29809.630,-31491.040,-0.013,0.915,-0.401,-2.380,1.282,-0.305,66.667,718.000,1.000,1.862,0.000
-39698.760,-37171.070,-128070.900,-119519.100,-31221.400,-31725.610,-29820.040,-31502.290,-0.014,0.915,-0.401,-2.289,1.251,-0.336,66.667,719.000,1.000,6.403,0.000
-39726.760,-37193.360,-128206.100,-119639.800,-31254.760,-31746.720,-29833.290,-31517.280,-0.015,0.916,-0.398,-2.380,1.312,-0.427,66.667,720.000,1.000,9.276,0.000
-39755.450,-37217.140,-128340.500,-119760.700,-31288.820,-31768.490,-29847.550,-31535.040,-0.016,0.913,-0.404,-2.380,1.190,-0.427,66.667,721.000,1.000,0.007,0.000
-39780.950,-37241.050,-128472.500,-119880.100,-31322.700,-31790.810,-29862.230,-31553.250,-0.017,0.908,-0.401,-2.411,1.160,-0.519,66.667,722.000,1.000,1.921,0.000
-39807.630,-37267.500,-128605.500,-120000.700,-31358.730,-31815.880,-29879.050,-31572.910,-0.015,0.907,-0.408,-2.411,1.190,-0.549,66.667,723.000,1.000,9.305,0.000
-39839.490,-37298.600,-128742.800,-120124.300,-31398.690,-31844.880,-29900.090,-31596.310,-0.012,0.907,-0.408,-2.197,1.129,-0.458,66.667,724.000,1.000,0.009,0.000
-39869.950,-37328.680,-128878.500,-120245.300,-31438.000,-31872.540,-29921.460,-31618.980,-0.010,0.907,-0.408,-2.014,1.221,-0.549,66.667,725.000,1.000,2.529,0.000
-39899.000,-37357.000,-129010.400,-120363.600,-31476.420,-31897.850,-29941.170,-31640.230,-0.009,0.911,-0.408,-2.014,1.282,-0.458,66.667,726.000,1.000,0.008,0.000
-39926.570,-37381.030,-129135.800,-120477.300,-31509.630,-31917.760,-29954.710,-31657.700,-0.008,0.911,-0.410,-1.923,1.221,-0.366,66.667,727.000,1.000,13.146,0.000
-39943.290,-37392.010,-129248.000,-120577.900,-31527.640,-31923.690,-29953.910,-31662.930,-0.011,0.913,-0.409,-1.923,1.343,-0.244,66.667,728.000,1.000,2.442,0.000
-39950.020,-37392.700,-129350.900,-120668.400,-31535.410,-31920.520,-29943.180,-31658.300,-0.011,0.915,-0.409,-2.014,1.434,-0.214,66.667,729.000,1.000,2.524,0.000
-39962.630,-37398.770,-129459.100,-120764.800,-31550.180,-31924.910,-29938.690,-31657.970,-0.014,0.916,-0.410,-2.014,1.434,-0.214,66.667,730.000,1.000,2.463,0.000
-39989.520,-37418.060,-129579.500,-120873.200,-31578.050,-31941.630,-29946.910,-31668.670,-0.017,0.919,-0.407,-2.106,1.404,-0.275,66.667,731.000,1.000,11.985,0.000
-40018.730,-37439.970,-129701.500,-120981.700,-31606.720,-31958.670,-29956.610,-31680.960,-0.018,0.925,-0.408,-2.167,1.312,-0.366,66.667,732.000,1.000,0.013,0.000
-40040.010,-37456.660,-129817.200,-121082.700,-31628.830,-31970.800,-29961.070,-31687.230,-0.019,0.928,-0.406,-2.350,1.251,-0.397,66.667,733.000,1.000,2.343,0.000
-40059.060,-37473.580,-129931.800,-121181.800,-31651.720,-31985.440,-29966.490,-31693.360,-0.019,0.930,-0.408,-2.502,1.251,-0.366,66.667,734.000,1.000,0.019,0.000
-40078.220,-37490.750,-130045.300,-121280.200,-31676.060,-32001.670,-29972.510,-31701.260,-0.014,0.935,-0.406,-2.747,1.221,-0.397,66.667,735.000,1.000,1.988,0.000
-40095.240,-37505.250,-130154.400,-121375.600,-31697.120,-32014.790,-29975.840,-31707.200,-0.011,0.934,-0.407,-3.052,1.251,-0.336,66.667,736.000,1.000,11.180,0.000
-40117.680,-37525.160,-130267.600,-121475.700,-31722.210,-32033.030,-29984.180,-31717.240,-0.008,0.936,-0.408,-3.296,1.221,-0.244,66.667,737.000,1.000,4.967,0.000
-40146.040,-37550.690,-130386.000,-121581.400,-31754.080,-32057.320,-29996.970,-31731.620,-0.005,0.936,-0.408,-3.479,1.282,-0.031,66.667,738.000,1.000,2.509,0.000
-40171.300,-37572.140,-130499.700,-121684.000,-31784.840,-32076.400,-30005.550,-31742.560,-0.002,0.932,-0.404,-3.815,1.404,0.000,66.667,739.000,1.000,3.041,0.000
-40192.850,-37588.710,-130607.200,-121782.900,-31812.290,-32087.910,-30010.840,-31750.630,-0.002,0.928,-0.406,-4.059,1.526,0.183,66.667,740.000,1.000,0.006,0.000
-40214.230,-37604.450,-130712.200,-121881.300,-31838.430,-32098.470,-30016.430,-31759.300,-0.002,0.925,-0.404,-4.211,1.648,0.153,66.667,741.000,1.000,1.927,0.000
-40233.930,-37619.160,-130814.600,-121976.000,-31861.940,-32111.080,-30021.160,-31767.680,-0.002,0.921,-0.405,-4.333,1.862,0.366,66.667,742.000,1.000,8.804,0.000
-40250.800,-37631.940,-130914.000,-122065.000,-31881.550,-32124.080,-30023.620,-31774.570,-0.002,0.917,-0.404,-4.272,1.984,0.305,66.667,743.000,1.000,6.330,0.000
-40269.290,-37645.750,-131015.200,-122154.300,-31901.260,-32138.300,-30026.360,-31781.880,-0.004,0.915,-0.403,-4.242,2.045,0.336,66.667,744.000,1.000,0.009,0.000
-40287.880,-37659.230,-131117.000,-122243.500,-31921.830,-32152.370,-30028.540,-31786.910,-0.005,0.911,-0.406,-4.242,2.197,0.244,66.667,745.000,1.000,9.270,0.000
-40302.220,-37669.800,-131215.200,-122329.100,-31941.420,-32164.000,-30028.320,-31788.960,-0.003,0.912,-0.404,-4.150,2.380,0.153,66.667,746.000,1.000,0.009,0.000
-40317.630,-37683.090,-131314.500,-122417.100,-31964.070,-32177.690,-30031.220,-31796.460,-0.004,0.910,-0.399,-4.059,2.441,0.153,66.667,747.000,1.000,1.933,0.000
-40335.750,-37699.780,-131416.500,-122508.700,-31989.240,-32194.290,-30038.320,-31808.250,-0.006,0.908,-0.400,-3.967,2.533,0.000,66.667,748.000,1.000,3.690,0.000
-40349.810,-37711.830,-131513.100,-122594.300,-32009.480,-32205.650,-30041.080,-31814.100,-0.009,0.907,-0.401,-3.876,2.625,-0.122,66.667,749.000,1.000,9.300,0.000
-40363.320,-37721.930,-131607.500,-122675.500,-32028.670,-32213.180,-30041.030,-31818.210,-0.012,0.905,-0.399,-3.632,2.594,-0.336,66.667,750.000,1.000,0.011,0.000
-40382.650,-37737.110,-131707.400,-122760.900,-32054.250,-32225.000,-30046.310,-31828.400,-0.012,0.905,-0.398,-3.418,2.533,-0.488,66.667,751.000,1.000,1.934,0.000
-40403.220,-37753.610,-131808.000,-122847.400,-32081.780,-32238.510,-30053.950,-31838.570,-0.010,0.908,-0.397,-3.265,2.594,-0.549,66.667,752.000,1.000,6.221,0.000
-40421.070,-37767.050,-131903.900,-122928.900,-32105.670,-32249.070,-30058.590,-31843.580,-0.013,0.910,-0.397,-3.204,2.533,-0.793,66.667,753.000,1.000,9.392,0.000
-40437.370,-37778.850,-131995.800,-123006.400,-32125.180,-32257.840,-30059.730,-31844.830,-0.014,0.912,-0.397,-3.052,2.441,-0.916,66.667,754.000,1.000,0.017,0.000
-40450.960,-37787.760,-132083.800,-123080.800,-32138.950,-32263.230,-30055.950,-31842.380,-0.015,0.913,-0.398,-3.021,2.258,-1.099,66.667,755.000,1.000,1.861,0.000
-40464.880,-37796.110,-132172.000,-123156.400,-32152.550,-32268.430,-30053.600,-31842.130,-0.014,0.915,-0.396,-3.021,2.045,-1.190,66.667,756.000,1.000,8.745,0.000
-40485.230,-37811.910,-132266.200,-123239.200,-32175.630,-32282.670,-30062.940,-31851.410,-0.015,0.913,-0.395,-3.113,2.014,-1.312,66.667,757.000,1.000,3.098,0.000
-40503.000,-37828.340,-132358.400,-123320.900,-32201.100,-32297.820,-30074.010,-31861.550,-0.016,0.912,-0.395,-3.082,1.831,-1.404,66.667,758.000,1.000,0.009,0.000
-40509.340,-37835.830,-132441.300,-123393.200,-32219.150,-32302.230,-30074.740,-31864.350,-0.017,0.911,-0.399,-2.991,1.709,-1.434,66.667,759.000,1.000,1.930,0.000
-40514.210,-37841.640,-132522.500,-123463.500,-32235.610,-32303.330,-30072.340,-31865.760,-0.017,0.909,-0.401,-2.930,1.678,-1.434,66.667,760.000,1.000,8.729,0.000
