EEG 1, EEG 2, EEG 3, EEG 4, EEG 5, EEG 6, EEG 7, EEG 8, ACC X, ACC Y, ACC Z, GYR X, GYR Y, GYR Z, BAT, CNT, VALID, DT, TRIG
170720.000,165555.700,189914.600,175287.900,165885.800,179998.400,175208.900,168482.500,-0.156,0.895,-0.312,0.000,0.000,0.000,66.667,1.000,1.000,0.000,0.000
167108.300,162068.300,185804.900,171511.200,162387.100,176191.300,171503.900,164934.600,-0.149,0.916,-0.331,0.000,0.000,0.000,66.667,2.000,1.000,25.423,0.000
163936.500,159014.300,182217.600,168263.900,159315.100,172839.600,168229.500,161806.600,-0.145,0.923,-0.336,-4.120,2.960,-3.387,66.667,3.000,1.000,2.446,0.000
161115.900,156275.600,179025.000,165313.000,156567.800,169846.800,165298.500,159000.000,-0.140,0.924,-0.341,-5.524,0.061,-0.122,66.667,4.000,1.000,2.455,0.000
158540.300,153774.500,176128.600,162618.200,154076.800,167141.800,162660.400,156464.800,-0.132,0.930,-0.339,-5.524,-1.801,1.862,66.667,5.000,1.000,2.517,0.000
156221.500,151532.200,173529.000,160228.100,151835.700,164708.400,160304.300,154201.700,-0.129,0.932,-0.339,-5.737,-2.075,2.197,66.667,6.000,1.000,2.507,0.000
154138.100,149524.800,171193.200,158104.800,149817.000,162514.900,158172.600,152152.700,-0.129,0.935,-0.336,-5.890,-2.075,2.289,66.667,7.000,1.000,2.481,0.000
152281.600,147713.900,169101.100,156227.300,148003.900,160531.800,156238.500,150301.600,-0.129,0.938,-0.338,-6.256,-1.892,2.228,66.667,8.000,1.000,9.377,0.000
150532.800,146029.400,167142.600,154385.900,146315.500,158702.300,154445.100,148580.800,-0.128,0.935,-0.337,-6.561,-1.862,2.075,66.667,9.000,1.000,0.026,0.000
148924.900,144467.900,165336.000,152669.000,144752.900,157010.600,152798.900,146990.700,-0.124,0.928,-0.336,-6.744,-1.617,1.953,66.667,10.000,1.000,1.943,0.000
147466.000,143034.700,163701.300,151215.500,143339.000,155466.200,151313.000,145565.800,-0.123,0.922,-0.337,-6.866,-1.434,1.770,66.667,11.000,1.000,3.699,0.000
146102.100,141721.300,162180.200,149839.800,142022.000,154034.300,149924.800,144238.900,-0.120,0.920,-0.337,-6.866,-1.190,1.617,66.667,12.000,1.000,14.319,0.000
144842.300,140497.600,160764.300,148503.100,140791.000,152704.500,148621.100,142978.500,-0.118,0.917,-0.340,-6.592,-1.068,1.221,66.667,13.000,1.000,0.021,0.000
143677.500,139369.700,159460.300,147307.800,139656.000,151473.000,147413.300,141819.800,-0.114,0.913,-0.342,-6.409,-0.763,1.007,66.667,14.000,1.000,1.876,0.000
142583.000,138319.600,158237.500,146173.100,138591.200,150322.500,146291.900,140748.500,-0.113,0.909,-0.345,-6.073,-0.519,0.916,66.667,15.000,1.000,2.452,0.000
141549.900,137326.400,157084.000,145094.700,137585.100,149240.000,145238.200,139731.800,-0.112,0.905,-0.348,-5.798,-0.275,0.763,66.667,16.000,1.000,2.552,0.000
140603.000,136373.500,156015.500,144100.600,136649.200,148221.400,144259.200,138787.200,-0.112,0.902,-0.352,-5.402,0.061,0.793,66.667,17.000,1.000,8.738,0.000
139731.600,135541.200,155043.200,143219.500,135804.600,147304.800,143358.600,137926.800,-0.113,0.898,-0.348,-4.791,0.397,0.732,66.667,18.000,1.000,5.599,0.000
138906.100,134722.400,154117.300,142381.200,134997.100,146426.500,142497.900,137103.600,-0.116,0.894,-0.350,-4.364,0.671,0.793,66.667,19.000,1.000,0.013,0.000
138130.100,133975.900,153253.100,141599.100,134247.300,145610.000,141699.100,136337.400,-0.121,0.893,-0.352,-3.784,0.916,0.763,66.667,20.000,1.000,1.929,0.000
137420.700,133289.100,152459.900,140892.500,133559.500,144856.100,140977.300,135649.900,-0.121,0.894,-0.350,-3.235,1.251,0.732,66.667,21.000,1.000,8.705,0.000
136718.800,132612.500,151671.900,140119.700,132871.900,144120.300,140268.400,134951.600,-0.119,0.897,-0.350,-2.625,1.617,0.885,66.667,22.000,1.000,2.512,0.000
136085.000,132023.200,150962.200,139459.200,132256.600,143455.700,139612.800,134315.800,-0.119,0.899,-0.349,-2.167,1.709,0.793,66.667,23.000,1.000,3.072,0.000
135513.400,131433.500,150322.800,138923.500,131701.500,142841.900,139014.500,133756.800,-0.119,0.902,-0.348,-1.801,1.801,0.824,66.667,24.000,1.000,0.009,0.000
134931.900,130879.800,149674.600,138286.800,131140.400,142244.000,138428.900,133183.000,-0.121,0.906,-0.346,-1.434,2.228,0.946,66.667,25.000,1.000,10.760,0.000
134391.600,130385.600,149072.400,137691.300,130617.600,141678.900,137890.300,132653.900,-0.122,0.911,-0.351,-1.190,2.319,1.068,66.667,26.000,1.000,2.906,0.000
133914.800,129888.900,148541.700,137281.700,130155.600,141166.800,137401.500,132189.200,-0.127,0.916,-0.347,-0.793,2.594,1.190,66.667,27.000,1.000,0.089,0.000
133404.400,129397.200,147970.300,136701.800,129660.800,140640.800,136878.300,131683.600,-0.132,0.920,-0.345,-0.824,2.625,1.251,66.667,28.000,1.000,1.641,0.000
132945.800,128951.100,147451.900,136206.200,129208.800,140155.800,136395.800,131222.100,-0.137,0.928,-0.346,-0.824,2.686,1.434,66.667,29.000,1.000,6.472,0.000
132553.800,128574.200,147015.800,135865.300,128825.700,139730.500,135982.000,130831.500,-0.140,0.934,-0.346,-0.702,2.625,1.617,66.667,30.000,1.000,3.802,0.000
132135.800,128196.700,146556.600,135413.100,128428.000,139304.100,135574.100,130424.800,-0.142,0.940,-0.346,-0.793,2.563,1.740,66.667,31.000,1.000,9.339,0.000
131748.700,127808.700,146122.900,134991.800,128049.300,138892.000,135181.900,130039.600,-0.146,0.942,-0.347,-0.916,2.380,1.862,66.667,32.000,1.000,0.052,0.000
131391.400,127438.300,145731.700,134673.200,127714.300,138529.300,134825.500,129703.100,-0.150,0.945,-0.353,-1.129,2.106,2.167,66.667,33.000,1.000,1.815,0.000
131062.900,127145.300,145366.100,134326.700,127395.600,138183.700,134480.300,129376.200,-0.152,0.943,-0.355,-1.495,1.831,2.350,66.667,34.000,1.000,8.726,0.000
130748.700,126826.100,145013.100,133990.900,127088.400,137852.200,134155.900,129062.200,-0.154,0.938,-0.354,-1.709,1.617,2.655,66.667,35.000,1.000,3.029,0.000
130418.100,126530.100,144651.500,133624.200,126775.000,137520.100,133834.900,128745.100,-0.155,0.932,-0.355,-1.801,1.404,2.747,66.667,36.000,1.000,0.010,0.000
130136.600,126247.900,144338.000,133363.400,126500.400,137218.400,133550.000,128467.600,-0.154,0.927,-0.358,-1.923,0.885,2.869,66.667,37.000,1.000,8.193,0.000
129869.500,125984.200,144041.600,133099.200,126245.600,136945.200,133281.000,128211.300,-0.155,0.918,-0.359,-1.892,0.549,3.082,66.667,38.000,1.000,14.917,0.000
129649.000,125796.000,143795.800,132924.100,126031.000,136701.300,133034.900,127990.500,-0.152,0.913,-0.363,-1.923,0.153,3.082,66.667,39.000,1.000,0.019,0.000
129420.700,125575.300,143532.000,132649.400,125794.600,136443.400,132781.700,127744.500,-0.153,0.909,-0.370,-1.892,-0.122,3.143,66.667,40.000,1.000,0.010,0.000
129127.200,125264.500,143215.000,132301.700,125525.000,136173.300,132524.700,127474.100,-0.154,0.910,-0.373,-1.617,-0.275,3.174,66.667,41.000,1.000,3.111,0.000
128924.500,125087.900,142986.800,132104.200,125325.500,135951.700,132319.100,127277.400,-0.152,0.911,-0.374,-1.404,-0.549,3.021,66.667,42.000,1.000,0.011,0.000
128715.800,124905.500,142757.700,131874.200,125131.500,135739.100,132113.900,127087.700,-0.150,0.910,-0.376,-1.099,-0.885,2.991,66.667,43.000,1.000,1.840,0.000
128545.900,124738.700,142567.800,131734.000,124965.100,135548.900,131920.400,126907.200,-0.141,0.910,-0.378,-0.946,-1.221,2.991,66.667,44.000,1.000,6.316,0.000
128366.600,124532.200,142366.400,131558.200,124793.900,135358.100,131739.200,126742.800,-0.131,0.908,-0.385,-0.702,-1.282,2.899,66.667,45.000,1.000,9.347,0.000
128178.800,124340.000,142154.800,131326.500,124610.200,135170.800,131557.800,126554.400,-0.123,0.910,-0.387,-0.519,-1.343,2.899,66.667,46.000,1.000,0.026,0.000
128011.000,124201.000,141973.300,131179.200,124447.300,134987.900,131384.700,126385.100,-0.116,0.911,-0.384,-0.305,-1.129,2.747,66.667,47.000,1.000,2.461,0.000
127888.600,124096.600,141838.500,131097.600,124327.500,134854.300,131238.800,126258.800,-0.110,0.912,-0.384,-0.214,-0.977,2.625,66.667,48.000,1.000,0.012,0.000
127777.700,123954.900,141710.900,131036.600,124217.900,134724.200,131111.900,126148.500,-0.106,0.912,-0.381,-0.183,-0.702,2.502,66.667,49.000,1.000,10.687,0.000
127614.000,123857.500,141523.000,130729.700,124052.900,134558.800,130941.300,125968.500,-0.102,0.909,-0.383,-0.092,-0.366,2.350,66.667,50.000,1.000,11.371,0.000
127478.400,123750.900,141376.800,130599.100,123925.500,134427.500,130816.100,125839.300,-0.100,0.908,-0.379,-0.122,0.061,2.075,66.667,51.000,1.000,0.022,0.000
127321.500,123526.900,141202.300,130425.700,123775.600,134273.700,130680.200,125695.900,-0.101,0.910,-0.377,-0.092,0.519,1.678,66.667,52.000,1.000,0.013,0.000
127227.400,123411.500,141097.700,130388.500,123687.500,134167.800,130574.900,125615.600,-0.103,0.916,-0.376,-0.183,1.007,1.434,66.667,53.000,1.000,6.610,0.000
127123.800,123312.700,140975.400,130266.300,123578.000,134054.000,130450.400,125493.100,-0.107,0.921,-0.375,-0.366,1.404,1.190,66.667,54.000,1.000,0.018,0.000
127037.800,123250.000,140882.300,130213.100,123496.600,133951.700,130357.900,125414.900,-0.112,0.928,-0.371,-0.519,1.709,0.641,66.667,55.000,1.000,1.884,0.000
126908.600,123128.300,140738.700,130013.800,123373.500,133821.700,130245.700,125293.600,-0.117,0.933,-0.372,-0.946,1.923,-0.031,66.667,56.000,1.000,6.865,0.000
126829.000,123046.300,140645.600,129961.700,123289.000,133728.300,130157.900,125194.200,-0.121,0.936,-0.371,-1.099,1.953,-0.763,66.667,57.000,1.000,0.010,0.000
126745.800,122962.100,140548.100,129863.500,123206.600,133629.300,130062.800,125123.300,-0.125,0.938,-0.369,-1.495,2.014,-1.556,66.667,58.000,1.000,5.617,0.000
126653.000,122919.200,140450.300,129751.700,123121.800,133542.100,129964.000,125026.500,-0.128,0.938,-0.361,-1.923,2.106,-2.167,66.667,59.000,1.000,9.368,0.000
126595.500,122828.900,140379.700,129707.400,123059.600,133471.100,129900.800,124967.100,-0.130,0.944,-0.358,-2.380,2.258,-2.686,66.667,60.000,1.000,0.018,0.000
126536.700,122790.700,140319.300,129700.500,123006.300,133404.900,129847.400,124923.800,-0.131,0.950,-0.358,-2.930,2.350,-3.052,66.667,61.000,1.000,8.717,0.000
126435.200,122648.100,140204.500,129558.600,122909.100,133310.800,129764.800,124832.200,-0.133,0.950,-0.358,-3.479,2.502,-3.265,66.667,62.000,1.000,0.017,0.000
126382.500,122596.700,140147.500,129543.900,122859.600,133254.000,129701.900,124778.000,-0.135,0.949,-0.355,-4.211,2.350,-3.296,66.667,63.000,1.000,1.839,0.000
126306.000,122529.000,140065.100,129453.800,122790.100,133184.100,129622.900,124706.600,-0.137,0.946,-0.352,-4.883,2.289,-3.357,66.667,64.000,1.000,3.733,0.000
126249.000,122502.100,139994.000,129331.800,122726.200,133122.900,129559.100,124638.300,-0.140,0.937,-0.351,-5.310,2.197,-3.448,66.667,65.000,1.000,8.793,0.000
126195.900,122470.500,139944.200,129298.700,122686.900,133076.300,129524.400,124614.200,-0.141,0.931,-0.352,-5.524,2.045,-3.510,66.667,66.000,1.000,3.050,0.000
126135.100,122377.800,139879.700,129264.700,122630.400,133019.500,129476.100,124556.500,-0.141,0.925,-0.350,-5.737,1.953,-3.601,66.667,67.000,1.000,0.007,0.000
126087.200,122313.000,139817.200,129173.000,122570.600,132957.000,129412.000,124493.600,-0.140,0.922,-0.344,-5.859,1.770,-3.540,66.667,68.000,1.000,1.942,0.000
126056.400,122347.400,139781.400,129112.600,122533.700,132922.200,129356.200,124435.600,-0.140,0.920,-0.343,-5.920,1.770,-3.357,66.667,69.000,1.000,8.798,0.000
126044.100,122284.900,139766.500,129169.100,122524.700,132901.700,129340.400,124430.300,-0.140,0.916,-0.342,-6.073,1.740,-3.143,66.667,70.000,1.000,3.056,0.000
125981.100,122199.700,139698.400,129103.600,122468.400,132843.000,129291.100,124376.100,-0.139,0.913,-0.342,-6.226,1.678,-2.930,66.667,71.000,1.000,0.007,0.000
125934.000,122199.500,139652.500,129052.800,122429.100,132807.100,129254.700,124336.800,-0.140,0.909,-0.343,-6.317,1.740,-2.686,66.667,72.000,1.000,8.214,0.000
125918.800,122191.600,139626.300,129020.800,122403.400,132781.300,129219.100,124302.400,-0.140,0.907,-0.343,-6.256,1.678,-2.533,66.667,73.000,1.000,6.170,0.000
125912.700,122190.600,139618.300,129024.800,122402.800,132771.100,129203.400,124312.300,-0.139,0.906,-0.346,-6.073,1.617,-2.136,66.667,74.000,1.000,2.529,0.000
125819.100,122053.500,139520.800,128900.500,122319.300,132690.800,129132.000,124220.400,-0.140,0.906,-0.346,-6.012,1.587,-2.075,66.667,75.000,1.000,2.460,0.000
125802.100,122038.400,139503.200,128891.600,122308.100,132673.300,129124.000,124212.300,-0.141,0.906,-0.347,-5.829,1.556,-2.014,66.667,76.000,1.000,4.332,0.000
125810.500,122088.200,139516.800,128940.200,122316.900,132678.100,129127.300,124216.300,-0.138,0.905,-0.348,-5.646,1.587,-1.923,66.667,77.000,1.000,0.006,0.000
125751.400,122024.800,139453.500,128856.600,122263.100,132617.700,129071.600,124167.600,-0.136,0.906,-0.349,-5.524,1.678,-1.770,66.667,78.000,1.000,8.015,0.000
125719.300,121997.900,139410.200,128797.600,122228.600,132588.400,129028.300,124125.400,-0.135,0.909,-0.355,-5.402,1.709,-1.587,66.667,79.000,1.000,9.523,0.000
125707.800,122007.500,139402.700,128802.100,122221.400,132580.500,129019.100,124116.500,-0.132,0.914,-0.354,-5.249,1.831,-1.465,66.667,80.000,1.000,0.011,0.000
125697.200,122012.000,139400.300,128869.100,122218.800,132569.400,129016.300,124116.600,-0.132,0.918,-0.354,-5.280,1.862,-1.312,66.667,81.000,1.000,1.941,0.000
125613.200,121838.800,139295.500,128690.000,122133.800,132480.400,128954.600,124052.300,-0.134,0.921,-0.355,-5.371,1.984,-1.190,66.667,82.000,1.000,5.020,0.000
125648.500,121958.400,139338.900,128778.700,122168.700,132508.400,128964.100,124074.100,-0.137,0.926,-0.356,-5.402,2.045,-1.038,66.667,83.000,1.000,2.411,0.000
125622.000,121887.300,139300.200,128717.500,122140.300,132487.200,128937.400,124038.700,-0.139,0.934,-0.354,-5.432,2.136,-0.977,66.667,84.000,1.000,2.519,0.000
125583.100,121807.400,139257.000,128664.300,122108.500,132453.200,128906.500,124016.200,-0.139,0.940,-0.352,-5.463,2.167,-0.885,66.667,85.000,1.000,8.695,0.000
125566.000,121837.500,139243.900,128658.300,122091.400,132436.500,128893.500,123992.700,-0.138,0.942,-0.348,-5.798,2.075,-0.854,66.667,86.000,1.000,3.144,0.000
125568.500,121853.100,139245.200,128660.100,122090.200,132436.600,128893.800,123993.400,-0.141,0.942,-0.344,-6.073,2.136,-0.732,66.667,87.000,1.000,0.011,0.000
125561.800,121814.100,139236.900,128707.200,122081.800,132419.300,128880.200,123983.500,-0.141,0.940,-0.341,-6.531,2.045,-0.641,66.667,88.000,1.000,1.819,0.000
125551.200,121837.900,139215.300,128601.100,122060.800,132404.000,128849.100,123952.000,-0.144,0.938,-0.344,-6.744,2.014,-0.610,66.667,89.000,1.000,8.792,0.000
125576.500,121892.500,139241.900,128677.500,122074.700,132419.500,128847.800,123948.700,-0.146,0.937,-0.341,-6.897,2.075,-0.610,66.667,90.000,1.000,6.843,0.000
125521.900,121807.100,139187.500,128614.400,122032.700,132369.400,128824.800,123925.100,-0.148,0.934,-0.341,-7.111,1.923,-0.671,66.667,91.000,1.000,0.011,0.000
125519.300,121847.300,139188.300,128649.600,122038.400,132377.600,128831.300,123934.100,-0.151,0.933,-0.339,-7.141,1.740,-0.793,66.667,92.000,1.000,1.902,0.000
125472.300,121688.600,139124.400,128537.300,121987.900,132334.700,128791.900,123897.400,-0.150,0.932,-0.334,-7.111,1.587,-0.793,66.667,93.000,1.000,3.724,0.000
125528.700,121813.300,139180.900,128622.900,122025.900,132365.400,128804.300,123912.300,-0.149,0.927,-0.333,-7.080,1.526,-0.671,66.667,94.000,1.000,8.775,0.000
125504.300,121783.800,139161.200,128596.500,122012.000,132354.200,128795.000,123900.000,-0.148,0.923,-0.334,-7.080,1.282,-0.580,66.667,95.000,1.000,3.072,0.000
125445.300,121705.100,139098.000,128483.000,121962.200,132302.900,128763.800,123864.900,-0.147,0.918,-0.333,-6.958,1.373,-0.427,66.667,96.000,1.000,0.008,0.000
125443.200,121733.100,139096.300,128492.900,121958.200,132296.700,128757.900,123858.200,-0.149,0.915,-0.332,-6.775,1.221,-0.244,66.667,97.000,1.000,1.887,0.000
125460.000,121731.100,139113.100,128548.700,121973.200,132312.000,128764.000,123872.200,-0.147,0.911,-0.333,-6.592,1.221,-0.214,66.667,98.000,1.000,11.264,0.000
125471.400,121759.500,139128.100,128582.800,121985.000,132317.300,128762.800,123879.500,-0.146,0.910,-0.333,-6.317,1.160,-0.061,66.667,99.000,1.000,3.053,0.000
125446.900,121714.100,139099.000,128524.900,121963.100,132297.600,128748.800,123857.300,-0.143,0.909,-0.333,-5.829,1.221,0.061,66.667,100.000,1.000,0.007,0.000
125420.100,121661.800,139075.200,128520.800,121944.700,132271.200,128741.700,123853.800,-0.141,0.911,-0.334,-5.371,1.251,0.183,66.667,101.000,1.000,8.138,0.000
125447.600,121738.000,139101.900,128529.800,121964.200,132291.400,128757.600,123868.600,-0.138,0.909,-0.336,-5.035,1.404,0.214,66.667,102.000,1.000,2.494,0.000
125431.800,121704.600,139083.600,128501.200,121945.600,132272.200,128733.000,123835.800,-0.136,0.910,-0.336,-4.517,1.617,0.336,66.667,103.000,1.000,3.874,0.000
125470.400,121868.200,139135.100,128559.300,121991.600,132320.500,128753.500,123868.100,-0.133,0.908,-0.341,-4.120,1.556,0.336,66.667,104.000,1.000,3.630,0.000
125448.800,121766.700,139105.900,128539.000,121969.800,132294.300,128743.300,123852.800,-0.127,0.908,-0.344,-3.693,1.801,0.458,66.667,105.000,1.000,10.563,0.000
125372.700,121566.400,139023.300,128460.800,121908.500,132230.800,128713.100,123817.100,-0.121,0.907,-0.344,-3.357,2.136,0.549,66.667,106.000,1.000,0.013,0.000
125402.400,121643.200,139050.900,128492.200,121929.300,132251.500,128730.900,123836.600,-0.118,0.909,-0.346,-2.808,2.380,0.641,66.667,107.000,1.000,1.922,0.000
125410.600,121701.800,139064.400,128509.900,121940.000,132265.500,128730.900,123837.000,-0.115,0.913,-0.345,-2.319,2.777,0.702,66.667,108.000,1.000,2.577,0.000
125419.600,121732.300,139073.800,128522.800,121945.900,132277.300,128724.200,123835.300,-0.117,0.918,-0.351,-1.923,3.113,0.854,66.667,109.000,1.000,8.766,0.000
125367.700,121593.400,139010.300,128416.100,121893.800,132220.300,128691.100,123804.000,-0.121,0.921,-0.351,-1.587,3.418,0.824,66.667,110.000,1.000,3.029,0.000
125413.800,121683.400,139060.600,128499.100,121932.900,132259.800,128725.900,123839.500,-0.121,0.925,-0.351,-1.465,3.784,0.763,66.667,111.000,1.000,0.010,0.000
125391.600,121662.400,139039.400,128470.300,121915.100,132249.600,128716.300,123825.300,-0.123,0.928,-0.352,-1.282,3.906,0.610,66.667,112.000,1.000,8.158,0.000
125401.500,121668.700,139043.900,128488.000,121918.500,132244.800,128710.400,123831.100,-0.126,0.932,-0.353,-1.190,4.089,0.610,66.667,113.000,1.000,4.411,0.000
125404.600,121799.500,139055.600,128477.900,121925.600,132264.300,128698.000,123807.400,-0.130,0.939,-0.352,-1.160,4.150,0.458,66.667,114.000,1.000,0.009,0.000
125404.400,121686.200,139045.200,128502.700,121918.800,132248.700,128700.100,123814.500,-0.135,0.949,-0.351,-1.129,4.059,0.153,66.667,115.000,1.000,8.000,0.000
125385.800,121619.200,139026.500,128485.400,121906.700,132228.600,128701.700,123816.600,-0.142,0.954,-0.349,-1.465,4.028,-0.061,66.667,116.000,1.000,3.160,0.000
125398.700,121650.400,139041.500,128511.000,121920.000,132238.500,128715.400,123829.200,-0.148,0.962,-0.351,-1.892,3.632,-0.336,66.667,117.000,1.000,0.011,0.000
125368.700,121668.900,139018.000,128462.500,121901.500,132221.400,128688.100,123802.800,-0.153,0.963,-0.346,-2.533,3.357,-0.580,66.667,118.000,1.000,1.822,0.000
125372.200,121675.800,139014.800,128413.100,121895.200,132221.200,128670.900,123785.800,-0.158,0.961,-0.344,-3.113,2.838,-0.824,66.667,119.000,1.000,11.393,0.000
125384.700,121665.600,139029.200,128472.700,121908.300,132221.200,128680.700,123804.100,-0.162,0.957,-0.347,-3.784,2.319,-1.160,66.667,120.000,1.000,2.976,0.000
125352.400,121635.100,138990.200,128373.300,121876.500,132200.600,128669.600,123773.500,-0.162,0.957,-0.345,-4.333,1.648,-1.312,66.667,121.000,1.000,0.012,0.000
125368.500,121662.600,139010.700,128450.200,121891.800,132209.300,128687.200,123795.700,-0.162,0.956,-0.349,-4.944,0.885,-1.221,66.667,122.000,1.000,1.932,0.000
125400.500,121670.400,139040.500,128537.800,121915.000,132230.700,128696.200,123814.700,-0.156,0.957,-0.353,-5.371,0.122,-1.251,66.667,123.000,1.000,14.357,0.000
125341.800,121648.500,138987.500,128417.300,121878.000,132199.900,128658.700,123778.000,-0.152,0.954,-0.349,-5.890,-0.519,-1.251,66.667,124.000,1.000,0.015,0.000
125351.300,121628.000,138990.400,128426.500,121880.400,132197.300,128663.800,123780.800,-0.148,0.953,-0.350,-6.378,-1.099,-1.038,66.667,125.000,1.000,2.513,0.000
125334.200,121590.300,138973.200,128418.000,121864.100,132191.200,128667.000,123768.700,-0.148,0.950,-0.349,-6.897,-1.801,-0.885,66.667,126.000,1.000,0.006,0.000
125366.100,121646.100,139009.300,128486.800,121894.200,132222.500,128698.700,123796.800,-0.150,0.944,-0.352,-7.355,-2.258,-0.793,66.667,127.000,1.000,13.189,0.000
125352.900,121641.000,138998.400,128436.200,121888.500,132217.200,128687.700,123800.400,-0.150,0.943,-0.352,-7.690,-2.838,-0.702,66.667,128.000,1.000,2.970,0.000
125361.400,121654.600,138992.500,128403.000,121869.500,132189.200,128641.700,123766.600,-0.149,0.941,-0.352,-7.843,-3.357,-0.732,66.667,129.000,1.000,0.012,0.000
125373.100,121642.600,139007.600,128495.100,121885.000,132197.700,128654.900,123791.500,-0.145,0.938,-0.352,-7.721,-3.723,-0.885,66.667,130.000,1.000,1.908,0.000
125337.000,121625.100,138970.000,128397.300,121857.000,132178.500,128645.100,123763.900,-0.137,0.933,-0.351,-7.599,-3.937,-1.099,66.667,131.000,1.000,2.452,0.000
125347.300,121717.200,138987.100,128395.800,121870.800,132199.200,128654.500,123762.900,-0.130,0.929,-0.351,-7.446,-4.089,-1.129,66.667,132.000,1.000,3.559,0.000
125369.800,121612.400,139004.000,128505.500,121884.700,132199.200,128661.500,123789.700,-0.127,0.921,-0.348,-7.111,-4.272,-1.099,66.667,133.000,1.000,8.278,0.000
125378.300,121616.500,139009.900,128524.000,121885.800,132182.000,128652.400,123792.600,-0.119,0.915,-0.348,-6.897,-4.425,-0.824,66.667,134.000,1.000,0.024,0.000
125320.300,121594.300,138945.100,128331.200,121836.700,132155.400,128617.600,123740.300,-0.114,0.910,-0.345,-6.317,-4.333,-0.488,66.667,135.000,1.000,1.837,0.000
125347.700,121640.700,138973.700,128391.000,121858.400,132178.500,128640.300,123762.700,-0.108,0.906,-0.344,-5.737,-4.211,-0.122,66.667,136.000,1.000,16.307,0.000
125328.000,121557.600,138960.000,128426.100,121846.300,132159.100,128640.600,123765.000,-0.110,0.906,-0.337,-4.974,-3.845,0.336,66.667,137.000,1.000,4.914,0.000
125344.000,121626.400,138980.500,128446.900,121863.300,132182.700,128644.800,123766.600,-0.116,0.911,-0.338,-4.456,-3.540,0.671,66.667,138.000,1.000,0.015,0.000
125364.100,121668.800,138998.200,128441.400,121877.700,132202.200,128647.500,123776.300,-0.123,0.917,-0.335,-3.998,-3.235,1.099,66.667,139.000,1.000,0.005,0.000
125353.900,121593.300,138981.500,128438.700,121866.400,132189.000,128646.600,123771.400,-0.128,0.921,-0.334,-3.510,-3.082,1.312,66.667,140.000,1.000,3.141,0.000
125303.400,121617.300,138940.300,128353.500,121829.400,132159.200,128622.000,123732.400,-0.130,0.922,-0.338,-3.021,-3.052,1.282,66.667,141.000,1.000,0.006,0.000
125307.400,121565.200,138934.500,128359.500,121824.500,132149.000,128628.400,123741.600,-0.130,0.925,-0.336,-2.594,-2.960,1.282,66.667,142.000,1.000,8.232,0.000
125365.200,121618.400,138999.500,128532.300,121881.500,132194.100,128665.800,123798.600,-0.130,0.929,-0.338,-2.075,-2.716,1.282,66.667,143.000,1.000,3.764,0.000
125318.600,121613.400,138949.100,128363.900,121838.400,132172.400,128623.300,123738.300,-0.127,0.930,-0.334,-1.587,-2.594,1.129,66.667,144.000,1.000,3.637,0.000
125322.300,121594.300,138952.400,128379.300,121842.300,132168.300,128629.700,123745.900,-0.127,0.933,-0.338,-1.190,-2.380,1.129,66.667,145.000,1.000,9.344,0.000
125312.500,121582.100,138946.100,128393.000,121835.400,132156.900,128629.600,123743.600,-0.129,0.935,-0.338,-0.854,-2.289,0.977,66.667,146.000,1.000,0.009,0.000
125368.000,121690.900,139010.100,128492.600,121890.600,132207.400,128676.800,123795.700,-0.130,0.932,-0.340,-0.610,-2.136,0.885,66.667,147.000,1.000,8.854,0.000
125349.300,121662.300,138986.200,128438.200,121868.200,132182.300,128652.500,123777.700,-0.132,0.931,-0.340,-0.366,-1.923,0.671,66.667,148.000,1.000,0.040,0.000
125277.300,121547.900,138912.700,128314.900,121810.800,132145.600,128602.400,123709.900,-0.131,0.928,-0.342,-0.031,-1.801,0.488,66.667,149.000,1.000,11.105,0.000
125306.900,121573.700,138940.300,128364.600,121832.700,132172.000,128621.600,123730.700,-0.129,0.927,-0.345,0.214,-1.648,0.427,66.667,150.000,1.000,0.011,0.000
125342.700,121632.400,138978.100,128456.200,121862.600,132188.300,128650.800,123763.700,-0.126,0.926,-0.346,0.519,-1.404,0.122,66.667,151.000,1.000,2.605,0.000
125298.900,121566.400,138938.800,128408.900,121836.300,132171.400,128639.200,123749.600,-0.121,0.928,-0.349,0.793,-1.251,-0.183,66.667,152.000,1.000,0.006,0.000
125295.200,121584.400,138928.900,128344.500,121825.600,132162.800,128622.100,123734.200,-0.117,0.932,-0.350,0.916,-1.038,-0.336,66.667,153.000,1.000,13.700,0.000
125307.600,121588.500,138940.700,128381.500,121837.300,132167.500,128623.000,123744.400,-0.114,0.935,-0.357,0.977,-0.854,-0.641,66.667,154.000,1.000,0.012,0.000
125329.500,121631.300,138962.400,128414.900,121854.000,132186.300,128635.100,123753.800,-0.115,0.937,-0.359,0.885,-0.519,-0.885,66.667,155.000,1.000,9.304,0.000
125302.400,121621.800,138935.700,128357.900,121831.900,132162.600,128625.300,123736.400,-0.115,0.939,-0.359,0.732,-0.275,-1.099,66.667,156.000,1.000,0.010,0.000
125296.500,121586.500,138935.900,128389.100,121833.900,132161.100,128633.900,123746.100,-0.115,0.939,-0.360,0.488,0.000,-1.282,66.667,157.000,1.000,0.003,0.000
125309.700,121569.800,138945.500,128419.500,121845.100,132171.000,128640.400,123764.000,-0.115,0.938,-0.362,0.366,0.397,-1.434,66.667,158.000,1.000,24.409,0.000
125300.800,121577.200,138931.100,128354.700,121830.900,132160.900,128622.900,123739.600,-0.117,0.936,-0.363,0.122,0.763,-1.678,66.667,159.000,1.000,0.017,0.000
125343.800,121625.800,138977.900,128464.000,121864.500,132184.300,128648.300,123768.900,-0.119,0.937,-0.365,-0.366,1.007,-1.892,66.667,160.000,1.000,1.823,0.000
125288.100,121545.000,138921.200,128363.700,121824.800,132153.300,128634.000,123747.700,-0.122,0.937,-0.368,-0.946,1.129,-1.770,66.667,161.000,1.000,8.838,0.000
125298.400,121610.800,138927.500,128341.000,121825.600,132155.000,128626.400,123737.800,-0.127,0.934,-0.373,-1.465,1.160,-1.953,66.667,162.000,1.000,2.480,0.000
125302.000,121563.600,138930.000,128383.100,121831.500,132160.500,128630.100,123749.400,-0.129,0.927,-0.375,-1.678,1.129,-2.075,66.667,163.000,1.000,2.496,0.000
125316.200,121628.100,138944.500,128378.400,121841.900,132170.600,128626.600,123751.000,-0.133,0.921,-0.373,-1.984,1.190,-2.350,66.667,164.000,1.000,2.431,0.000
125305.500,121594.800,138934.700,128387.400,121834.000,132156.200,128624.300,123749.200,-0.135,0.912,-0.372,-2.228,1.160,-2.411,66.667,165.000,1.000,2.480,0.000
125314.000,121524.800,138937.000,128440.300,121839.700,132151.800,128640.400,123768.000,-0.134,0.906,-0.372,-2.380,1.251,-2.563,66.667,166.000,1.000,2.481,0.000
125323.900,121632.600,138948.800,128396.600,121848.300,132175.100,128641.500,123761.200,-0.137,0.904,-0.374,-2.411,1.373,-2.655,66.667,167.000,1.000,2.582,0.000
125274.700,121551.700,138897.000,128312.500,121806.600,132141.600,128604.300,123717.500,-0.142,0.905,-0.373,-2.441,1.312,-2.777,66.667,168.000,1.000,2.440,0.000
125319.300,121592.500,138934.000,128365.700,121833.700,132155.100,128618.900,123739.800,-0.145,0.908,-0.371,-2.472,1.251,-2.747,66.667,169.000,1.000,2.521,0.000
125368.200,121653.800,138991.300,128498.000,121884.800,132201.400,128659.600,123789.500,-0.147,0.910,-0.371,-2.625,1.007,-2.625,66.667,170.000,1.000,3.113,0.000
125315.900,121631.100,138947.000,128410.200,121847.500,132180.900,128640.500,123751.000,-0.146,0.909,-0.371,-2.777,0.916,-2.716,66.667,171.000,1.000,0.006,0.000
125297.700,121588.300,138921.500,128348.300,121825.100,132151.200,128623.900,123741.300,-0.148,0.911,-0.371,-2.838,0.732,-2.625,66.667,172.000,1.000,1.909,0.000
125282.400,121515.200,138899.900,128328.300,121809.100,132137.100,128606.100,123729.600,-0.150,0.913,-0.367,-2.808,0.610,-2.502,66.667,173.000,1.000,2.467,0.000
125314.000,121598.300,138929.300,128366.800,121832.400,132162.000,128619.000,123739.900,-0.155,0.920,-0.366,-2.899,0.427,-2.472,66.667,174.000,1.000,2.579,0.000
125336.200,121634.000,138950.200,128416.800,121847.800,132181.200,128630.900,123751.400,-0.156,0.926,-0.362,-3.082,0.153,-2.289,66.667,175.000,1.000,8.059,0.000
125311.600,121557.400,138920.400,128397.200,121824.300,132149.600,128619.400,123742.800,-0.159,0.930,-0.359,-3.235,-0.153,-2.258,66.667,176.000,1.000,0.011,0.000
125284.900,121548.000,138892.900,128321.100,121804.400,132130.600,128610.600,123734.400,-0.159,0.933,-0.358,-3.632,-0.488,-2.106,66.667,177.000,1.000,1.833,0.000
125301.000,121564.900,138906.500,128347.100,121810.100,132144.000,128606.700,123725.000,-0.158,0.936,-0.351,-3.967,-0.702,-1.892,66.667,178.000,1.000,13.802,0.000
125301.500,121561.200,138913.600,128372.800,121816.000,132142.200,128600.400,123727.100,-0.155,0.935,-0.349,-4.181,-0.977,-1.648,66.667,179.000,1.000,9.906,0.000
125317.300,121615.800,138939.500,128409.100,121840.100,132165.900,128622.200,123749.400,-0.154,0.934,-0.348,-4.517,-1.221,-1.404,66.667,180.000,1.000,0.012,0.000
125297.200,121576.400,138917.900,128366.200,121819.400,132150.600,128612.800,123731.500,-0.152,0.930,-0.343,-4.700,-1.526,-1.251,66.667,181.000,1.000,0.003,0.000
125300.200,121561.800,138909.000,128326.100,121805.300,132129.700,128600.900,123716.700,-0.150,0.929,-0.343,-4.730,-1.648,-1.038,66.667,182.000,1.000,5.617,0.000
125312.600,121592.400,138925.600,128372.800,121821.200,132140.800,128606.000,123728.800,-0.147,0.927,-0.346,-4.761,-1.648,-0.793,66.667,183.000,1.000,0.016,0.000
125327.000,121565.800,138934.000,128399.500,121830.700,132152.300,128610.200,123735.100,-0.145,0.925,-0.340,-4.639,-1.556,-0.671,66.667,184.000,1.000,5.664,0.000
125376.000,121658.500,138979.900,128454.500,121867.400,132190.300,128639.800,123766.300,-0.143,0.923,-0.341,-4.608,-1.648,-0.549,66.667,185.000,1.000,2.475,0.000
125347.300,121653.100,138952.400,128399.000,121845.000,132175.700,128631.000,123748.300,-0.139,0.922,-0.335,-4.425,-1.587,-0.397,66.667,186.000,1.000,2.551,0.000
125298.300,121572.900,138908.100,128357.100,121814.700,132149.800,128615.400,123730.100,-0.135,0.922,-0.334,-4.395,-1.404,-0.183,66.667,187.000,1.000,2.466,0.000
125315.600,121551.100,138919.600,128380.600,121822.300,132150.900,128616.100,123737.100,-0.134,0.923,-0.334,-4.333,-1.251,0.031,66.667,188.000,1.000,6.238,0.000
125325.100,121594.100,138930.700,128389.000,121825.900,132149.600,128606.500,123736.300,-0.131,0.921,-0.340,-4.150,-1.007,0.153,66.667,189.000,1.000,9.360,0.000
125303.400,121594.200,138910.900,128331.900,121807.400,132142.100,128595.200,123713.000,-0.129,0.922,-0.337,-3.967,-0.854,0.153,66.667,190.000,1.000,0.009,0.000
125309.300,121539.900,138914.800,128372.000,121811.100,132130.800,128608.300,123726.700,-0.127,0.921,-0.335,-3.632,-0.549,0.183,66.667,191.000,1.000,2.480,0.000
125314.000,121586.700,138931.200,128378.400,121829.400,132154.800,128626.200,123740.400,-0.125,0.923,-0.334,-3.510,-0.183,0.183,66.667,192.000,1.000,0.004,0.000
125315.300,121584.200,138934.800,128376.800,121834.300,132165.300,128624.600,123740.500,-0.123,0.923,-0.336,-3.296,0.305,0.153,66.667,193.000,1.000,6.910,0.000
125316.300,121595.600,138932.900,128364.200,121831.300,132157.000,128611.700,123733.200,-0.120,0.925,-0.335,-3.174,0.763,0.061,66.667,194.000,1.000,3.806,0.000
125343.000,121619.900,138955.900,128413.300,121848.900,132168.900,128626.500,123753.900,-0.119,0.925,-0.331,-2.930,1.251,-0.092,66.667,195.000,1.000,9.276,0.000
125316.600,121576.800,138931.900,128394.800,121836.300,132166.200,128627.400,123749.600,-0.121,0.927,-0.331,-2.869,1.801,-0.183,66.667,196.000,1.000,0.007,0.000
125302.800,121555.300,138910.800,128350.600,121816.800,132149.000,128616.100,123730.800,-0.123,0.930,-0.331,-2.838,2.167,-0.305,66.667,197.000,1.000,1.925,0.000
125317.600,121594.700,138922.100,128362.600,121819.300,132147.700,128606.300,123723.000,-0.123,0.930,-0.332,-2.686,2.686,-0.458,66.667,198.000,1.000,3.783,0.000
125329.300,121604.100,138937.600,128397.900,121829.200,132154.200,128602.200,123729.800,-0.125,0.934,-0.333,-2.686,2.960,-0.763,66.667,199.000,1.000,6.205,0.000
125339.900,121618.800,138951.200,128418.600,121838.600,132160.600,128612.000,123740.500,-0.127,0.936,-0.329,-2.686,3.387,-0.854,66.667,200.000,1.000,9.307,0.000
125338.200,121656.500,138962.900,128427.700,121850.000,132170.900,128629.600,123756.500,-0.127,0.936,-0.330,-2.808,3.815,-1.129,66.667,201.000,1.000,0.010,0.000
125295.200,121567.700,138912.200,128319.900,121807.800,132142.200,128603.700,123717.400,-0.128,0.937,-0.332,-2.899,4.211,-1.343,66.667,202.000,1.000,2.506,0.000
125302.500,121535.100,138913.100,128342.600,121805.600,132126.400,128597.000,123713.700,-0.130,0.939,-0.331,-3.082,4.395,-1.495,66.667,203.000,1.000,0.005,0.000
125323.900,121597.900,138942.200,128396.600,121832.100,132149.800,128607.800,123729.600,-0.134,0.942,-0.330,-3.113,4.700,-1.740,66.667,204.000,1.000,8.158,0.000
125310.100,121546.600,138922.500,128377.100,121823.200,132148.500,128607.800,123727.800,-0.138,0.942,-0.329,-3.357,4.791,-1.862,66.667,205.000,1.000,2.474,0.000
125307.600,121565.600,138915.000,128342.000,121818.400,132146.000,128613.600,123724.000,-0.141,0.942,-0.329,-3.571,4.944,-2.014,66.667,206.000,1.000,3.819,0.000
125319.500,121585.300,138922.500,128356.300,121823.800,132153.800,128616.500,123722.500,-0.142,0.942,-0.328,-3.754,5.005,-2.106,66.667,207.000,1.000,9.281,0.000
125331.800,121609.400,138931.800,128372.200,121826.900,132149.000,128608.700,123722.300,-0.146,0.941,-0.328,-3.937,5.035,-2.228,66.667,208.000,1.000,0.011,0.000
125334.600,121599.000,138940.200,128405.300,121836.600,132154.200,128609.400,123736.500,-0.148,0.934,-0.329,-4.059,4.974,-2.289,66.667,209.000,1.000,1.906,0.000
125318.000,121576.900,138926.700,128384.200,121824.400,132143.900,128601.900,123725.900,-0.151,0.928,-0.328,-4.303,4.761,-2.411,66.667,210.000,1.000,9.983,0.000
125332.300,121580.400,138937.400,128389.000,121829.400,132148.300,128616.800,123737.100,-0.155,0.925,-0.330,-4.364,4.578,-2.380,66.667,211.000,1.000,3.096,0.000
125323.100,121582.800,138936.800,128393.000,121831.900,132151.400,128625.500,123744.000,-0.158,0.922,-0.330,-4.333,4.333,-2.380,66.667,212.000,1.000,0.009,0.000
125322.200,121578.200,138930.100,128383.200,121821.600,132140.200,128600.100,123722.500,-0.160,0.919,-0.331,-4.272,4.028,-2.319,66.667,213.000,1.000,1.882,0.000
125314.000,121577.200,138922.000,128358.700,121812.900,132123.000,128585.800,123715.200,-0.161,0.918,-0.336,-4.120,3.693,-2.289,66.667,214.000,1.000,8.813,0.000
125317.700,121568.800,138925.700,128358.800,121821.000,132140.700,128599.400,123727.600,-0.157,0.915,-0.336,-3.998,3.418,-2.197,66.667,215.000,1.000,3.009,0.000
125333.000,121618.900,138940.700,128374.700,121832.900,132154.200,128618.100,123740.200,-0.153,0.915,-0.336,-3.906,3.082,-1.984,66.667,216.000,1.000,0.012,0.000
125325.500,121595.400,138938.500,128400.600,121836.100,132160.900,128628.100,123746.700,-0.148,0.917,-0.335,-3.876,2.869,-1.770,66.667,217.000,1.000,1.978,0.000
125331.300,121571.100,138939.000,128401.700,121837.400,132151.300,128624.400,123752.400,-0.148,0.918,-0.336,-3.845,2.655,-1.587,66.667,218.000,1.000,8.734,0.000
125323.500,121603.600,138935.600,128379.900,121836.100,132163.300,128613.400,123740.700,-0.151,0.918,-0.336,-3.723,2.533,-1.312,66.667,219.000,1.000,2.484,0.000
125330.100,121594.300,138938.200,128385.400,121836.200,132160.200,128616.800,123742.300,-0.155,0.916,-0.341,-3.754,2.167,-1.160,66.667,220.000,1.000,6.247,0.000
125335.800,121622.400,138950.200,128417.600,121846.900,132166.000,128633.900,123751.000,-0.156,0.917,-0.343,-3.723,1.892,-1.343,66.667,221.000,1.000,9.337,0.000
125330.100,121622.900,138940.200,128368.800,121836.800,132163.800,128623.400,123738.500,-0.157,0.918,-0.342,-3.632,1.465,-1.495,66.667,222.000,1.000,0.011,0.000
125322.500,121583.100,138931.400,128379.500,121829.900,132156.100,128610.900,123732.000,-0.158,0.923,-0.345,-3.510,1.038,-1.465,66.667,223.000,1.000,2.501,0.000
125301.700,121530.500,138907.500,128349.200,121809.200,132126.200,128587.700,123716.000,-0.160,0.925,-0.342,-3.540,0.610,-1.495,66.667,224.000,1.000,0.009,0.000
125311.900,121572.700,138922.500,128374.900,121821.100,132137.600,128596.100,123720.600,-0.162,0.927,-0.342,-3.540,0.183,-1.556,66.667,225.000,1.000,8.136,0.000
125306.000,121570.300,138915.600,128337.600,121818.800,132141.800,128607.600,123722.200,-0.167,0.931,-0.342,-3.571,-0.397,-1.526,66.667,226.000,1.000,2.539,0.000
125299.200,121548.600,138906.100,128339.000,121808.100,132131.100,128602.800,123716.700,-0.168,0.936,-0.343,-3.723,-0.824,-1.709,66.667,227.000,1.000,3.669,0.000
125312.000,121560.500,138918.600,128365.300,121817.800,132138.300,128602.500,123722.100,-0.166,0.942,-0.344,-3.784,-1.312,-1.709,66.667,228.000,1.000,14.366,0.000
125330.100,121598.500,138937.300,128378.900,121834.500,132154.100,128607.600,123730.400,-0.163,0.945,-0.342,-4.059,-2.106,-1.801,66.667,229.000,1.000,0.010,0.000
125335.400,121617.800,138951.000,128409.200,121848.100,132163.500,128621.500,123743.500,-0.161,0.947,-0.341,-4.272,-2.655,-1.984,66.667,230.000,1.000,1.944,0.000
125321.800,121584.000,138936.700,128393.300,121838.300,132153.400,128625.500,123744.000,-0.153,0.948,-0.341,-4.608,-3.082,-2.014,66.667,231.000,1.000,2.548,0.000
125347.000,121646.100,138954.200,128402.600,121846.200,132157.100,128632.300,123743.200,-0.146,0.946,-0.345,-4.852,-3.296,-1.923,66.667,232.000,1.000,2.407,0.000
125342.600,121662.300,138956.200,128411.400,121852.200,132173.800,128629.000,123744.700,-0.143,0.947,-0.346,-5.157,-3.326,-1.709,66.667,233.000,1.000,9.374,0.000
125311.400,121543.800,138917.900,128356.100,121822.200,132151.200,128601.200,123720.000,-0.141,0.947,-0.344,-5.432,-3.601,-1.617,66.667,234.000,1.000,0.010,0.000
125322.100,121581.400,138929.800,128360.800,121832.800,132159.800,128614.500,123727.600,-0.142,0.945,-0.343,-5.707,-3.723,-1.587,66.667,235.000,1.000,1.887,0.000
125326.400,121582.500,138934.300,128371.400,121837.200,132159.900,128628.700,123736.900,-0.143,0.945,-0.342,-6.073,-3.937,-1.556,66.667,236.000,1.000,8.820,0.000
125312.900,121566.200,138924.000,128367.600,121830.100,132153.900,128627.900,123733.700,-0.143,0.943,-0.341,-6.165,-3.998,-1.556,66.667,237.000,1.000,3.035,0.000
125315.400,121562.500,138923.800,128379.400,121831.400,132151.100,128618.300,123733.000,-0.143,0.944,-0.339,-6.378,-3.937,-1.495,66.667,238.000,1.000,0.008,0.000
125333.800,121604.500,138941.900,128387.300,121846.400,132168.800,128623.500,123741.400,-0.139,0.944,-0.338,-6.653,-3.967,-1.526,66.667,239.000,1.000,1.931,0.000
125351.200,121647.900,138961.800,128412.500,121862.000,132183.800,128637.000,123755.700,-0.138,0.941,-0.338,-6.866,-3.967,-1.404,66.667,240.000,1.000,8.714,0.000
125350.800,121648.300,138969.400,128458.900,121869.700,132191.400,128650.700,123770.400,-0.138,0.938,-0.339,-6.927,-4.028,-1.495,66.667,241.000,1.000,3.000,0.000
125324.900,121628.800,138942.100,128399.300,121845.100,132168.900,128634.700,123749.700,-0.139,0.935,-0.340,-7.111,-3.876,-1.495,66.667,242.000,1.000,0.006,0.000
125305.900,121579.000,138916.000,128338.300,121823.600,132147.500,128613.400,123728.900,-0.137,0.931,-0.339,-7.172,-3.815,-1.373,66.667,243.000,1.000,1.930,0.000
125309.400,121572.900,138919.700,128363.400,121826.000,132153.500,128606.900,123729.700,-0.140,0.926,-0.336,-7.141,-3.693,-1.465,66.667,244.000,1.000,8.837,0.000
125306.800,121536.700,138910.100,128357.800,121815.000,132132.700,128599.100,123725.000,-0.137,0.922,-0.338,-7.111,-3.510,-1.434,66.667,245.000,1.000,9.195,0.000
125312.400,121582.000,138916.400,128354.100,121824.000,132149.000,128618.600,123729.100,-0.139,0.918,-0.338,-6.897,-3.387,-1.617,66.667,246.000,1.000,0.015,0.000
125310.000,121579.500,138914.600,128368.200,121825.300,132157.700,128620.900,123728.400,-0.141,0.915,-0.337,-6.683,-3.174,-1.678,66.667,247.000,1.000,1.865,0.000
125315.100,121593.100,138919.800,128366.800,121828.500,132159.400,128612.800,123725.400,-0.141,0.912,-0.335,-6.256,-3.174,-1.617,66.667,248.000,1.000,3.784,0.000
125318.100,121604.000,138927.600,128375.800,121833.800,132157.300,128605.300,123726.500,-0.141,0.907,-0.333,-5.829,-2.960,-1.678,66.667,249.000,1.000,11.909,0.000
125338.600,121625.300,138942.400,128396.200,121840.600,132158.800,128610.900,123727.000,-0.141,0.905,-0.336,-5.432,-2.838,-1.709,66.667,250.000,1.000,0.014,0.000
125326.200,121626.800,138939.200,128385.500,121844.200,132167.400,128625.100,123735.600,-0.142,0.902,-0.334,-4.944,-2.655,-1.770,66.667,251.000,1.000,1.921,0.000
125349.800,121677.400,138965.300,128419.200,121865.400,132182.900,128640.600,123752.400,-0.140,0.904,-0.333,-4.395,-2.350,-1.740,66.667,252.000,1.000,3.668,0.000
125328.600,121537.100,138938.700,128418.600,121850.300,132160.400,128627.600,123754.600,-0.137,0.906,-0.335,-3.906,-2.136,-1.740,66.667,253.000,1.000,9.327,0.000
125320.100,121570.000,138926.600,128356.800,121834.900,132150.200,128603.800,123718.900,-0.138,0.907,-0.333,-3.448,-1.984,-1.801,66.667,254.000,1.000,0.014,0.000
125351.500,121640.500,138960.300,128372.900,121864.200,132180.500,128630.700,123748.400,-0.138,0.910,-0.333,-3.052,-1.617,-1.648,66.667,255.000,1.000,14.928,0.000
125340.000,121607.000,138952.200,128388.400,121856.200,132168.800,128633.900,123751.200,-0.138,0.914,-0.334,-2.625,-1.404,-1.648,66.667,256.000,1.000,0.014,0.000
125325.700,121593.800,138938.400,128380.200,121844.100,132168.900,128625.900,123742.600,-0.138,0.917,-0.335,-2.472,-1.221,-1.617,66.667,257.000,1.000,0.004,0.000
125340.200,121646.600,138949.500,128389.200,121847.600,132170.600,128618.600,123740.300,-0.140,0.920,-0.334,-2.136,-1.007,-1.556,66.667,258.000,1.000,0.004,0.000
125322.800,121618.600,138932.300,128373.300,121834.300,132157.300,128600.900,123727.300,-0.142,0.922,-0.330,-1.862,-0.671,-1.404,66.667,259.000,1.000,4.465,0.000
125317.700,121542.800,138918.600,128372.000,121825.800,132145.000,128605.100,123729.300,-0.142,0.925,-0.331,-1.617,-0.427,-1.343,66.667,260.000,1.000,2.482,0.000
125320.300,121596.400,138928.900,128380.900,121834.400,132158.200,128619.100,123736.500,-0.143,0.928,-0.333,-1.465,-0.183,-1.343,66.667,261.000,1.000,2.472,0.000
125337.600,121611.200,138942.300,128404.800,121839.800,132155.400,128625.300,123746.800,-0.142,0.931,-0.331,-1.312,0.000,-1.282,66.667,262.000,1.000,2.536,0.000
125348.600,121592.400,138951.500,128417.700,121849.600,132165.300,128630.700,123756.900,-0.143,0.936,-0.333,-1.068,0.153,-1.373,66.667,263.000,1.000,12.494,0.000
125356.200,121623.100,138963.100,128414.400,121864.000,132188.900,128637.900,123763.000,-0.142,0.936,-0.333,-1.160,0.458,-1.343,66.667,264.000,1.000,3.137,0.000
125330.400,121584.700,138935.300,128365.100,121837.100,132165.100,128620.000,123735.400,-0.142,0.936,-0.336,-1.129,0.763,-1.434,66.667,265.000,1.000,0.007,0.000
125325.000,121575.900,138929.600,128356.500,121831.600,132155.900,128622.800,123734.300,-0.142,0.936,-0.340,-1.099,1.068,-1.526,66.667,266.000,1.000,1.887,0.000
125310.600,121581.100,138916.600,128345.600,121817.200,132144.300,128610.000,123719.200,-0.143,0.938,-0.335,-1.129,1.282,-1.495,66.667,267.000,1.000,2.491,0.000
125326.800,121615.500,138935.000,128369.700,121832.100,132160.200,128614.100,123726.800,-0.145,0.942,-0.332,-1.129,1.617,-1.556,66.667,268.000,1.000,8.782,0.000
125334.800,121610.900,138941.400,128378.600,121838.800,132172.200,128607.600,123725.000,-0.146,0.943,-0.334,-1.221,1.770,-1.495,66.667,269.000,1.000,2.978,0.000
125334.600,121624.000,138945.100,128380.600,121844.600,132177.700,128618.300,123729.600,-0.145,0.943,-0.333,-1.312,2.045,-1.434,66.667,270.000,1.000,0.006,0.000
125323.200,121607.800,138937.100,128379.100,121837.200,132161.800,128618.000,123727.800,-0.145,0.941,-0.334,-1.495,2.289,-1.587,66.667,271.000,1.000,1.953,0.000
125326.600,121590.700,138938.600,128381.400,121838.600,132159.300,128623.700,123734.900,-0.145,0.937,-0.337,-1.709,2.594,-1.556,66.667,272.000,1.000,8.809,0.000
125325.500,121612.200,138945.500,128385.100,121848.100,132174.000,128628.600,123742.800,-0.145,0.933,-0.335,-1.770,2.777,-1.495,66.667,273.000,1.000,2.457,0.000
125343.600,121614.100,138960.600,128404.800,121861.200,132176.700,128630.100,123755.500,-0.144,0.930,-0.337,-1.678,2.991,-1.404,66.667,274.000,1.000,6.200,0.000
125348.200,121605.800,138962.800,128415.500,121863.300,132166.000,128638.600,123761.400,-0.145,0.928,-0.340,-1.526,3.113,-1.434,66.667,275.000,1.000,9.413,0.000
125364.800,121681.900,138985.600,128442.400,121878.600,132185.600,128652.500,123764.400,-0.145,0.928,-0.341,-1.465,3.265,-1.373,66.667,276.000,1.000,0.010,0.000
125326.300,121592.300,138941.900,128369.300,121844.600,132159.900,128631.700,123735.900,-0.148,0.928,-0.336,-1.465,3.479,-1.404,66.667,277.000,1.000,1.832,0.000
125329.500,121608.700,138945.100,128364.800,121848.600,132168.200,128627.900,123733.700,-0.152,0.929,-0.337,-1.556,3.662,-1.312,66.667,278.000,1.000,2.542,0.000
125331.400,121628.200,138952.700,128388.700,121854.400,132175.300,128624.400,123737.800,-0.152,0.926,-0.339,-1.465,3.754,-1.190,66.667,279.000,1.000,11.247,0.000
125322.200,121577.100,138934.800,128370.500,121839.800,132154.600,128615.600,123731.000,-0.152,0.924,-0.339,-1.495,3.784,-1.129,66.667,280.000,1.000,3.038,0.000
125321.000,121600.100,138934.500,128368.100,121840.100,132151.400,128622.300,123733.900,-0.150,0.926,-0.340,-1.526,3.784,-1.007,66.667,281.000,1.000,0.007,0.000
125329.500,121629.300,138942.400,128380.500,121847.100,132163.000,128626.900,123738.200,-0.152,0.924,-0.337,-1.373,3.815,-1.068,66.667,282.000,1.000,1.889,0.000
125332.300,121586.800,138938.900,128386.900,121844.100,132159.300,128621.400,123737.300,-0.154,0.924,-0.338,-1.343,3.906,-1.038,66.667,283.000,1.000,8.793,0.000
125345.100,121603.600,138948.200,128397.800,121851.700,132162.400,128619.800,123744.700,-0.158,0.927,-0.333,-1.404,3.815,-0.946,66.667,284.000,1.000,3.158,0.000
125332.800,121622.500,138938.500,128379.000,121843.900,132162.200,128615.000,123734.700,-0.159,0.927,-0.337,-1.556,3.815,-0.946,66.667,285.000,1.000,0.018,0.000
125344.900,121607.400,138948.500,128403.700,121852.000,132162.800,128632.800,123749.900,-0.158,0.929,-0.336,-1.434,3.876,-0.977,66.667,286.000,1.000,1.830,0.000
125343.900,121608.200,138944.100,128383.600,121846.400,132156.000,128633.300,123744.700,-0.156,0.930,-0.337,-1.587,3.754,-0.977,66.667,287.000,1.000,13.817,0.000
125338.100,121614.400,138939.400,128370.600,121842.400,132160.200,128621.400,123733.700,-0.155,0.930,-0.338,-1.556,3.693,-0.946,66.667,288.000,1.000,3.010,0.000
125340.600,121624.400,138942.800,128376.300,121845.100,132166.600,128617.000,123734.400,-0.158,0.930,-0.337,-1.617,3.723,-0.824,66.667,289.000,1.000,0.005,0.000
125340.200,121601.400,138940.200,128388.300,121842.900,132168.400,128621.400,123740.400,-0.161,0.933,-0.338,-1.709,3.662,-0.732,66.667,290.000,1.000,1.758,0.000
125310.700,121568.100,138914.200,128352.100,121826.000,132150.100,128621.200,123734.300,-0.162,0.936,-0.341,-1.923,3.601,-0.732,66.667,291.000,1.000,6.431,0.000
125315.100,121588.300,138919.000,128363.300,121829.900,132153.400,128625.500,123736.200,-0.162,0.936,-0.339,-2.167,3.387,-0.824,66.667,292.000,1.000,2.483,0.000
125334.600,121632.000,138938.500,128378.800,121847.100,132175.300,128629.500,123741.500,-0.161,0.937,-0.339,-2.319,3.174,-0.793,66.667,293.000,1.000,2.432,0.000
125350.500,121702.200,138960.000,128392.700,121862.000,132193.000,128629.700,123741.900,-0.160,0.937,-0.340,-2.563,2.960,-0.793,66.667,294.000,1.000,11.333,0.000
125330.600,121612.500,138939.700,128382.900,121850.800,132185.300,128631.700,123745.300,-0.159,0.938,-0.342,-2.747,2.899,-0.793,66.667,295.000,1.000,3.040,0.000
125327.500,121576.100,138935.000,128384.500,121849.200,132176.600,128646.200,123755.400,-0.158,0.939,-0.336,-3.021,2.747,-0.763,66.667,296.000,1.000,0.010,0.000
125343.700,121631.900,138951.700,128401.000,121860.200,132176.000,128644.400,123758.800,-0.159,0.937,-0.338,-3.296,2.686,-0.763,66.667,297.000,1.000,1.907,0.000
125320.100,121565.900,138926.000,128373.100,121839.200,132152.100,128618.500,123740.300,-0.159,0.936,-0.339,-3.601,2.533,-0.702,66.667,298.000,1.000,8.775,0.000
125321.700,121583.800,138928.500,128368.000,121839.500,132159.200,128609.300,123735.500,-0.161,0.937,-0.337,-3.784,2.472,-0.702,66.667,299.000,1.000,2.535,0.000
125327.000,121605.200,138934.700,128378.100,121842.900,132163.300,128614.200,123741.000,-0.163,0.937,-0.335,-3.906,2.380,-0.702,66.667,300.000,1.000,6.257,0.000
125322.800,121605.700,138929.100,128371.500,121837.600,132159.300,128613.600,123734.900,-0.163,0.936,-0.334,-4.059,2.167,-0.641,66.667,301.000,1.000,3.013,0.000
125323.000,121594.700,138927.800,128374.200,121833.600,132152.900,128611.400,123736.800,-0.164,0.935,-0.337,-4.181,1.953,-0.549,66.667,302.000,1.000,0.012,0.000
125324.300,121595.600,138930.700,128371.100,121833.600,132151.100,128607.300,123731.000,-0.164,0.932,-0.331,-4.364,1.831,-0.458,66.667,303.000,1.000,1.959,0.000
125333.900,121629.400,138946.000,128378.900,121845.000,132162.100,128607.600,123735.200,-0.161,0.926,-0.333,-4.578,1.617,-0.336,66.667,304.000,1.000,16.823,0.000
125342.900,121616.100,138952.800,128395.700,121849.000,132164.900,128612.900,123740.400,-0.162,0.921,-0.337,-4.456,1.465,-0.183,66.667,305.000,1.000,0.015,0.000
125335.400,121612.700,138942.300,128375.000,121839.300,132161.900,128618.200,123732.400,-0.161,0.921,-0.336,-4.395,1.190,-0.061,66.667,306.000,1.000,1.867,0.000
125318.500,121566.000,138924.200,128362.200,121827.700,132144.700,128615.100,123729.000,-0.163,0.918,-0.334,-4.211,1.068,0.061,66.667,307.000,1.000,2.499,0.000
125329.100,121600.700,138939.000,128378.400,121843.200,132162.200,128620.800,123738.500,-0.163,0.919,-0.331,-3.937,0.977,0.183,66.667,308.000,1.000,2.432,0.000
125347.900,121658.400,138961.600,128400.500,121864.000,132187.300,128627.500,123750.000,-0.163,0.918,-0.331,-3.723,0.854,0.427,66.667,309.000,1.000,3.865,0.000
125339.000,121626.900,138948.600,128382.300,121854.200,132170.400,128624.400,123744.700,-0.160,0.917,-0.332,-3.601,0.549,0.641,66.667,310.000,1.000,9.305,0.000
125318.300,121572.700,138930.000,128375.300,121839.100,132153.000,128622.000,123737.200,-0.160,0.920,-0.332,-3.571,0.610,0.854,66.667,311.000,1.000,0.009,0.000
125320.500,121589.600,138932.900,128368.900,121840.200,132159.000,128624.100,123737.100,-0.161,0.918,-0.334,-3.296,0.580,0.824,66.667,312.000,1.000,1.827,0.000
125326.200,121608.300,138941.000,128373.600,121845.400,132168.300,128623.000,123740.500,-0.156,0.923,-0.335,-3.143,0.458,1.129,66.667,313.000,1.000,3.835,0.000
125326.800,121599.600,138942.000,128380.000,121846.300,132169.000,128614.400,123740.500,-0.152,0.924,-0.333,-2.991,0.458,1.190,66.667,314.000,1.000,15.570,0.000
125333.200,121609.400,138947.700,128383.400,121851.100,132163.100,128619.400,123750.400,-0.153,0.924,-0.331,-2.808,0.519,1.251,66.667,315.000,1.000,0.014,0.000
125338.800,121617.700,138955.500,128396.600,121860.000,132167.900,128637.400,123763.000,-0.151,0.924,-0.328,-2.716,0.641,1.343,66.667,316.000,1.000,2.504,0.000
125329.700,121615.400,138946.600,128382.300,121855.200,132168.900,128635.300,123757.200,-0.149,0.925,-0.331,-2.563,0.641,1.434,66.667,317.000,1.000,0.014,0.000
125335.000,121614.600,138948.800,128384.500,121857.300,132172.800,128629.700,123754.200,-0.149,0.927,-0.332,-2.411,0.732,1.373,66.667,318.000,1.000,1.873,0.000
125335.700,121634.900,138951.800,128392.400,121860.500,132176.700,128622.600,123751.600,-0.148,0.925,-0.329,-2.441,0.916,1.465,66.667,319.000,1.000,25.097,0.000
125323.200,121642.900,138941.400,128379.200,121853.000,132179.400,128619.700,123744.400,-0.148,0.925,-0.331,-2.258,1.068,1.373,66.667,320.000,1.000,2.420,0.000
125316.200,121624.400,138929.800,128364.500,121842.400,132165.500,128625.100,123742.800,-0.146,0.926,-0.334,-2.319,1.221,1.465,66.667,321.000,1.000,2.495,0.000
125308.000,121573.600,138916.000,128358.800,121828.500,132146.300,128620.700,123736.400,-0.145,0.925,-0.332,-2.197,1.251,1.495,66.667,322.000,1.000,2.481,0.000
125315.100,121589.700,138922.500,128363.800,121830.400,132152.500,128611.800,123731.900,-0.146,0.927,-0.333,-2.197,1.404,1.343,66.667,323.000,1.000,2.492,0.000
125337.300,121663.100,138947.900,128381.200,121848.400,132170.300,128613.700,123738.900,-0.144,0.928,-0.335,-2.167,1.648,1.190,66.667,324.000,1.000,2.590,0.000
125350.300,121681.300,138961.000,128390.300,121855.800,132176.400,128624.500,123744.900,-0.144,0.927,-0.334,-2.197,1.923,1.251,66.667,325.000,1.000,2.405,0.000
125314.300,121521.400,138914.500,128364.800,121821.100,132143.200,128612.900,123729.900,-0.145,0.928,-0.333,-2.197,2.045,1.160,66.667,326.000,1.000,2.544,0.000
125325.600,121592.400,138927.200,128369.100,121830.700,132152.300,128619.600,123734.300,-0.143,0.930,-0.332,-2.167,2.289,0.977,66.667,327.000,1.000,2.466,0.000
125334.200,121620.700,138935.000,128374.400,121836.100,132153.700,128615.200,123734.400,-0.143,0.931,-0.332,-2.228,2.472,0.854,66.667,328.000,1.000,3.099,0.000
125336.400,121598.700,138934.100,128379.600,121837.000,132156.200,128608.700,123733.100,-0.142,0.929,-0.332,-2.228,2.655,0.885,66.667,329.000,1.000,0.018,0.000
125338.100,121606.100,138936.200,128377.600,121841.500,132166.600,128619.400,123736.900,-0.142,0.929,-0.334,-2.380,2.991,0.885,66.667,330.000,1.000,1.896,0.000
125337.100,121619.800,138936.000,128374.700,121840.200,132162.200,128624.400,123737.200,-0.142,0.931,-0.336,-2.411,3.357,0.916,66.667,331.000,1.000,8.764,0.000
125323.400,121607.200,138925.500,128365.600,121834.400,132160.800,128621.400,123730.200,-0.141,0.929,-0.334,-2.472,3.479,0.885,66.667,332.000,1.000,3.039,0.000
125330.700,121622.100,138934.100,128372.900,121842.400,132161.400,128616.200,123733.400,-0.142,0.928,-0.334,-2.441,3.754,0.824,66.667,333.000,1.000,0.008,0.000
125336.300,121631.900,138942.800,128389.000,121850.600,132168.200,128614.400,123738.500,-0.141,0.928,-0.332,-2.411,3.967,0.854,66.667,334.000,1.000,4.384,0.000
125323.600,121570.600,138927.500,128391.800,121838.800,132152.400,128613.600,123739.900,-0.142,0.928,-0.331,-2.380,4.181,0.885,66.667,335.000,1.000,4.346,0.000
125315.200,121585.600,138921.300,128367.100,121832.800,132152.500,128620.700,123735.400,-0.140,0.929,-0.332,-2.533,4.395,0.763,66.667,336.000,1.000,0.009,0.000
125316.900,121609.600,138926.600,128361.700,121837.700,132158.500,128627.700,123739.100,-0.142,0.932,-0.332,-2.380,4.517,0.793,66.667,337.000,1.000,8.203,0.000
125327.600,121633.600,138941.600,128384.800,121851.700,132177.700,128632.900,123747.800,-0.143,0.933,-0.333,-2.350,4.761,0.916,66.667,338.000,1.000,2.463,0.000
125327.700,121614.800,138939.200,128385.600,121851.100,132174.900,128625.700,123748.700,-0.144,0.933,-0.333,-2.350,4.883,0.977,66.667,339.000,1.000,3.709,0.000
125332.100,121608.900,138941.100,128389.900,121853.000,132179.500,128635.100,123756.800,-0.146,0.932,-0.334,-2.411,5.005,0.946,66.667,340.000,1.000,9.411,0.000
125317.500,121597.800,138924.500,128370.400,121833.900,132157.000,128627.400,123744.700,-0.146,0.930,-0.332,-2.411,5.066,1.007,66.667,341.000,1.000,0.014,0.000
125312.800,121599.000,138917.700,128364.700,121823.200,132147.500,128616.800,123734.400,-0.146,0.930,-0.333,-2.350,5.188,1.007,66.667,342.000,1.000,2.471,0.000
125327.100,121605.600,138926.300,128374.700,121828.700,132159.100,128609.200,123732.200,-0.145,0.929,-0.332,-2.441,5.371,1.038,66.667,343.000,1.000,0.015,0.000
125329.300,121610.900,138928.800,128370.300,121830.600,132163.000,128603.500,123731.500,-0.145,0.929,-0.331,-2.411,5.341,1.099,66.667,344.000,1.000,6.872,0.000
125321.600,121600.200,138924.100,128365.400,121826.500,132159.900,128608.900,123734.200,-0.146,0.929,-0.329,-2.350,5.402,1.190,66.667,345.000,1.000,3.810,0.000
125307.000,121559.300,138906.700,128353.000,121809.500,132143.400,128607.100,123727.500,-0.146,0.927,-0.330,-2.441,5.341,1.190,66.667,346.000,1.000,8.672,0.000
125306.000,121576.400,138906.200,128350.800,121808.600,132144.500,128606.000,123724.400,-0.148,0.928,-0.330,-2.472,5.463,1.099,66.667,347.000,1.000,3.141,0.000
125308.400,121589.800,138909.000,128354.400,121813.100,132145.700,128600.500,123722.800,-0.150,0.927,-0.331,-2.502,5.341,1.038,66.667,348.000,1.000,0.011,0.000
125321.400,121600.800,138924.100,128369.300,121829.400,132165.000,128605.000,123730.000,-0.150,0.927,-0.327,-2.502,5.341,0.977,66.667,349.000,1.000,1.841,0.000
125337.300,121652.700,138945.500,128389.900,121850.500,132181.400,128625.000,123746.000,-0.147,0.927,-0.335,-2.502,5.371,1.038,66.667,350.000,1.000,11.343,0.000
125318.000,121589.600,138920.800,128366.800,121836.100,132162.500,128628.200,123743.500,-0.145,0.930,-0.335,-2.380,5.341,0.977,66.667,351.000,1.000,3.027,0.000
125318.000,121592.900,138918.300,128361.200,121834.300,132160.600,128627.300,123741.400,-0.144,0.933,-0.332,-2.441,5.310,0.885,66.667,352.000,1.000,0.008,0.000
125312.500,121588.700,138913.100,128353.900,121830.700,132157.800,128616.100,123734.200,-0.146,0.937,-0.330,-2.502,5.310,0.854,66.667,353.000,1.000,1.957,0.000
125321.100,121620.900,138924.700,128363.200,121842.000,132175.400,128615.200,123736.200,-0.146,0.939,-0.332,-2.563,5.371,0.824,66.667,354.000,1.000,13.702,0.000
125318.200,121613.000,138924.900,128364.500,121841.700,132178.800,128622.000,123741.000,-0.145,0.940,-0.333,-2.747,5.127,0.793,66.667,355.000,1.000,3.065,0.000
125307.500,121582.300,138912.700,128356.100,121827.400,132157.200,128624.200,123736.700,-0.145,0.938,-0.334,-2.991,5.157,0.671,66.667,356.000,1.000,0.014,0.000
125308.400,121620.900,138920.000,128358.400,121830.100,132155.100,128623.600,123734.600,-0.144,0.940,-0.333,-3.113,5.005,0.671,66.667,357.000,1.000,1.959,0.000
125311.600,121605.300,138922.700,128357.500,121829.500,132159.300,128612.900,123729.800,-0.143,0.939,-0.332,-3.235,4.974,0.732,66.667,358.000,1.000,2.458,0.000
125317.100,121601.600,138928.100,128367.700,121833.300,132165.200,128608.600,123732.800,-0.145,0.941,-0.333,-3.357,5.005,0.732,66.667,359.000,1.000,8.717,0.000
125309.800,121596.400,138920.700,128359.700,121826.200,132164.400,128609.400,123731.000,-0.144,0.942,-0.333,-3.510,4.944,0.763,66.667,360.000,1.000,3.140,0.000
125308.700,121609.700,138916.600,128353.200,121819.500,132156.800,128615.300,123733.800,-0.142,0.943,-0.334,-3.723,4.883,0.763,66.667,361.000,1.000,0.008,0.000
125314.700,121641.100,138924.600,128358.600,121825.200,132167.000,128620.500,123735.100,-0.144,0.944,-0.331,-3.723,4.883,0.824,66.667,362.000,1.000,1.907,0.000
125310.200,121571.300,138913.700,128347.800,121814.300,132150.700,128606.000,123725.300,-0.143,0.944,-0.334,-3.906,4.730,0.824,66.667,363.000,1.000,8.855,0.000
125337.600,121619.800,138943.200,128381.400,121841.800,132176.500,128617.900,123741.900,-0.141,0.942,-0.333,-4.120,4.791,0.824,66.667,364.000,1.000,2.329,0.000
125333.300,121595.400,138934.300,128371.300,121837.000,132162.600,128616.400,123741.100,-0.141,0.941,-0.332,-4.242,4.761,0.793,66.667,365.000,1.000,6.311,0.000
125323.100,121598.000,138923.600,128357.600,121828.700,132149.200,128619.600,123730.200,-0.140,0.940,-0.330,-4.303,4.761,0.793,66.667,366.000,1.000,19.977,0.000
125317.200,121604.700,138919.800,128354.400,121826.300,132151.400,128618.800,123724.300,-0.143,0.940,-0.332,-4.333,4.852,0.732,66.667,367.000,1.000,0.017,0.000
125326.100,121618.900,138925.800,128351.100,121833.200,132166.700,128616.300,123723.800,-0.146,0.942,-0.330,-4.425,4.791,0.671,66.667,368.000,1.000,0.004,0.000
125328.700,121606.800,138927.200,128366.600,121836.400,132166.200,128611.900,123723.900,-0.148,0.941,-0.330,-4.395,4.791,0.641,66.667,369.000,1.000,2.555,0.000
125328.200,121607.600,138927.400,128356.300,121837.200,132165.500,128620.400,123725.900,-0.151,0.939,-0.330,-4.517,4.730,0.580,66.667,370.000,1.000,2.430,0.000
125326.800,121593.900,138923.800,128356.300,121832.800,132156.600,128626.200,123726.600,-0.151,0.938,-0.329,-4.547,4.608,0.702,66.667,371.000,1.000,2.537,0.000
125327.300,121611.200,138927.000,128364.100,121834.900,132157.500,128623.800,123726.500,-0.151,0.936,-0.326,-4.669,4.608,0.671,66.667,372.000,1.000,2.463,0.000
125336.200,121613.400,138936.000,128373.500,121842.500,132162.300,128619.500,123733.300,-0.150,0.934,-0.329,-4.608,4.578,0.549,66.667,373.000,1.000,2.526,0.000
125343.300,121622.500,138940.500,128365.800,121845.400,132164.600,128613.600,123729.300,-0.147,0.932,-0.327,-4.517,4.608,0.610,66.667,374.000,1.000,4.975,0.000
125351.500,121669.600,138953.600,128378.600,121859.800,132189.200,128632.100,123740.000,-0.141,0.930,-0.327,-4.395,4.669,0.702,66.667,375.000,1.000,2.481,0.000
125344.300,121604.100,138937.600,128378.900,121846.600,132171.800,128635.700,123742.000,-0.136,0.928,-0.328,-4.242,4.761,0.702,66.667,376.000,1.000,4.329,0.000
125327.000,121561.200,138918.100,128356.200,121826.900,132151.300,128622.900,123729.900,-0.134,0.928,-0.329,-4.181,4.913,0.824,66.667,377.000,1.000,0.009,0.000
125339.600,121609.100,138932.900,128369.600,121838.000,132166.700,128624.100,123737.700,-0.133,0.926,-0.327,-3.998,5.096,1.038,66.667,378.000,1.000,13.211,0.000
125345.100,121628.200,138940.100,128378.300,121844.600,132178.600,128623.200,123740.600,-0.131,0.922,-0.328,-3.876,5.280,1.251,66.667,379.000,1.000,7.382,0.000
125342.200,121638.400,138938.800,128372.400,121843.600,132184.600,128630.500,123742.700,-0.133,0.920,-0.333,-3.754,5.554,1.312,66.667,380.000,1.000,0.010,0.000
125333.300,121604.700,138930.700,128371.300,121834.300,132175.500,128632.500,123742.800,-0.135,0.917,-0.333,-3.601,5.737,1.282,66.667,381.000,1.000,0.004,0.000
125330.400,121613.700,138931.200,128367.000,121830.500,132168.600,128630.500,123741.800,-0.134,0.915,-0.334,-3.387,5.768,1.099,66.667,382.000,1.000,5.690,0.000
125335.100,121620.200,138933.500,128357.200,121830.200,132166.400,128617.300,123734.700,-0.132,0.914,-0.334,-2.991,5.829,0.977,66.667,383.000,1.000,0.017,0.000
125350.600,121611.600,138947.300,128385.200,121844.300,132173.600,128615.600,123745.400,-0.130,0.912,-0.334,-2.686,6.073,0.885,66.667,384.000,1.000,1.862,0.000
125345.400,121620.500,138944.000,128383.900,121844.100,132172.300,128622.100,123748.300,-0.131,0.909,-0.336,-2.411,6.348,0.824,66.667,385.000,1.000,13.773,0.000
125337.700,121629.000,138933.500,128359.700,121833.200,132161.900,128618.700,123737.600,-0.135,0.908,-0.336,-1.984,6.531,0.610,66.667,386.000,1.000,2.998,0.000
125326.800,121596.700,138919.100,128347.500,121824.900,132159.400,128615.300,123733.400,-0.141,0.910,-0.333,-1.617,6.653,0.397,66.667,387.000,1.000,0.015,0.000
125331.800,121582.100,138917.700,128349.600,121823.600,132150.800,128606.700,123730.700,-0.144,0.915,-0.335,-1.465,6.622,0.275,66.667,388.000,1.000,2.514,0.000
125341.300,121600.600,138930.300,128371.700,121835.700,132161.500,128605.700,123735.000,-0.146,0.921,-0.337,-1.099,6.561,0.000,66.667,389.000,1.000,0.011,0.000
125329.100,121598.600,138925.400,128360.800,121835.700,132161.000,128609.800,123737.800,-0.145,0.924,-0.339,-0.885,6.439,-0.336,66.667,390.000,1.000,13.181,0.000
125325.500,121618.400,138923.200,128347.600,121832.100,132158.800,128616.200,123732.900,-0.143,0.929,-0.338,-0.885,6.317,-0.519,66.667,391.000,1.000,9.774,0.000
125320.500,121591.600,138916.200,128346.800,121827.000,132152.600,128615.100,123729.800,-0.142,0.930,-0.334,-0.824,6.195,-0.702,66.667,392.000,1.000,0.011,0.000
125331.500,121604.000,138927.700,128362.300,121836.900,132158.100,128617.100,123739.400,-0.141,0.932,-0.335,-0.916,5.951,-0.916,66.667,393.000,1.000,0.005,0.000
125343.900,121640.100,138944.800,128371.700,121852.700,132177.300,128622.100,123745.600,-0.143,0.932,-0.333,-0.885,5.829,-1.038,66.667,394.000,1.000,8.294,0.000
125331.000,121630.100,138937.400,128366.900,121846.900,132175.300,128624.000,123742.700,-0.146,0.935,-0.338,-0.916,5.554,-1.099,66.667,395.000,1.000,0.007,0.000
125321.900,121567.300,138917.300,128361.700,121827.100,132147.700,128620.800,123737.300,-0.147,0.936,-0.340,-0.885,5.310,-1.282,66.667,396.000,1.000,1.874,0.000
125327.500,121591.600,138923.300,128360.100,121833.900,132155.700,128629.000,123743.600,-0.151,0.938,-0.337,-1.007,5.096,-1.343,66.667,397.000,1.000,9.278,0.000
125336.000,121609.500,138933.700,128373.000,121843.700,132170.600,128629.900,123750.600,-0.149,0.940,-0.335,-1.007,4.761,-1.465,66.667,398.000,1.000,0.016,0.000
125347.000,121631.100,138941.500,128380.700,121847.000,132174.600,128622.000,123750.800,-0.146,0.940,-0.335,-1.099,4.395,-1.495,66.667,399.000,1.000,6.219,0.000
125360.500,121633.200,138947.200,128388.100,121848.300,132172.500,128623.700,123750.500,-0.145,0.938,-0.336,-1.160,4.059,-1.404,66.667,400.000,1.000,0.006,0.000
125353.600,121626.000,138938.400,128391.600,121841.600,132169.700,128624.500,123747.000,-0.147,0.939,-0.334,-1.251,3.845,-1.251,66.667,401.000,1.000,2.561,0.000
125349.400,121625.800,138925.400,128358.800,121830.200,132161.700,128613.800,123732.500,-0.149,0.938,-0.336,-1.404,3.540,-1.068,66.667,402.000,1.000,0.003,0.000
125362.100,121596.300,138928.000,128373.900,121834.300,132161.600,128614.000,123740.100,-0.153,0.939,-0.335,-1.343,3.143,-0.885,66.667,403.000,1.000,10.690,0.000
125380.400,121632.700,138947.000,128386.200,121850.800,132178.000,128621.900,123751.100,-0.157,0.938,-0.334,-1.434,2.777,-0.610,66.667,404.000,1.000,3.063,0.000
125390.300,121655.300,138957.300,128394.900,121859.600,132190.500,128629.000,123757.200,-0.160,0.936,-0.332,-1.556,2.380,-0.519,66.667,405.000,1.000,1.122,0.000
125364.800,121595.600,138930.500,128367.500,121837.200,132158.900,128619.300,123745.500,-0.160,0.934,-0.331,-1.556,2.228,-0.458,66.667,406.000,1.000,7.031,0.000
125366.100,121593.600,138929.300,128367.500,121835.400,132151.900,128611.400,123741.200,-0.156,0.927,-0.330,-1.404,1.709,-0.214,66.667,407.000,1.000,6.244,0.000
125379.300,121632.500,138943.700,128375.600,121844.900,132161.900,128609.200,123740.700,-0.157,0.921,-0.331,-1.251,1.404,0.000,66.667,408.000,1.000,2.544,0.000
125398.600,121648.100,138961.300,128397.200,121860.600,132184.500,128617.000,123749.000,-0.157,0.918,-0.333,-0.916,1.099,0.092,66.667,409.000,1.000,2.516,0.000
125402.700,121653.700,138963.900,128399.600,121862.300,132179.100,128625.800,123757.700,-0.156,0.912,-0.332,-0.580,0.916,0.366,66.667,410.000,1.000,2.410,0.000
125399.300,121627.800,138958.200,128397.900,121856.600,132175.900,128632.300,123756.400,-0.155,0.909,-0.333,-0.214,0.671,0.732,66.667,411.000,1.000,6.343,0.000
125394.500,121622.000,138957.500,128399.700,121857.300,132174.100,128634.200,123756.500,-0.153,0.909,-0.338,0.336,0.397,0.977,66.667,412.000,1.000,3.033,0.000
125410.000,121677.200,138974.900,128405.100,121873.200,132193.900,128636.100,123760.100,-0.147,0.907,-0.331,0.793,0.275,1.404,66.667,413.000,1.000,0.008,0.000
125409.900,121618.600,138965.900,128409.500,121867.400,132178.800,128629.000,123761.100,-0.145,0.908,-0.332,1.312,0.305,1.862,66.667,414.000,1.000,15.704,0.000
125415.900,121619.900,138969.700,128413.300,121875.000,132186.000,128642.600,123769.800,-0.143,0.909,-0.331,1.770,0.336,2.167,66.667,415.000,1.000,3.034,0.000
125410.100,121613.100,138959.800,128403.400,121863.400,132172.800,128641.100,123762.700,-0.138,0.908,-0.335,2.197,0.427,2.594,66.667,416.000,1.000,0.015,0.000
125411.100,121623.400,138960.400,128405.600,121862.100,132176.500,128640.800,123760.700,-0.135,0.909,-0.338,2.594,0.519,3.052,66.667,417.000,1.000,1.904,0.000
125420.200,121634.400,138970.500,128401.900,121869.000,132185.200,128636.400,123760.700,-0.134,0.910,-0.337,3.082,0.641,3.204,66.667,418.000,1.000,2.434,0.000
125436.300,121663.300,138989.200,128420.000,121883.000,132193.000,128635.500,123767.200,-0.131,0.914,-0.337,3.479,0.885,3.448,66.667,419.000,1.000,2.585,0.000
125434.300,121681.600,138993.500,128427.700,121888.000,132196.400,128646.700,123773.300,-0.130,0.918,-0.338,3.815,1.129,3.662,66.667,420.000,1.000,13.697,0.000
125424.000,121663.600,138985.200,128422.300,121885.900,132200.500,128662.000,123780.700,-0.127,0.921,-0.336,4.120,1.526,3.967,66.667,421.000,1.000,5.604,0.000
125417.100,121634.300,138975.500,128408.600,121874.900,132186.200,128648.200,123767.500,-0.126,0.924,-0.337,4.242,1.923,3.967,66.667,422.000,1.000,0.008,0.000
125419.900,121662.600,138982.500,128416.200,121881.800,132191.900,128642.300,123765.500,-0.125,0.927,-0.339,4.272,2.167,4.028,66.667,423.000,1.000,1.910,0.000
125414.300,121646.300,138978.100,128404.700,121875.700,132189.700,128637.700,123760.800,-0.123,0.928,-0.340,4.181,2.563,4.120,66.667,424.000,1.000,2.529,0.000
125411.700,121644.700,138978.300,128400.000,121875.100,132193.800,128647.100,123765.900,-0.120,0.929,-0.344,4.272,2.808,4.120,66.667,425.000,1.000,2.387,0.000
125401.300,121641.400,138970.500,128393.300,121863.000,132175.600,128639.500,123762.300,-0.118,0.930,-0.343,4.272,3.235,4.028,66.667,426.000,1.000,2.603,0.000
125409.400,121645.800,138976.700,128400.000,121866.300,132187.800,128641.600,123760.500,-0.116,0.932,-0.345,4.242,3.510,3.937,66.667,427.000,1.000,3.731,0.000
125422.400,121660.800,138985.700,128409.300,121875.600,132195.700,128640.900,123763.300,-0.115,0.929,-0.343,4.150,3.998,3.876,66.667,428.000,1.000,9.316,0.000
125414.100,121621.000,138967.900,128401.600,121862.200,132172.300,128624.000,123756.300,-0.112,0.928,-0.345,4.089,4.578,3.693,66.667,429.000,1.000,0.014,0.000
125404.600,121619.300,138956.200,128393.400,121854.700,132169.800,128621.500,123755.600,-0.112,0.927,-0.346,4.028,5.035,3.387,66.667,430.000,1.000,1.896,0.000
125394.100,121618.800,138947.700,128387.700,121848.100,132166.200,128627.100,123755.400,-0.114,0.927,-0.344,3.906,5.371,3.204,66.667,431.000,1.000,8.785,0.000
125397.900,121644.500,138955.500,128389.600,121855.100,132174.500,128633.900,123759.500,-0.116,0.927,-0.347,3.784,5.890,2.991,66.667,432.000,1.000,3.031,0.000
125400.700,121620.400,138962.800,128397.600,121863.400,132180.000,128626.400,123759.600,-0.120,0.925,-0.347,3.632,6.165,2.838,66.667,433.000,1.000,0.008,0.000
125396.500,121616.700,138963.700,128394.300,121863.300,132172.200,128619.500,123755.700,-0.117,0.925,-0.349,3.601,6.287,2.686,66.667,434.000,1.000,1.909,0.000
125406.900,121657.500,138981.000,128409.100,121879.700,132192.500,128637.700,123767.400,-0.115,0.922,-0.352,3.540,6.439,2.380,66.667,435.000,1.000,13.791,0.000
125393.400,121624.100,138967.700,128400.900,121869.400,132179.500,128642.300,123767.100,-0.113,0.925,-0.357,3.571,6.805,2.136,66.667,436.000,1.000,2.985,0.000
125383.600,121624.300,138958.800,128391.600,121859.600,132170.800,128631.000,123756.400,-0.114,0.927,-0.354,3.571,7.294,2.014,66.667,437.000,1.000,0.010,0.000
125388.300,121632.300,138961.700,128392.100,121858.600,132175.500,128620.200,123750.500,-0.115,0.929,-0.353,3.387,7.416,1.709,66.667,438.000,1.000,1.936,0.000
125399.700,121638.300,138970.400,128397.400,121865.400,132186.300,128621.600,123752.900,-0.117,0.929,-0.356,3.204,7.629,1.556,66.667,439.000,1.000,3.698,0.000
125394.700,121630.400,138967.500,128395.900,121865.200,132184.200,128628.300,123759.100,-0.117,0.928,-0.354,3.021,7.904,1.251,66.667,440.000,1.000,15.594,0.000
125391.000,121639.900,138970.900,128397.300,121871.600,132191.200,128640.600,123766.700,-0.116,0.930,-0.354,2.808,8.057,0.854,66.667,441.000,1.000,0.014,0.000
125393.700,121627.600,138968.900,128394.700,121870.000,132184.900,128635.900,123759.000,-0.115,0.933,-0.357,2.716,8.240,0.671,66.667,442.000,1.000,1.921,0.000
125397.000,121622.900,138965.500,128393.900,121870.100,132181.400,128626.200,123757.400,-0.115,0.936,-0.360,2.441,8.392,0.610,66.667,443.000,1.000,2.543,0.000
125411.100,121665.800,138978.600,128408.900,121884.600,132203.300,128629.700,123768.700,-0.117,0.938,-0.359,2.319,8.484,0.275,66.667,444.000,1.000,2.471,0.000
125391.100,121639.500,138963.500,128402.300,121873.600,132192.500,128631.200,123766.900,-0.120,0.940,-0.358,2.014,8.514,0.061,66.667,445.000,1.000,2.522,0.000
125380.900,121647.900,138960.800,128396.600,121873.900,132191.300,128642.200,123769.300,-0.122,0.943,-0.355,1.709,8.606,-0.397,66.667,446.000,1.000,15.014,0.000
125371.700,121623.700,138953.500,128390.400,121871.000,132184.500,128644.300,123768.900,-0.123,0.943,-0.357,1.373,8.667,-0.702,66.667,447.000,1.000,3.051,0.000
125386.700,121661.200,138970.100,128402.100,121882.000,132187.200,128637.200,123767.800,-0.126,0.944,-0.359,1.068,8.545,-1.068,66.667,448.000,1.000,0.011,0.000
125387.100,121676.300,138975.900,128405.600,121885.900,132191.600,128634.300,123768.300,-0.128,0.940,-0.359,0.793,8.514,-1.282,66.667,449.000,1.000,1.907,0.000
125371.500,121604.100,138959.500,128394.300,121873.200,132183.600,128638.400,123765.000,-0.129,0.934,-0.363,0.549,8.362,-1.556,66.667,450.000,1.000,2.494,0.000
125368.100,121633.100,138959.800,128388.100,121868.500,132180.600,128640.600,123758.800,-0.130,0.930,-0.363,0.336,8.240,-1.709,66.667,451.000,1.000,2.447,0.000
125370.900,121649.300,138963.700,128391.900,121870.900,132187.600,128645.000,123763.000,-0.133,0.927,-0.360,0.275,8.026,-1.831,66.667,452.000,1.000,3.791,0.000
125381.500,121632.000,138968.000,128398.200,121872.400,132190.800,128640.000,123766.800,-0.132,0.925,-0.359,0.275,7.843,-1.923,66.667,453.000,1.000,4.344,0.000
125386.200,121632.700,138968.700,128400.300,121868.300,132184.200,128628.100,123760.800,-0.135,0.925,-0.361,0.275,7.660,-2.075,66.667,454.000,1.000,0.006,0.000
125378.700,121632.100,138963.000,128397.700,121862.900,132181.300,128630.600,123759.700,-0.135,0.924,-0.360,0.153,7.416,-2.319,66.667,455.000,1.000,13.226,0.000
125361.200,121612.500,138947.400,128380.300,121852.700,132177.800,128635.300,123757.600,-0.131,0.924,-0.358,0.092,7.141,-2.380,66.667,456.000,1.000,3.018,0.000
125358.500,121607.500,138941.200,128379.400,121846.500,132168.400,128628.700,123755.400,-0.128,0.919,-0.357,0.122,6.989,-2.350,66.667,457.000,1.000,0.006,0.000
125366.400,121618.900,138945.100,128384.200,121848.700,132175.100,128623.200,123753.700,-0.129,0.916,-0.359,0.336,6.836,-2.502,66.667,458.000,1.000,1.955,0.000
125373.400,121618.900,138949.400,128390.400,121851.100,132176.400,128618.000,123751.500,-0.134,0.918,-0.359,0.397,6.805,-2.563,66.667,459.000,1.000,3.686,0.000
125371.700,121609.500,138947.600,128384.200,121850.000,132175.500,128624.300,123752.200,-0.133,0.921,-0.359,0.580,6.592,-2.533,66.667,460.000,1.000,8.826,0.000
125369.100,121624.600,138947.500,128380.000,121848.400,132173.800,128630.000,123750.500,-0.130,0.922,-0.354,0.702,6.439,-2.533,66.667,461.000,1.000,4.284,0.000
125368.300,121619.700,138945.700,128379.300,121845.400,132166.000,128630.800,123750.400,-0.128,0.923,-0.354,0.732,6.378,-2.563,66.667,462.000,1.000,0.008,0.000
125373.000,121620.100,138952.400,128384.000,121853.800,132180.900,128633.800,123754.700,-0.130,0.925,-0.357,0.824,6.256,-2.411,66.667,463.000,1.000,11.256,0.000
125377.900,121629.100,138957.900,128386.600,121854.800,132177.700,128621.100,123748.100,-0.129,0.925,-0.359,0.824,6.348,-2.289,66.667,464.000,1.000,0.009,0.000
125383.500,121635.800,138963.000,128392.300,121858.900,132177.500,128626.300,123749.200,-0.129,0.926,-0.356,0.824,6.409,-2.075,66.667,465.000,1.000,13.750,0.000
125377.700,121650.500,138964.300,128393.500,121864.400,132184.200,128640.500,123755.300,-0.126,0.925,-0.359,0.946,6.317,-1.831,66.667,466.000,1.000,0.016,0.000
125366.900,121610.900,138952.200,128382.900,121857.300,132175.200,128634.300,123746.500,-0.127,0.923,-0.360,1.007,6.378,-1.617,66.667,467.000,1.000,3.053,0.000
125369.900,121628.600,138957.000,128388.300,121862.400,132175.100,128625.400,123747.000,-0.127,0.924,-0.359,1.160,6.409,-1.465,66.667,468.000,1.000,0.008,0.000
125380.400,121641.200,138965.600,128390.200,121872.200,132187.800,128628.600,123754.500,-0.126,0.922,-0.357,1.282,6.378,-1.343,66.667,469.000,1.000,0.005,0.000
125376.800,121629.000,138962.500,128392.500,121875.000,132191.700,128640.500,123762.100,-0.125,0.923,-0.357,1.282,6.378,-1.129,66.667,470.000,1.000,9.390,0.000
125372.500,121614.400,138956.000,128387.400,121870.200,132182.300,128649.400,123766.500,-0.123,0.923,-0.356,1.343,6.531,-1.007,66.667,471.000,1.000,0.013,0.000
125377.200,121629.000,138960.700,128385.700,121873.300,132187.700,128649.900,123765.100,-0.124,0.923,-0.359,1.373,6.714,-0.824,66.667,472.000,1.000,1.919,0.000
125385.600,121627.600,138971.100,128395.400,121882.400,132198.800,128649.300,123769.800,-0.125,0.923,-0.362,1.343,6.805,-0.610,66.667,473.000,1.000,2.431,0.000
125397.100,121644.300,138984.300,128403.700,121890.200,132207.500,128651.200,123777.700,-0.126,0.923,-0.362,1.434,6.744,-0.519,66.667,474.000,1.000,10.024,0.000
125397.200,121649.700,138987.300,128399.300,121891.100,132210.400,128655.700,123778.400,-0.127,0.921,-0.362,1.465,6.866,-0.366,66.667,475.000,1.000,9.883,0.000
125384.500,121638.700,138979.800,128399.600,121887.800,132205.700,128664.400,123783.800,-0.126,0.924,-0.359,1.587,6.958,-0.305,66.667,476.000,1.000,0.011,0.000
125381.000,121644.600,138977.900,128397.300,121888.400,132208.300,128662.500,123778.300,-0.125,0.923,-0.363,1.678,6.897,-0.305,66.667,477.000,1.000,0.003,0.000
125377.200,121647.900,138973.700,128392.000,121883.800,132203.200,128648.900,123767.000,-0.123,0.921,-0.364,1.495,7.019,-0.183,66.667,478.000,1.000,3.230,0.000
125379.100,121645.600,138973.700,128400.800,121883.100,132193.300,128638.800,123763.400,-0.125,0.920,-0.364,1.495,7.019,-0.061,66.667,479.000,1.000,0.005,0.000
125381.500,121647.900,138975.400,128398.200,121884.400,132192.600,128642.300,123765.000,-0.126,0.918,-0.365,1.465,7.050,-0.061,66.667,480.000,1.000,24.410,0.000
125366.800,121645.400,138964.800,128381.000,121875.500,132189.800,128645.000,123759.000,-0.126,0.917,-0.366,1.465,7.111,-0.153,66.667,481.000,1.000,3.059,0.000
125369.600,121664.000,138969.000,128385.000,121877.200,132188.600,128646.700,123760.500,-0.124,0.917,-0.365,1.495,7.202,-0.061,66.667,482.000,1.000,0.007,0.000
125368.500,121655.900,138969.800,128388.100,121878.100,132188.900,128639.800,123758.100,-0.123,0.918,-0.370,1.587,7.294,-0.092,66.667,483.000,1.000,2.463,0.000
125371.000,121627.000,138967.100,128390.900,121872.400,132183.500,128626.800,123753.700,-0.125,0.917,-0.370,1.648,7.355,-0.061,66.667,484.000,1.000,0.004,0.000
125370.200,121592.200,138957.800,128385.600,121861.800,132174.000,128623.300,123749.000,-0.122,0.919,-0.367,1.556,7.385,0.031,66.667,485.000,1.000,1.948,0.000
125379.400,121620.600,138965.500,128395.700,121870.100,132183.400,128641.100,123763.800,-0.123,0.920,-0.367,1.465,7.416,0.031,66.667,486.000,1.000,2.507,0.000
125390.900,121644.400,138974.700,128408.000,121880.800,132194.800,128652.000,123772.300,-0.123,0.919,-0.364,1.465,7.477,0.122,66.667,487.000,1.000,14.243,0.000
125391.800,121638.000,138973.900,128403.100,121880.500,132197.000,128642.900,123764.700,-0.124,0.919,-0.369,1.343,7.385,0.153,66.667,488.000,1.000,0.011,0.000
125381.800,121622.500,138961.300,128388.900,121866.800,132183.400,128623.500,123751.100,-0.123,0.922,-0.369,1.282,7.507,0.061,66.667,489.000,1.000,1.932,0.000
125376.100,121628.600,138954.300,128382.000,121857.400,132180.500,128619.200,123743.400,-0.122,0.924,-0.373,1.221,7.507,-0.092,66.667,490.000,1.000,2.554,0.000
125378.200,121648.300,138957.900,128374.800,121859.300,132183.100,128628.800,123746.200,-0.122,0.927,-0.369,1.099,7.507,-0.183,66.667,491.000,1.000,2.490,0.000
125381.600,121626.300,138961.600,128384.800,121864.500,132181.800,128633.700,123752.600,-0.121,0.929,-0.368,1.007,7.538,-0.183,66.667,492.000,1.000,8.773,0.000
125389.200,121632.000,138969.700,128393.600,121872.200,132194.600,128630.500,123756.900,-0.124,0.930,-0.369,0.885,7.599,-0.122,66.667,493.000,1.000,2.429,0.000
125395.900,121626.800,138973.100,128405.500,121871.900,132187.000,128621.800,123759.200,-0.123,0.929,-0.368,0.732,7.385,-0.275,66.667,494.000,1.000,3.134,0.000
125392.700,121622.900,138967.800,128390.500,121864.200,132177.000,128621.000,123750.500,-0.125,0.928,-0.370,0.702,7.263,-0.214,66.667,495.000,1.000,0.014,0.000
125392.500,121621.000,138965.500,128387.400,121862.900,132175.800,128631.800,123754.300,-0.124,0.929,-0.370,0.458,7.233,-0.244,66.667,496.000,1.000,1.834,0.000
125387.000,121618.400,138957.900,128381.800,121854.300,132170.300,128625.500,123744.700,-0.127,0.928,-0.372,0.214,7.141,-0.275,66.667,497.000,1.000,9.365,0.000
125394.200,121621.300,138961.300,128389.900,121854.100,132170.300,128618.000,123740.500,-0.127,0.929,-0.366,0.031,7.019,-0.397,66.667,498.000,1.000,0.015,0.000
125398.500,121637.200,138965.300,128389.600,121854.500,132169.700,128609.400,123737.600,-0.129,0.928,-0.371,-0.153,6.714,-0.427,66.667,499.000,1.000,2.473,0.000
125395.500,121625.800,138962.800,128385.700,121851.100,132167.100,128612.800,123737.300,-0.128,0.927,-0.373,-0.336,6.470,-0.458,66.667,500.000,1.000,0.007,0.000
125381.100,121612.200,138949.900,128373.900,121837.900,132156.800,128610.200,123723.400,-0.130,0.928,-0.371,-0.519,6.256,-0.610,66.667,501.000,1.000,13.130,0.000
125376.800,121613.500,138949.000,128372.600,121839.000,132155.400,128608.300,123719.700,-0.128,0.929,-0.370,-0.641,6.042,-0.702,66.667,502.000,1.000,2.542,0.000
125383.100,121627.100,138959.200,128383.100,121851.300,132169.100,128607.600,123723.800,-0.128,0.930,-0.373,-0.824,5.890,-0.671,66.667,503.000,1.000,2.482,0.000
125387.300,121645.100,138966.300,128385.900,121859.800,132181.600,128610.200,123732.000,-0.126,0.930,-0.374,-0.885,5.646,-0.824,66.667,504.000,1.000,2.535,0.000
125399.500,121653.800,138980.400,128410.300,121874.100,132195.500,128630.800,123752.000,-0.127,0.930,-0.375,-1.068,5.432,-0.885,66.667,505.000,1.000,2.427,0.000
125382.100,121620.200,138961.200,128394.400,121857.200,132168.000,128624.500,123744.500,-0.128,0.929,-0.376,-1.373,5.249,-0.977,66.667,506.000,1.000,9.389,0.000
125373.500,121603.000,138949.900,128376.000,121849.500,132166.900,128617.800,123736.000,-0.128,0.928,-0.375,-1.495,4.974,-1.038,66.667,507.000,1.000,0.016,0.000
125388.000,121636.700,138966.800,128393.400,121866.000,132188.100,128623.200,123746.600,-0.129,0.927,-0.373,-1.648,4.608,-1.099,66.667,508.000,1.000,1.845,0.000
125388.900,121635.400,138965.500,128393.000,121863.100,132180.100,128612.900,123744.400,-0.130,0.925,-0.372,-1.892,4.364,-1.221,66.667,509.000,1.000,8.808,0.000
125381.900,121618.600,138959.400,128390.100,121858.400,132174.200,128614.400,123742.500,-0.129,0.925,-0.373,-2.045,4.120,-1.282,66.667,510.000,1.000,2.989,0.000
125379.500,121620.400,138957.300,128387.200,121858.100,132178.200,128626.500,123744.400,-0.130,0.925,-0.374,-2.197,3.693,-1.282,66.667,511.000,1.000,0.010,0.000
125382.700,121622.000,138957.900,128385.500,121858.900,132177.800,128627.900,123745.800,-0.131,0.924,-0.376,-2.350,3.326,-1.312,66.667,512.000,1.000,1.909,0.000
125391.900,121637.000,138964.700,128390.800,121864.000,132177.000,128618.900,123744.800,-0.130,0.924,-0.376,-2.533,3.021,-1.465,66.667,513.000,1.000,14.292,0.000
125398.900,121630.300,138971.400,128401.800,121870.800,132180.600,128618.900,123750.900,-0.130,0.925,-0.373,-2.808,2.747,-1.556,66.667,514.000,1.000,0.009,0.000
125398.000,121633.400,138972.100,128396.900,121871.200,132181.400,128632.400,123754.500,-0.130,0.923,-0.371,-2.869,2.380,-1.526,66.667,515.000,1.000,1.867,0.000
125394.500,121639.900,138967.300,128390.000,121865.800,132174.500,128633.800,123749.800,-0.131,0.924,-0.371,-2.960,2.136,-1.526,66.667,516.000,1.000,2.612,0.000
125393.600,121622.900,138962.000,128388.300,121859.800,132166.200,128629.200,123747.400,-0.133,0.925,-0.370,-2.991,2.014,-1.526,66.667,517.000,1.000,3.650,0.000
125401.200,121622.400,138965.000,128391.000,121857.300,132166.600,128619.300,123744.100,-0.133,0.925,-0.367,-3.113,1.495,-1.617,66.667,518.000,1.000,11.836,0.000
125410.100,121634.400,138974.900,128400.000,121863.800,132172.000,128616.400,123748.500,-0.131,0.928,-0.369,-3.296,1.282,-1.556,66.667,519.000,1.000,0.016,0.000
125406.800,121638.600,138975.400,128398.100,121865.600,132177.400,128628.600,123752.900,-0.130,0.927,-0.370,-3.479,1.068,-1.465,66.667,520.000,1.000,4.518,0.000
125385.500,121622.300,138957.000,128372.700,121851.900,132169.500,128627.400,123742.900,-0.129,0.927,-0.370,-3.510,0.671,-1.343,66.667,521.000,1.000,2.367,0.000
125381.900,121625.300,138954.800,128372.400,121852.900,132176.100,128628.400,123742.200,-0.128,0.924,-0.368,-3.754,0.427,-1.282,66.667,522.000,1.000,3.177,0.000
125391.400,121644.600,138964.800,128384.000,121864.300,132191.400,128628.800,123747.200,-0.127,0.925,-0.367,-3.876,0.305,-1.190,66.667,523.000,1.000,0.009,0.000
125395.400,121638.700,138968.000,128395.100,121869.400,132193.600,128627.200,123752.400,-0.126,0.924,-0.364,-3.876,0.122,-1.099,66.667,524.000,1.000,8.149,0.000
125396.200,121617.800,138965.400,128402.500,121866.700,132186.500,128630.500,123755.800,-0.126,0.922,-0.370,-3.876,-0.092,-1.038,66.667,525.000,1.000,4.337,0.000
125385.700,121612.600,138953.800,128388.300,121860.000,132180.900,128633.700,123752.100,-0.124,0.919,-0.368,-3.845,-0.244,-0.854,66.667,526.000,1.000,0.010,0.000
125391.400,121621.300,138956.200,128392.500,121863.800,132182.300,128634.900,123755.400,-0.123,0.918,-0.367,-3.815,-0.427,-0.854,66.667,527.000,1.000,10.655,0.000
125393.100,121632.500,138957.700,128386.500,121863.300,132185.500,128623.700,123749.900,-0.122,0.919,-0.368,-3.693,-0.427,-0.824,66.667,528.000,1.000,3.056,0.000
125401.000,121631.500,138965.900,128393.200,121870.700,132190.500,128621.300,123760.100,-0.120,0.917,-0.365,-3.571,-0.549,-0.519,66.667,529.000,1.000,0.010,0.000
125403.800,121637.400,138971.500,128400.900,121874.000,132192.100,128633.000,123764.300,-0.116,0.915,-0.369,-3.387,-0.610,-0.488,66.667,530.000,1.000,3.233,0.000
125377.400,121616.800,138951.500,128375.700,121856.500,132180.000,128632.000,123751.500,-0.114,0.916,-0.370,-3.204,-0.671,-0.397,66.667,531.000,1.000,9.189,0.000
125363.700,121611.000,138943.600,128368.800,121849.500,132172.400,128627.800,123747.400,-0.113,0.915,-0.368,-3.082,-0.641,-0.244,66.667,532.000,1.000,0.019,0.000
125362.700,121613.900,138947.700,128372.900,121851.100,132168.400,128617.700,123745.500,-0.113,0.914,-0.371,-2.930,-0.519,-0.153,66.667,533.000,1.000,1.973,0.000
125370.900,121630.500,138958.100,128383.000,121857.300,132172.700,128612.000,123746.800,-0.115,0.914,-0.370,-2.899,-0.366,0.031,66.667,534.000,1.000,14.929,0.000
125374.300,121635.900,138964.300,128394.100,121862.900,132180.200,128624.800,123754.800,-0.114,0.913,-0.368,-2.838,-0.336,0.122,66.667,535.000,1.000,3.737,0.000
125366.600,121609.400,138951.700,128374.400,121850.200,132163.000,128626.000,123749.800,-0.114,0.914,-0.370,-2.777,-0.214,0.214,66.667,536.000,1.000,0.010,0.000
125357.800,121591.300,138939.000,128364.200,121836.100,132145.200,128614.700,123741.300,-0.115,0.915,-0.373,-2.563,-0.122,0.061,66.667,537.000,1.000,0.003,0.000
125365.500,121608.800,138944.700,128368.600,121839.400,132151.100,128605.600,123739.500,-0.114,0.917,-0.374,-2.472,0.000,0.122,66.667,538.000,1.000,2.543,0.000
125383.300,121633.200,138960.400,128383.000,121853.000,132163.500,128610.200,123744.400,-0.114,0.921,-0.371,-2.350,0.000,-0.092,66.667,539.000,1.000,6.267,0.000
125374.400,121609.900,138950.000,128378.100,121844.100,132150.500,128608.300,123740.200,-0.112,0.923,-0.371,-2.258,-0.031,-0.153,66.667,540.000,1.000,9.413,0.000
125363.000,121599.100,138941.000,128373.000,121838.400,132145.000,128614.300,123739.100,-0.112,0.922,-0.375,-2.258,0.153,-0.092,66.667,541.000,1.000,0.010,0.000
125360.800,121603.100,138939.400,128358.200,121835.800,132143.700,128606.800,123729.300,-0.108,0.922,-0.375,-2.167,0.214,-0.244,66.667,542.000,1.000,8.672,0.000
125373.400,121620.300,138953.700,128368.800,121847.800,132155.900,128603.100,123727.600,-0.107,0.922,-0.372,-2.167,0.458,-0.244,66.667,543.000,1.000,0.010,0.000
125382.200,121630.800,138966.500,128385.600,121860.900,132169.800,128606.000,123732.600,-0.110,0.924,-0.373,-2.136,0.549,-0.244,66.667,544.000,1.000,2.471,0.000
125371.800,121618.000,138957.100,128377.900,121854.000,132160.000,128604.100,123729.800,-0.110,0.924,-0.376,-2.106,0.702,-0.366,66.667,545.000,1.000,0.008,0.000
125371.200,121626.200,138957.700,128375.300,121854.700,132160.800,128614.300,123734.800,-0.112,0.921,-0.374,-2.106,0.854,-0.519,66.667,546.000,1.000,10.643,0.000
125384.600,121630.400,138971.100,128397.200,121867.900,132176.200,128627.300,123752.000,-0.108,0.918,-0.376,-1.923,1.068,-0.641,66.667,547.000,1.000,4.397,0.000
125390.100,121650.000,138977.200,128398.500,121872.900,132185.700,128621.900,123756.000,-0.109,0.913,-0.376,-1.892,1.282,-0.732,66.667,548.000,1.000,0.009,0.000
125386.500,121626.800,138968.500,128398.200,121864.900,132178.300,128609.400,123753.200,-0.109,0.911,-0.372,-1.770,1.465,-0.824,66.667,549.000,1.000,13.488,0.000
125369.100,121589.200,138942.800,128363.200,121841.000,132155.900,128598.800,123736.000,-0.111,0.912,-0.373,-1.648,1.495,-1.038,66.667,550.000,1.000,0.013,0.000
125370.100,121605.100,138942.700,128365.700,121839.400,132157.500,128608.300,123741.400,-0.115,0.915,-0.371,-1.587,1.648,-1.190,66.667,551.000,1.000,7.747,0.000
125372.900,121599.800,138941.500,128366.900,121836.300,132155.400,128606.000,123741.000,-0.120,0.918,-0.370,-1.526,1.709,-1.343,66.667,552.000,1.000,0.023,0.000
125384.000,121610.600,138950.400,128373.300,121842.700,132159.900,128604.800,123742.000,-0.124,0.919,-0.371,-1.526,1.709,-1.526,66.667,553.000,1.000,1.850,0.000
125394.400,121618.000,138958.000,128379.000,121846.000,132159.400,128598.000,123739.400,-0.126,0.922,-0.370,-1.465,1.678,-1.678,66.667,554.000,1.000,9.257,0.000
125395.300,121617.900,138959.500,128383.600,121846.900,132158.100,128605.300,123741.600,-0.128,0.924,-0.370,-1.373,1.556,-1.923,66.667,555.000,1.000,0.012,0.000
125389.400,121621.600,138958.000,128379.800,121847.800,132160.400,128617.800,123746.100,-0.125,0.926,-0.368,-1.526,1.526,-1.953,66.667,556.000,1.000,9.295,0.000
125396.200,121627.100,138965.300,128387.700,121855.400,132168.000,128623.700,123751.700,-0.124,0.927,-0.368,-1.648,1.465,-1.984,66.667,557.000,1.000,0.008,0.000
125410.400,121648.800,138983.600,128403.900,121872.400,132178.200,128627.900,123762.800,-0.124,0.929,-0.366,-1.648,1.465,-1.953,66.667,558.000,1.000,0.004,0.000
125409.400,121638.600,138984.500,128406.800,121877.600,132183.200,128627.600,123764.100,-0.123,0.930,-0.370,-1.801,1.343,-1.923,66.667,559.000,1.000,3.198,0.000
125400.300,121632.900,138968.300,128385.100,121864.900,132176.400,128623.100,123754.600,-0.126,0.931,-0.374,-1.892,1.282,-1.892,66.667,560.000,1.000,0.016,0.000
125380.300,121626.800,138950.000,128367.700,121853.100,132173.000,128623.300,123745.200,-0.128,0.930,-0.369,-2.106,1.221,-1.831,66.667,561.000,1.000,10.645,0.000
125379.800,121622.200,138950.700,128372.200,121855.700,132175.300,128624.000,123745.700,-0.131,0.932,-0.369,-2.167,1.282,-1.709,66.667,562.000,1.000,3.099,0.000
125387.800,121638.100,138959.500,128380.000,121864.200,132183.600,128618.000,123744.400,-0.131,0.930,-0.368,-2.441,1.190,-1.587,66.667,563.000,1.000,0.014,0.000
125390.000,121639.400,138963.000,128382.400,121865.500,132186.200,128612.700,123741.600,-0.130,0.929,-0.369,-2.594,1.099,-1.587,66.667,564.000,1.000,1.954,0.000
125390.400,121642.900,138965.100,128386.900,121866.300,132188.100,128623.200,123750.800,-0.128,0.929,-0.371,-2.625,1.038,-1.617,66.667,565.000,1.000,8.750,0.000
125382.100,121647.000,138958.400,128380.600,121858.800,132186.200,128630.800,123752.600,-0.128,0.928,-0.368,-2.777,0.916,-1.526,66.667,566.000,1.000,2.461,0.000
125384.400,121639.800,138959.900,128385.100,121858.900,132191.400,128631.400,123755.000,-0.129,0.927,-0.369,-2.960,0.854,-1.343,66.667,567.000,1.000,3.676,0.000
125390.100,121624.400,138961.600,128387.600,121855.900,132177.900,128616.400,123748.500,-0.128,0.925,-0.367,-3.204,0.732,-1.312,66.667,568.000,1.000,9.340,0.000
125390.300,121626.400,138964.800,128387.400,121861.600,132184.200,128614.000,123752.100,-0.130,0.923,-0.365,-3.387,0.610,-1.190,66.667,569.000,1.000,0.008,0.000
125378.400,121616.300,138952.700,128373.600,121851.800,132174.700,128614.300,123749.000,-0.131,0.921,-0.363,-3.510,0.549,-1.038,66.667,570.000,1.000,4.387,0.000
125374.400,121619.800,138951.700,128370.600,121850.500,132177.400,128624.800,123749.800,-0.133,0.919,-0.365,-3.571,0.397,-0.885,66.667,571.000,1.000,2.477,0.000
125377.600,121621.800,138954.500,128373.900,121856.100,132183.600,128629.600,123753.600,-0.133,0.920,-0.370,-3.815,0.214,-0.824,66.667,572.000,1.000,3.814,0.000
125388.400,121633.600,138965.500,128389.300,121868.800,132193.700,128629.800,123763.900,-0.135,0.920,-0.370,-3.967,0.061,-0.763,66.667,573.000,1.000,8.700,0.000
125385.700,121634.200,138965.200,128384.900,121869.000,132195.500,128624.300,123759.600,-0.135,0.919,-0.368,-4.089,-0.122,-0.732,66.667,574.000,1.000,3.124,0.000
125385.100,121640.300,138968.900,128388.800,121873.300,132199.000,128633.900,123766.400,-0.135,0.916,-0.370,-4.059,-0.275,-0.671,66.667,575.000,1.000,0.011,0.000
125374.300,121630.000,138960.900,128383.400,121864.700,132187.900,128632.700,123760.600,-0.135,0.915,-0.371,-4.150,-0.427,-0.763,66.667,576.000,1.000,5.642,0.000
125382.900,121627.800,138966.900,128392.200,121867.400,132186.300,128631.300,123760.100,-0.133,0.914,-0.373,-4.150,-0.366,-0.854,66.667,577.000,1.000,9.149,0.000
125388.800,121635.300,138969.400,128385.100,121865.700,132182.700,128618.100,123752.500,-0.131,0.914,-0.370,-4.181,-0.641,-0.763,66.667,578.000,1.000,0.007,0.000
125395.700,121636.800,138973.700,128391.000,121865.900,132180.200,128613.400,123750.400,-0.128,0.915,-0.371,-4.211,-0.793,-0.763,66.667,579.000,1.000,6.368,0.000
125400.300,121630.200,138973.800,128397.400,121864.400,132177.100,128620.500,123754.200,-0.127,0.914,-0.370,-4.242,-0.885,-0.702,66.667,580.000,1.000,0.008,0.000
125390.400,121615.300,138961.500,128382.900,121854.700,132165.900,128621.900,123749.900,-0.125,0.917,-0.371,-4.150,-0.854,-0.610,66.667,581.000,1.000,1.973,0.000
125391.100,121616.700,138959.500,128381.800,121854.000,132165.500,128617.200,123745.800,-0.124,0.917,-0.370,-4.242,-0.916,-0.641,66.667,582.000,1.000,3.696,0.000
125392.000,121623.700,138960.200,128383.600,121857.200,132167.300,128611.800,123745.300,-0.124,0.917,-0.368,-4.364,-0.793,-0.397,66.667,583.000,1.000,8.822,0.000
125403.900,121633.200,138969.400,128389.000,121867.900,132174.900,128614.500,123752.700,-0.122,0.920,-0.372,-4.456,-0.793,-0.427,66.667,584.000,1.000,4.326,0.000
125401.500,121631.900,138967.200,128389.300,121867.400,132175.200,128621.400,123753.800,-0.120,0.921,-0.372,-4.456,-0.671,-0.427,66.667,585.000,1.000,0.011,0.000
125399.900,121631.400,138967.800,128390.900,121871.600,132181.900,128639.300,123762.800,-0.122,0.920,-0.373,-4.456,-0.610,-0.305,66.667,586.000,1.000,8.667,0.000
125405.400,121637.600,138973.500,128395.000,121877.500,132186.300,128639.500,123764.800,-0.124,0.920,-0.374,-4.608,-0.641,-0.305,66.667,587.000,1.000,0.012,0.000
125408.000,121641.300,138974.100,128391.700,121875.900,132183.400,128627.800,123758.100,-0.121,0.921,-0.374,-4.700,-0.458,-0.275,66.667,588.000,1.000,1.989,0.000
125423.300,121658.700,138983.900,128401.400,121883.400,132195.200,128631.900,123763.900,-0.115,0.917,-0.376,-4.730,-0.305,-0.183,66.667,589.000,1.000,3.697,0.000
125427.400,121654.200,138981.500,128401.500,121880.000,132198.900,128638.900,123766.400,-0.115,0.915,-0.379,-4.791,-0.244,-0.275,66.667,590.000,1.000,14.390,0.000
125422.400,121650.700,138974.800,128392.800,121872.500,132198.800,128639.500,123763.800,-0.113,0.913,-0.377,-4.883,-0.061,-0.275,66.667,591.000,1.000,0.019,0.000
125423.500,121635.200,138972.300,128392.700,121868.600,132198.100,128634.400,123757.900,-0.112,0.914,-0.381,-4.761,0.214,-0.275,66.667,592.000,1.000,1.936,0.000
125433.300,121646.900,138982.400,128408.400,121875.300,132202.400,128629.700,123762.100,-0.107,0.916,-0.385,-4.669,0.427,-0.336,66.667,593.000,1.000,2.407,0.000
125437.700,121658.900,138984.600,128406.000,121877.700,132212.700,128628.200,123758.800,-0.097,0.919,-0.385,-4.639,0.732,-0.336,66.667,594.000,1.000,2.484,0.000
125429.100,121645.400,138975.100,128399.700,121869.700,132204.400,128632.100,123758.100,-0.092,0.921,-0.383,-4.608,1.221,-0.214,66.667,595.000,1.000,8.777,0.000
125420.600,121640.600,138968.500,128388.500,121866.300,132201.500,128641.500,123762.300,-0.088,0.922,-0.381,-4.669,1.801,-0.244,66.667,596.000,1.000,3.048,0.000
125417.300,121643.500,138967.900,128388.800,121865.400,132200.400,128640.900,123763.900,-0.091,0.926,-0.383,-4.730,2.350,-0.153,66.667,597.000,1.000,0.026,0.000
125419.000,121647.400,138971.500,128393.300,121869.100,132201.000,128635.500,123766.900,-0.093,0.929,-0.387,-4.913,2.960,-0.122,66.667,598.000,1.000,1.883,0.000
125428.600,121653.000,138982.100,128404.100,121877.200,132204.000,128637.300,123769.300,-0.095,0.933,-0.390,-5.188,3.418,-0.153,66.667,599.000,1.000,8.744,0.000
125418.200,121636.500,138968.000,128391.500,121862.700,132189.700,128633.000,123760.100,-0.098,0.937,-0.395,-5.341,3.967,-0.366,66.667,600.000,1.000,4.340,0.000
125407.500,121629.900,138957.100,128383.300,121850.900,132176.800,128631.100,123751.200,-0.103,0.937,-0.399,-5.615,4.486,-0.763,66.667,601.000,1.000,0.010,0.000
125405.800,121637.700,138957.500,128374.400,121851.500,132175.500,128623.100,123741.400,-0.113,0.933,-0.401,-5.829,4.791,-1.434,66.667,602.000,1.000,8.183,0.000
125417.000,121635.700,138967.200,128389.100,121861.600,132180.100,128619.600,123748.900,-0.125,0.931,-0.405,-6.012,5.096,-2.136,66.667,603.000,1.000,2.507,0.000
125422.600,121640.500,138972.300,128397.800,121866.500,132181.600,128619.100,123750.900,-0.138,0.927,-0.410,-6.073,5.188,-3.143,66.667,604.000,1.000,3.706,0.000
125417.100,121645.100,138971.800,128389.000,121867.100,132183.000,128625.400,123748.300,-0.146,0.924,-0.416,-5.951,5.188,-4.181,66.667,605.000,1.000,12.561,0.000
125416.200,121649.100,138970.900,128384.000,121863.000,132171.100,128627.300,123744.700,-0.146,0.920,-0.420,-5.798,5.035,-5.219,66.667,606.000,1.000,4.813,0.000
125412.200,121644.600,138971.200,128385.800,121863.900,132174.500,128624.200,123743.300,-0.139,0.916,-0.423,-5.524,4.913,-6.195,66.667,607.000,1.000,0.010,0.000
125412.000,121639.500,138974.400,128390.800,121869.300,132177.600,128620.300,123745.800,-0.124,0.912,-0.428,-5.371,5.005,-6.775,66.667,608.000,1.000,0.005,0.000
125409.700,121645.800,138973.200,128383.300,121871.700,132181.300,128615.300,123744.500,-0.115,0.908,-0.431,-4.913,5.157,-7.080,66.667,609.000,1.000,2.645,0.000
125398.500,121632.800,138963.800,128374.200,121863.900,132173.200,128615.200,123741.100,-0.108,0.906,-0.438,-4.547,5.524,-7.050,66.667,610.000,1.000,2.441,0.000
125394.100,121627.100,138958.900,128377.300,121859.700,132168.600,128617.800,123742.900,-0.104,0.905,-0.445,-4.242,5.951,-6.805,66.667,611.000,1.000,3.775,0.000
125398.600,121647.000,138964.600,128383.100,121864.300,132181.800,128620.700,123749.000,-0.110,0.911,-0.448,-3.845,6.470,-6.470,66.667,612.000,1.000,8.760,0.000
125407.400,121662.300,138976.700,128388.000,121875.200,132202.000,128625.100,123756.200,-0.113,0.916,-0.443,-3.540,6.744,-5.981,66.667,613.000,1.000,3.072,0.000
125405.500,121644.800,138979.000,128396.900,121878.500,132207.600,128627.300,123761.600,-0.119,0.917,-0.435,-3.296,7.141,-5.615,66.667,614.000,1.000,0.009,0.000
125401.300,121653.000,138981.200,128406.200,121883.400,132217.500,128641.800,123773.800,-0.127,0.914,-0.435,-3.052,7.416,-5.157,66.667,615.000,1.000,1.909,0.000
125392.900,121651.200,138975.300,128405.100,121879.900,132212.600,128649.000,123777.700,-0.136,0.914,-0.432,-3.052,7.568,-4.730,66.667,616.000,1.000,13.732,0.000
125380.400,121636.100,138963.800,128383.500,121869.200,132201.300,128635.800,123765.500,-0.145,0.913,-0.431,-3.021,7.538,-4.364,66.667,617.000,1.000,3.097,0.000
125378.900,121639.200,138961.800,128369.900,121865.800,132201.200,128624.200,123756.300,-0.154,0.920,-0.429,-2.960,7.385,-4.059,66.667,618.000,1.000,0.013,0.000
125382.800,121641.100,138964.800,128377.200,121866.900,132204.100,128620.800,123754.400,-0.162,0.927,-0.425,-2.869,7.080,-3.937,66.667,619.000,1.000,1.896,0.000
125384.400,121638.800,138963.800,128380.700,121862.400,132192.100,128621.500,123754.300,-0.171,0.931,-0.417,-2.960,6.500,-3.845,66.667,620.000,1.000,3.696,0.000
125383.600,121645.000,138960.500,128376.700,121856.600,132182.700,128624.300,123748.600,-0.179,0.936,-0.413,-3.235,5.920,-3.815,66.667,621.000,1.000,8.880,0.000
125383.300,121634.700,138956.800,128372.500,121850.500,132172.400,128613.600,123735.600,-0.184,0.939,-0.410,-3.448,5.219,-3.937,66.667,622.000,1.000,2.916,0.000
125397.300,121635.800,138969.800,128389.200,121863.800,132180.900,128617.700,123739.900,-0.186,0.939,-0.409,-3.845,4.364,-3.906,66.667,623.000,1.000,0.010,0.000
125414.300,121661.100,138984.700,128399.700,121878.500,132192.800,128624.400,123747.400,-0.181,0.937,-0.405,-4.303,3.601,-3.998,66.667,624.000,1.000,1.972,0.000
125414.400,121657.700,138983.300,128395.800,121880.000,132193.000,128638.000,123754.500,-0.176,0.932,-0.404,-4.852,2.808,-3.937,66.667,625.000,1.000,10.030,0.000
125395.300,121632.900,138966.400,128383.200,121864.700,132178.800,128633.700,123746.000,-0.171,0.928,-0.397,-5.188,2.228,-3.967,66.667,626.000,1.000,3.009,0.000
125393.100,121635.000,138966.000,128379.800,121862.600,132169.300,128617.200,123737.700,-0.165,0.920,-0.395,-5.554,1.648,-3.876,66.667,627.000,1.000,0.006,0.000
125392.000,121633.200,138965.500,128378.200,121858.700,132154.900,128592.500,123726.600,-0.161,0.911,-0.393,-5.737,1.190,-3.845,66.667,628.000,1.000,1.944,0.000
125398.400,121638.400,138973.000,128393.800,121868.500,132160.400,128598.500,123737.400,-0.154,0.905,-0.388,-5.768,0.854,-3.784,66.667,629.000,1.000,11.323,0.000
125403.000,121639.900,138976.600,128398.100,121872.300,132161.700,128607.800,123743.700,-0.150,0.901,-0.384,-5.920,0.580,-3.601,66.667,630.000,1.000,3.030,0.000
125395.000,121628.500,138967.800,128382.000,121864.500,132156.900,128613.200,123744.000,-0.148,0.896,-0.382,-5.798,0.336,-3.296,66.667,631.000,1.000,0.009,0.000
125397.100,121637.200,138968.000,128385.000,121865.200,132161.200,128615.100,123745.300,-0.146,0.894,-0.377,-5.768,0.244,-3.174,66.667,632.000,1.000,10.697,0.000
125403.800,121643.800,138971.400,128383.900,121865.800,132168.000,128609.100,123743.000,-0.146,0.893,-0.375,-5.768,0.214,-2.960,66.667,633.000,1.000,3.035,0.000
125409.500,121632.000,138973.400,128393.400,121866.500,132171.800,128612.800,123748.500,-0.146,0.890,-0.371,-5.798,0.214,-2.777,66.667,634.000,1.000,0.009,0.000
125407.100,121637.800,138970.200,128391.100,121864.200,132176.300,128625.400,123755.200,-0.148,0.890,-0.370,-5.768,0.214,-2.594,66.667,635.000,1.000,1.887,0.000
125399.200,121635.000,138962.700,128368.000,121857.200,132174.000,128631.400,123753.100,-0.151,0.893,-0.371,-5.768,-0.031,-2.472,66.667,636.000,1.000,3.797,0.000
125397.200,121634.000,138963.000,128366.700,121858.400,132181.100,128631.700,123752.900,-0.154,0.896,-0.374,-5.829,-0.092,-2.167,66.667,637.000,1.000,32.562,0.000
125396.800,121624.700,138961.900,128372.600,121856.200,132181.800,128618.700,123748.900,-0.154,0.903,-0.371,-5.737,-0.427,-2.075,66.667,638.000,1.000,4.100,0.000
125395.900,121631.200,138963.000,128376.600,121856.400,132185.200,128614.600,123747.700,-0.154,0.911,-0.370,-5.737,-0.641,-2.014,66.667,639.000,1.000,0.008,0.000
125398.100,121640.300,138967.800,128380.000,121861.100,132188.700,128627.100,123756.400,-0.149,0.917,-0.365,-5.798,-0.763,-1.953,66.667,640.000,1.000,0.003,0.000
125390.500,121623.500,138958.800,128373.500,121854.000,132181.000,128629.800,123754.400,-0.146,0.924,-0.359,-6.012,-0.916,-1.984,66.667,641.000,1.000,0.003,0.000
125385.300,121616.400,138951.700,128369.500,121849.500,132173.000,128621.600,123748.100,-0.144,0.929,-0.356,-6.378,-1.068,-1.923,66.667,642.000,1.000,3.214,0.000
125395.700,121635.200,138962.000,128381.500,121857.600,132176.200,128616.900,123750.800,-0.145,0.935,-0.356,-6.897,-1.038,-1.740,66.667,643.000,1.000,0.004,0.000
125406.300,121636.100,138972.700,128395.400,121868.300,132185.700,128619.000,123755.600,-0.145,0.937,-0.353,-7.538,-1.068,-1.740,66.667,644.000,1.000,0.003,0.000
125395.600,121629.500,138965.800,128380.200,121864.900,132185.200,128628.800,123756.300,-0.143,0.938,-0.350,-8.087,-1.068,-1.648,66.667,645.000,1.000,3.115,0.000
125392.000,121632.700,138965.100,128379.600,121863.600,132183.400,128645.100,123764.800,-0.142,0.936,-0.350,-8.728,-1.129,-1.587,66.667,646.000,1.000,0.006,0.000
125392.400,121626.000,138963.300,128378.600,121861.000,132182.200,128640.200,123762.200,-0.143,0.935,-0.348,-9.399,-1.221,-1.434,66.667,647.000,1.000,1.921,0.000
125399.600,121635.600,138966.300,128378.100,121861.100,132180.500,128621.900,123750.900,-0.142,0.934,-0.345,-10.040,-1.221,-1.404,66.667,648.000,1.000,3.822,0.000
125403.200,121642.000,138969.100,128387.400,121863.600,132179.200,128619.500,123753.800,-0.142,0.931,-0.344,-10.559,-1.343,-1.251,66.667,649.000,1.000,11.254,0.000
125396.600,121631.300,138959.500,128374.100,121852.900,132169.100,128613.400,123740.100,-0.142,0.930,-0.344,-11.139,-1.312,-1.221,66.667,650.000,1.000,6.817,0.000
125382.200,121618.900,138948.400,128362.900,121843.900,132161.300,128614.700,123728.000,-0.139,0.928,-0.337,-11.688,-1.343,-1.160,66.667,651.000,1.000,0.022,0.000
125387.200,121632.100,138955.400,128369.000,121849.800,132164.900,128614.300,123729.100,-0.142,0.927,-0.333,-12.238,-1.404,-1.160,66.667,652.000,1.000,2.345,0.000
125393.600,121622.700,138963.000,128383.900,121857.000,132171.500,128613.900,123734.600,-0.141,0.927,-0.334,-12.543,-1.495,-0.916,66.667,653.000,1.000,0.006,0.000
125401.000,121642.900,138972.800,128389.100,121868.000,132187.200,128619.000,123737.600,-0.143,0.927,-0.331,-13.062,-1.526,-0.916,66.667,654.000,1.000,1.977,0.000
125386.400,121633.000,138963.000,128375.700,121863.700,132184.600,128623.900,123740.500,-0.140,0.927,-0.330,-13.580,-1.526,-0.732,66.667,655.000,1.000,11.232,0.000
125366.200,121616.600,138945.900,128360.900,121848.700,132167.900,128617.000,123734.300,-0.139,0.926,-0.328,-14.069,-1.495,-0.458,66.667,656.000,1.000,9.395,0.000
125358.400,121603.300,138935.000,128352.800,121839.300,132158.200,128605.500,123725.900,-0.137,0.924,-0.327,-14.465,-1.556,-0.336,66.667,657.000,1.000,0.012,0.000
125376.900,121626.400,138950.800,128371.400,121856.300,132179.700,128618.600,123742.800,-0.137,0.922,-0.324,-14.679,-1.556,-0.275,66.667,658.000,1.000,4.936,0.000
125398.800,121641.200,138971.600,128391.100,121874.800,132199.700,128633.300,123761.000,-0.135,0.920,-0.322,-14.862,-1.465,-0.214,66.667,659.000,1.000,0.011,0.000
125382.300,121628.000,138957.100,128374.000,121858.300,132180.100,128620.900,123748.000,-0.135,0.918,-0.320,-14.893,-1.343,0.061,66.667,660.000,1.000,1.963,0.000
125365.500,121615.200,138943.600,128361.300,121844.500,132170.600,128617.800,123742.300,-0.136,0.915,-0.319,-14.984,-1.343,0.275,66.667,661.000,1.000,2.421,0.000
125373.100,121631.100,138954.700,128367.100,121855.500,132185.400,128625.300,123750.300,-0.137,0.911,-0.317,-14.862,-1.312,0.427,66.667,662.000,1.000,3.825,0.000
125371.300,121624.700,138956.800,128361.000,121858.900,132188.800,128622.300,123750.800,-0.136,0.908,-0.314,-14.801,-1.221,0.610,66.667,663.000,1.000,19.333,0.000
125380.400,121630.900,138960.100,128365.300,121861.900,132192.200,128622.600,123752.600,-0.136,0.908,-0.313,-14.771,-1.190,0.763,66.667,664.000,1.000,0.014,0.000
125378.100,121628.000,138951.600,128353.000,121853.500,132185.200,128623.200,123749.100,-0.135,0.908,-0.313,-14.618,-1.160,1.038,66.667,665.000,1.000,1.920,0.000
125372.500,121603.100,138943.200,128350.300,121846.800,132178.300,128629.200,123749.000,-0.135,0.911,-0.314,-14.343,-1.068,1.373,66.667,666.000,1.000,2.439,0.000
125367.800,121602.400,138938.100,128345.300,121841.500,132170.300,128620.100,123738.500,-0.135,0.911,-0.319,-14.038,-0.854,1.526,66.667,667.000,1.000,5.011,0.000
125381.800,121613.400,138952.800,128363.800,121855.400,132180.300,128621.700,123747.500,-0.136,0.913,-0.316,-13.916,-0.763,1.740,66.667,668.000,1.000,2.475,0.000
125391.800,121624.300,138962.900,128375.200,121863.000,132183.400,128625.100,123755.400,-0.136,0.915,-0.319,-13.519,-0.732,1.892,66.667,669.000,1.000,5.023,0.000
125377.600,121609.500,138947.500,128362.700,121849.400,132170.400,128618.300,123742.100,-0.138,0.918,-0.321,-13.184,-0.702,1.953,66.667,670.000,1.000,2.484,0.000
125365.700,121598.700,138935.400,128349.300,121838.800,132160.000,128613.500,123733.500,-0.139,0.922,-0.322,-13.031,-0.488,2.106,66.667,671.000,1.000,4.997,0.000
125367.900,121607.900,138940.100,128356.500,121842.600,132167.300,128613.700,123734.000,-0.140,0.922,-0.322,-12.726,-0.366,2.167,66.667,672.000,1.000,3.033,0.000
125358.900,121598.700,138933.600,128352.100,121833.600,132155.300,128594.600,123721.200,-0.140,0.922,-0.322,-12.451,-0.244,2.289,66.667,673.000,1.000,0.010,0.000
125365.200,121608.300,138939.900,128357.300,121837.000,132157.100,128594.600,123724.400,-0.141,0.926,-0.322,-12.238,-0.183,2.289,66.667,674.000,1.000,1.940,0.000
125355.200,121596.200,138928.900,128352.000,121824.500,132145.400,128590.800,123715.800,-0.138,0.927,-0.318,-12.024,-0.214,2.228,66.667,675.000,1.000,6.160,0.000
125352.700,121598.500,138926.700,128355.500,121826.000,132149.900,128601.800,123718.100,-0.137,0.932,-0.320,-11.902,-0.183,2.289,66.667,676.000,1.000,9.401,0.000
125362.100,121606.400,138934.600,128361.700,121836.700,132158.500,128609.400,123724.400,-0.132,0.932,-0.320,-11.658,-0.092,2.441,66.667,677.000,1.000,0.017,0.000
125364.500,121608.500,138939.900,128362.600,121840.200,132161.800,128602.100,123720.800,-0.129,0.933,-0.322,-11.414,0.031,2.655,66.667,678.000,1.000,2.460,0.000
125372.200,121615.300,138952.000,128377.800,121850.900,132169.500,128608.200,123728.500,-0.124,0.934,-0.321,-11.383,0.122,2.808,66.667,679.000,1.000,0.007,0.000
125372.400,121620.400,138955.800,128383.000,121856.200,132175.400,128618.700,123740.000,-0.122,0.933,-0.320,-11.292,0.336,2.960,66.667,680.000,1.000,8.121,0.000
125369.500,121616.600,138952.200,128375.700,121851.500,132171.800,128623.400,123740.300,-0.121,0.932,-0.318,-11.353,0.519,3.174,66.667,681.000,1.000,2.519,0.000
125374.600,121622.800,138954.200,128383.900,121852.700,132174.100,128621.100,123739.500,-0.119,0.930,-0.318,-11.383,0.702,3.326,66.667,682.000,1.000,3.704,0.000
125376.900,121621.900,138953.700,128379.400,121853.800,132176.500,128613.600,123738.500,-0.120,0.930,-0.318,-11.414,0.824,3.540,66.667,683.000,1.000,7.580,0.000
125378.600,121627.100,138955.400,128382.700,121853.900,132179.200,128604.300,123736.000,-0.118,0.930,-0.318,-11.414,1.099,3.601,66.667,684.000,1.000,3.039,0.000
125374.100,121622.600,138953.300,128385.100,121851.000,132175.900,128605.300,123737.300,-0.118,0.931,-0.318,-11.353,1.343,3.571,66.667,685.000,1.000,0.006,0.000
125371.100,121619.500,138952.300,128384.000,121852.100,132177.500,128620.700,123746.600,-0.119,0.932,-0.319,-11.292,1.526,3.479,66.667,686.000,1.000,13.138,0.000
125375.800,121631.900,138958.400,128386.000,121856.100,132184.100,128616.300,123746.200,-0.115,0.932,-0.320,-11.292,1.617,3.479,66.667,687.000,1.000,3.066,0.000
125371.800,121614.900,138951.500,128378.400,121847.900,132170.500,128598.600,123736.900,-0.115,0.932,-0.324,-11.230,1.770,3.235,66.667,688.000,1.000,0.007,0.000
125376.800,121629.800,138958.500,128389.900,121855.300,132179.300,128602.300,123742.300,-0.114,0.934,-0.328,-11.230,1.953,3.021,66.667,689.000,1.000,1.870,0.000
125364.500,121624.000,138951.700,128381.900,121855.400,132187.200,128615.900,123744.900,-0.110,0.939,-0.330,-11.139,2.167,2.899,66.667,690.000,1.000,2.590,0.000
125350.700,121615.600,138943.200,128373.000,121852.200,132188.700,128628.700,123745.900,-0.111,0.947,-0.326,-11.169,2.289,2.747,66.667,691.000,1.000,6.290,0.000
125357.000,121617.900,138948.500,128381.500,121855.500,132190.000,128628.800,123745.300,-0.106,0.952,-0.329,-11.230,2.472,2.747,66.667,692.000,1.000,2.414,0.000
125361.600,121613.600,138949.800,128387.200,121850.600,132177.000,128605.100,123733.300,-0.103,0.959,-0.332,-11.261,2.655,2.533,66.667,693.000,1.000,6.294,0.000
125361.600,121615.900,138948.500,128378.000,121849.400,132175.600,128604.300,123729.700,-0.099,0.963,-0.333,-11.414,2.930,2.472,66.667,694.000,1.000,3.052,0.000
125355.200,121617.500,138941.800,128365.500,121845.000,132175.700,128615.300,123730.400,-0.098,0.963,-0.330,-11.536,3.265,2.289,66.667,695.000,1.000,0.006,0.000
125354.000,121610.500,138942.300,128372.200,121848.900,132178.900,128633.500,123739.900,-0.098,0.962,-0.332,-11.536,3.632,2.197,66.667,696.000,1.000,8.206,0.000
125354.800,121614.100,138944.100,128371.700,121852.100,132181.500,128629.900,123741.500,-0.101,0.959,-0.334,-11.536,3.937,2.045,66.667,697.000,1.000,2.490,0.000
125348.000,121604.000,138936.600,128362.600,121844.900,132174.300,128610.400,123731.800,-0.104,0.958,-0.331,-11.444,4.364,1.801,66.667,698.000,1.000,3.726,0.000
125348.900,121605.900,138935.800,128363.500,121843.700,132172.700,128604.100,123729.300,-0.110,0.955,-0.329,-11.414,4.578,1.831,66.667,699.000,1.000,11.838,0.000
125345.300,121604.000,138930.900,128359.700,121839.700,132168.200,128604.900,123727.900,-0.117,0.954,-0.323,-11.261,4.669,1.678,66.667,700.000,1.000,0.008,0.000
125343.600,121614.800,138931.400,128360.400,121839.700,132175.000,128611.400,123730.900,-0.121,0.952,-0.321,-11.108,4.608,1.526,66.667,701.000,1.000,1.924,0.000
125344.200,121607.900,138931.200,128361.600,121837.400,132177.500,128606.500,123729.600,-0.130,0.951,-0.319,-10.986,4.425,1.251,66.667,702.000,1.000,2.525,0.000
125354.800,121614.700,138940.500,128371.800,121841.400,132178.000,128597.800,123730.000,-0.139,0.948,-0.320,-10.895,4.059,0.946,66.667,703.000,1.000,8.656,0.000
125363.000,121621.500,138949.900,128378.200,121849.700,132184.000,128600.000,123736.200,-0.147,0.946,-0.320,-10.773,3.845,0.641,66.667,704.000,1.000,3.108,0.000
125365.300,121632.600,138954.500,128380.100,121855.100,132193.000,128612.900,123743.900,-0.153,0.944,-0.319,-10.590,3.357,0.458,66.667,705.000,1.000,0.008,0.000
125354.900,121602.300,138943.600,128381.500,121847.400,132178.600,128619.400,123743.600,-0.156,0.944,-0.317,-10.468,2.716,0.244,66.667,706.000,1.000,4.452,0.000
125363.100,121620.300,138951.400,128384.000,121855.700,132188.300,128626.300,123751.800,-0.156,0.943,-0.315,-10.162,2.228,0.031,66.667,707.000,1.000,3.761,0.000
125367.200,121625.300,138955.300,128386.300,121858.400,132190.200,128614.500,123747.100,-0.152,0.942,-0.319,-10.010,1.587,-0.122,66.667,708.000,1.000,14.311,0.000
125366.900,121621.100,138954.600,128387.600,121859.800,132191.100,128613.400,123745.200,-0.147,0.942,-0.321,-9.705,1.221,-0.275,66.667,709.000,1.000,0.013,0.000
125365.000,121619.200,138953.700,128392.600,121862.400,132188.600,128626.900,123751.300,-0.141,0.941,-0.325,-9.460,0.763,-0.244,66.667,710.000,1.000,1.874,0.000
125358.700,121615.800,138946.100,128387.400,121856.100,132185.500,128626.300,123743.400,-0.135,0.936,-0.325,-9.125,0.427,-0.122,66.667,711.000,1.000,2.464,0.000
125348.100,121603.000,138933.800,128369.400,121845.200,132177.600,128612.900,123729.500,-0.130,0.932,-0.321,-8.728,0.275,0.000,66.667,712.000,1.000,2.498,0.000
125354.100,121610.300,138942.600,128381.200,121854.600,132187.400,128614.800,123738.600,-0.127,0.924,-0.325,-8.179,0.153,0.214,66.667,713.000,1.000,2.556,0.000
125354.700,121617.500,138945.100,128383.600,121856.100,132183.700,128610.200,123738.000,-0.123,0.918,-0.328,-7.721,0.214,0.641,66.667,714.000,1.000,3.688,0.000
125346.200,121602.300,138935.600,128380.400,121846.000,132168.500,128601.600,123733.100,-0.118,0.911,-0.329,-7.141,0.305,1.068,66.667,715.000,1.000,16.938,0.000
125344.300,121595.900,138931.600,128373.400,121842.800,132166.000,128606.500,123730.100,-0.116,0.908,-0.330,-6.439,0.427,1.160,66.667,716.000,1.000,0.017,0.000
125345.900,121602.200,138932.300,128359.000,121843.500,132169.500,128605.300,123726.100,-0.114,0.910,-0.329,-5.798,0.610,1.373,66.667,717.000,1.000,4.924,0.000
125352.000,121610.700,138937.300,128358.800,121846.900,132176.300,128602.900,123724.900,-0.113,0.914,-0.324,-5.219,0.793,1.709,66.667,718.000,1.000,0.009,0.000
125362.500,121622.700,138945.700,128367.200,121853.800,132180.900,128608.400,123731.000,-0.116,0.918,-0.323,-4.852,0.824,1.984,66.667,719.000,1.000,2.437,0.000
125355.100,121601.200,138938.100,128366.200,121848.600,132174.900,128615.400,123733.600,-0.117,0.921,-0.319,-4.517,1.038,1.923,66.667,720.000,1.000,0.011,0.000
125344.500,121596.800,138930.700,128358.300,121841.000,132163.500,128613.900,123731.100,-0.116,0.926,-0.317,-4.242,1.099,1.770,66.667,721.000,1.000,4.476,0.000
125341.800,121605.100,138932.800,128354.500,121841.800,132165.800,128606.900,123726.600,-0.115,0.931,-0.315,-4.089,1.007,1.648,66.667,722.000,1.000,3.747,0.000
125358.500,121623.400,138951.000,128374.500,121857.600,132179.200,128613.600,123739.600,-0.114,0.936,-0.313,-3.876,1.007,1.465,66.667,723.000,1.000,6.191,0.000
125371.800,121621.000,138964.600,128391.800,121870.100,132190.800,128626.400,123753.600,-0.118,0.946,-0.309,-3.906,1.038,1.221,66.667,724.000,1.000,9.412,0.000
125364.000,121619.900,138957.600,128386.300,121862.800,132189.900,128625.400,123749.500,-0.118,0.957,-0.300,-4.059,0.977,0.977,66.667,725.000,1.000,0.015,0.000
125351.600,121609.700,138942.400,128369.900,121847.800,132175.300,128620.200,123739.400,-0.120,0.965,-0.300,-4.395,0.854,0.610,66.667,726.000,1.000,19.426,0.000
125361.500,121619.600,138950.800,128381.300,121857.000,132183.900,128626.700,123749.500,-0.120,0.968,-0.298,-4.913,0.732,0.153,66.667,727.000,1.000,0.027,0.000
125370.100,121625.300,138955.300,128384.500,121860.200,132186.300,128621.900,123748.100,-0.123,0.970,-0.295,-5.524,0.610,-0.336,66.667,728.000,1.000,0.011,0.000
125376.400,121643.300,138960.400,128385.700,121862.700,132188.100,128623.400,123750.400,-0.123,0.973,-0.299,-6.073,0.488,-0.671,66.667,729.000,1.000,7.441,0.000
125359.200,121605.700,138942.200,128366.300,121845.600,132170.400,128610.200,123736.900,-0.125,0.973,-0.297,-6.561,0.305,-1.007,66.667,730.000,1.000,8.600,0.000
125354.700,121599.700,138938.300,128363.800,121842.300,132167.900,128613.100,123736.200,-0.128,0.970,-0.301,-7.141,0.092,-1.526,66.667,731.000,1.000,0.019,0.000
125357.200,121610.800,138942.400,128367.600,121843.300,132169.900,128609.200,123735.100,-0.129,0.962,-0.302,-7.538,-0.153,-2.075,66.667,732.000,1.000,0.011,0.000
125369.400,121626.200,138956.900,128384.800,121857.700,132186.300,128617.700,123747.600,-0.132,0.956,-0.300,-7.843,-0.214,-2.594,66.667,733.000,1.000,11.356,0.000
125372.100,121629.800,138959.500,128390.800,121861.800,132188.800,128623.500,123754.600,-0.131,0.952,-0.300,-8.057,-0.488,-3.113,66.667,734.000,1.000,2.537,0.000
125361.000,121625.600,138948.100,128381.800,121854.400,132183.500,128623.300,123751.400,-0.133,0.947,-0.304,-8.209,-0.641,-3.632,66.667,735.000,1.000,4.972,0.000
125348.200,121607.200,138934.800,128368.000,121843.300,132169.200,128617.700,123745.500,-0.134,0.943,-0.303,-8.301,-0.824,-4.028,66.667,736.000,1.000,2.454,0.000
125350.100,121610.800,138935.600,128356.300,121842.100,132172.400,128611.100,123738.600,-0.133,0.937,-0.306,-8.362,-1.038,-4.364,66.667,737.000,1.000,14.965,0.000
125357.500,121611.800,138941.000,128361.100,121843.900,132175.400,128601.000,123735.200,-0.134,0.933,-0.307,-8.240,-1.160,-4.669,66.667,738.000,1.000,5.031,0.000
125366.800,121622.800,138948.600,128367.600,121847.100,132175.000,128596.600,123734.700,-0.135,0.928,-0.308,-8.026,-1.221,-4.944,66.667,739.000,1.000,8.691,0.000
125368.200,121628.700,138951.000,128371.300,121848.900,132175.500,128607.600,123737.700,-0.137,0.929,-0.307,-7.629,-1.282,-5.157,66.667,740.000,1.000,5.670,0.000
125364.700,121613.100,138948.700,128372.000,121851.300,132175.100,128618.700,123752.300,-0.139,0.932,-0.304,-7.446,-1.343,-5.341,66.667,741.000,1.000,0.012,0.000
125356.400,121611.600,138942.300,128365.400,121848.600,132172.200,128610.200,123747.000,-0.144,0.936,-0.302,-7.202,-1.251,-5.432,66.667,742.000,1.000,1.866,0.000
125363.800,121616.600,138950.400,128376.700,121856.400,132180.100,128608.800,123749.500,-0.149,0.940,-0.300,-6.897,-1.434,-5.432,66.667,743.000,1.000,2.452,0.000
125366.600,121618.900,138954.700,128374.800,121859.300,132185.100,128610.400,123749.700,-0.155,0.941,-0.298,-6.744,-1.648,-5.493,66.667,744.000,1.000,3.117,0.000
125361.000,121619.100,138953.500,128370.300,121858.300,132184.700,128616.100,123749.900,-0.159,0.940,-0.299,-6.531,-1.831,-5.371,66.667,745.000,1.000,0.009,0.000
