EEG 1, EEG 2, EEG 3, EEG 4, EEG 5, EEG 6, EEG 7, EEG 8, TRIG
750000.100,750000.100,750000.100,750000.100,750000.100,750000.100,750000.100,750000.100,0.000
750000.100,750000.100,474194.900,750000.100,467270.900,617912.300,750000.100,750000.100,0.000
643231.000,750000.100,353889.700,588237.800,-198364.700,287420.800,750000.100,687447.500,0.000
613571.100,750000.100,320687.700,596876.600,-457103.600,268926.900,750000.100,615949.900,0.000
606689.300,750000.100,293519.400,699730.700,-667676.300,342262.400,750000.100,665507.700,0.000
606891.600,627438.300,474526.100,729422.300,-750000.100,451771.100,750000.100,750000.100,0.000
750000.100,551466.600,648657.900,750000.100,-313334.100,579812.100,750000.100,750000.100,0.000
750000.100,750000.100,681739.300,750000.100,750000.100,614006.800,750000.100,750000.100,0.000
750000.100,750000.100,750000.100,750000.100,750000.100,750000.100,750000.100,750000.100,0.000
750000.100,750000.100,750000.100,750000.100,750000.100,750000.100,750000.100,750000.100,0.000
750000.100,750000.100,750000.100,750000.100,750000.100,750000.100,750000.100,750000.100,0.000
750000.100,750000.100,750000.100,750000.100,750000.100,750000.100,750000.100,750000.100,0.000
750000.100,750000.100,750000.100,750000.100,736973.600,750000.100,750000.100,711778.200,0.000
644780.200,639712.700,750000.100,750000.100,614350.500,661372.900,660490.600,593374.400,0.000
547442.500,543050.500,750000.100,750000.100,521664.800,561318.700,560992.100,503875.700,0.000
470322.700,466439.400,674361.400,694412.300,448204.300,481991.300,482160.200,432885.600,0.000
407057.400,403459.800,583256.100,600854.400,387855.100,416916.300,417472.200,374606.200,0.000
354239.000,350842.000,507207.300,522702.800,337410.000,362572.800,363521.100,326058.800,0.000
309908.100,307006.700,443412.300,457048.300,295326.800,317246.300,318138.600,285362.500,0.000
274653.700,272138.200,392773.200,405090.900,261754.700,281241.700,281958.100,252815.100,0.000
257073.800,254636.800,367526.300,379155.400,245048.300,263204.000,263969.500,236647.200,0.000
249307.300,246937.200,356343.500,367620.200,237666.200,255208.700,255994.900,229486.600,0.000
242537.500,240225.800,346612.600,357643.900,231216.600,248276.000,249064.500,223241.000,0.000
236308.500,234055.200,337670.800,348458.000,225282.300,241907.100,242681.300,217501.700,0.000
230548.200,228353.400,329416.000,339965.900,219793.700,236021.300,236771.200,212201.400,0.000
225224.500,223078.400,321784.800,332107.800,214716.000,230572.300,231295.300,207300.200,0.000
220298.100,218196.000,314721.300,324822.400,210017.700,225536.700,226226.200,202757.700,0.000
215730.200,213670.300,308170.500,318048.300,205655.000,220868.500,221525.300,198548.700,0.000
211461.500,209442.100,302053.400,311732.400,201572.000,216504.400,217127.200,194610.200,0.000
207501.600,205521.300,296372.900,305860.500,197792.200,212456.600,213044.000,190955.300,0.000
203807.100,201863.600,291073.900,300382.700,194269.800,208676.400,209237.500,187548.800,0.000
200346.700,198440.900,286113.800,295253.900,190968.800,205132.100,205674.500,184361.800,0.000
197108.800,195240.200,281470.400,290454.300,187884.800,201820.000,202345.400,181387.700,0.000
194064.700,192228.900,277105.600,285943.600,184985.200,198706.800,199208.700,178580.300,0.000
191236.000,189428.300,273036.300,281740.500,182292.100,195815.700,196299.300,175978.000,0.000
188581.800,186799.300,269214.800,277794.700,179764.000,193100.800,193567.000,173538.100,0.000
186073.800,184318.500,265610.200,274076.100,177379.400,190541.700,190994.900,171236.500,0.000
183715.400,181983.000,262214.900,270575.500,175132.400,188130.400,188569.500,169072.100,0.000
181477.100,179762.800,258995.900,267252.600,172992.700,185840.300,186264.100,167006.100,0.000
179376.700,177683.100,255968.500,264126.900,170985.000,183695.700,184101.300,165066.100,0.000
177386.000,175713.400,253103.900,261173.200,169086.000,181665.900,182058.700,163236.100,0.000
175496.600,173845.000,250392.600,258376.600,167287.100,179733.200,180123.200,161500.900,0.000
173721.300,172087.200,247839.500,255742.100,165594.200,177915.500,178301.400,159871.100,0.000
172040.100,170420.300,245421.100,253250.500,163991.500,176196.600,176575.100,158333.000,0.000
170448.700,168843.100,243130.400,250888.500,162473.500,174568.500,174942.000,156871.800,0.000
168937.300,167345.400,240954.000,248643.600,161030.000,173018.400,173387.900,155478.800,0.000
167516.000,165938.700,238902.500,246528.000,159676.500,171562.400,171928.500,154173.500,0.000
166155.600,164594.300,236945.800,244511.000,158385.300,170174.100,170534.700,152927.000,0.000
164868.600,163323.000,235095.000,242603.700,157166.200,168861.900,169218.400,151752.300,0.000
163643.800,162113.200,233335.900,240789.600,156004.600,167612.400,167967.900,150635.400,0.000
162481.500,160964.900,231660.500,239064.000,154898.600,166423.900,166776.600,149567.900,0.000
161386.300,159880.800,230076.200,237432.100,153856.700,165303.300,165653.500,148562.800,0.000
160340.300,158846.000,228567.400,235877.600,152864.000,164244.100,164586.600,147606.500,0.000
159341.400,157853.800,227126.300,234393.100,151910.600,163212.800,163556.900,146687.300,0.000
158394.800,156914.800,225757.600,232982.600,151010.000,162247.600,162588.700,145812.900,0.000
157483.800,156011.600,224444.500,231629.600,150142.000,161313.500,161651.000,144968.400,0.000
156627.600,155164.400,223206.600,230352.700,149328.000,160432.800,160767.900,144178.300,0.000
155819.100,154363.900,222036.700,229142.000,148560.700,159606.900,159941.000,143431.000,0.000
155030.800,153582.700,220903.000,227972.300,147807.000,158795.600,159130.500,142702.000,0.000
154292.000,152851.700,219833.800,226870.700,147103.500,158040.600,158371.600,142022.600,0.000
153588.700,152153.100,218813.400,225819.500,146434.200,157318.700,157650.700,141371.600,0.000
152910.400,151480.400,217834.600,224810.700,145788.500,156621.700,156954.700,140747.200,0.000
152273.100,150847.300,216908.800,223854.300,145179.100,155963.000,156295.400,140156.500,0.000
151661.300,150242.100,216021.400,222937.600,144598.700,155338.300,155669.900,139592.500,0.000
151075.600,149662.600,215172.500,222063.700,144042.500,154734.900,155069.100,139060.100,0.000
150514.300,149109.900,214361.100,221228.600,143511.100,154162.800,154497.200,138547.700,0.000
149979.300,148582.900,213585.900,220430.500,143002.400,153620.000,153952.700,138058.600,0.000
149466.000,148073.200,212839.700,219662.100,142508.100,153091.000,153422.300,137585.500,0.000
148976.500,147584.500,212127.900,218929.200,142036.200,152584.000,152914.500,137128.300,0.000
148518.300,147128.700,211459.000,218237.600,141596.900,152112.000,152436.900,136698.900,0.000
148079.000,146694.800,210820.800,217579.200,141182.800,151667.300,151990.800,136296.100,0.000
147652.900,146275.000,210204.000,216941.900,140781.000,151239.400,151559.700,135907.000,0.000
147239.100,145865.700,209607.300,216327.700,140387.900,150813.400,151136.300,135529.900,0.000
146850.900,145485.000,209043.900,215749.000,140021.000,150422.600,150743.800,135178.800,0.000
146474.900,145115.000,208498.000,215188.500,139661.300,150038.200,150356.200,134834.300,0.000
146118.100,144762.500,207977.500,214654.400,139320.700,149678.100,149992.500,134505.600,0.000
145776.600,144423.800,207480.300,214143.600,138994.600,149326.600,149643.100,134193.600,0.000
145452.300,144103.500,207008.100,213659.200,138687.000,149000.900,149313.600,133897.700,0.000
145135.700,143789.000,206547.900,213187.400,138385.800,148674.500,148988.600,133610.100,0.000
144851.700,143506.000,206125.000,212752.500,138112.700,148375.900,148689.700,133337.600,0.000
144578.000,143237.200,205720.400,212336.000,137854.500,148101.700,148411.400,133084.500,0.000
144300.500,142963.700,205317.900,211920.800,137591.000,147819.300,148128.500,132832.200,0.000
144032.600,142696.500,204927.200,211517.500,137332.300,147548.000,147854.200,132586.100,0.000
143787.500,142452.000,204563.300,211142.300,137096.000,147296.800,147602.900,132360.200,0.000
143552.400,142217.700,204215.500,210783.000,136868.600,147051.000,147356.000,132138.900,0.000
143342.100,142008.200,203897.600,210453.000,136665.100,146831.600,147133.000,131938.200,0.000
143139.000,141805.400,203592.300,210137.700,136470.200,146619.400,146920.300,131749.100,0.000
142925.400,141593.700,203280.200,209815.800,136266.400,146401.400,146703.900,131555.100,0.000
142721.300,141390.100,202979.700,209508.700,136070.900,146189.900,146492.900,131371.000,0.000
142539.100,141207.800,202705.400,209227.000,135894.500,145999.500,146300.900,131201.000,0.000
142353.900,141021.800,202432.500,208946.900,135717.700,145808.800,146111.600,131028.900,0.000
142188.500,140856.900,202181.600,208688.100,135561.500,145639.500,145945.000,130879.800,0.000
142025.400,140695.800,201938.500,208435.800,135406.000,145470.400,145774.400,130730.800,0.000
141865.300,140538.600,201701.200,208190.700,135253.500,145305.400,145603.200,130580.900,0.000
141702.300,140376.600,201463.400,207946.000,135098.200,145137.800,145436.400,130429.100,0.000
141560.800,140236.000,201248.200,207724.600,134963.100,144992.400,145293.600,130299.900,0.000
141424.600,140101.100,201040.600,207512.700,134833.000,144852.200,145154.200,130175.900,0.000
141282.100,139959.900,200830.300,207298.700,134696.900,144709.400,145012.400,130047.500,0.000
141157.500,139838.200,200641.400,207103.000,134576.900,144580.800,144882.100,129930.900,0.000
141030.500,139714.400,200454.700,206910.500,134456.100,144448.700,144750.200,129814.800,0.000
140920.000,139604.900,200284.900,206736.600,134351.800,144332.200,144635.200,129713.700,0.000
140815.700,139505.000,200125.300,206570.400,134255.400,144231.500,144530.300,129618.300,0.000
140697.000,139378.200,199945.400,206389.000,134134.100,144092.600,144398.100,129501.500,0.000
140593.900,139267.400,199781.600,206221.600,134027.900,143971.400,144282.800,129398.500,0.000
140498.400,139171.200,199633.200,206067.400,133935.100,143872.800,144178.500,129303.900,0.000
140403.100,139079.100,199489.300,205920.300,133846.400,143779.000,144079.600,129216.000,0.000
140304.400,138982.600,199343.600,205771.500,133755.800,143676.000,143982.500,129128.400,0.000
140221.400,138902.200,199214.300,205636.800,133677.800,143595.800,143897.700,129051.800,0.000
140133.900,138816.300,199082.600,205499.500,133595.600,143510.600,143808.700,128971.400,0.000
140059.600,138744.000,198967.300,205378.600,133528.800,143439.200,143735.500,128905.000,0.000
139976.800,138664.100,198843.100,205252.300,133453.700,143359.700,143656.800,128833.000,0.000
139898.500,138587.800,198724.500,205132.300,133383.000,143284.300,143582.100,128765.700,0.000
139827.700,138516.000,198613.000,205018.200,133315.600,143211.800,143508.800,128700.500,0.000
139759.600,138448.000,198505.600,204906.300,133249.300,143139.100,143435.400,128634.300,0.000
139688.700,138378.400,198397.900,204796.300,133181.100,143064.900,143362.800,128569.600,0.000
139626.300,138318.300,198299.700,204695.900,133120.300,143004.700,143300.200,128512.300,0.000
139566.400,138258.700,198204.200,204597.600,133059.000,142941.100,143234.500,128453.500,0.000
139514.100,138204.800,198116.000,204507.900,133004.800,142883.600,143174.600,128401.500,0.000
139453.700,138144.400,198022.700,204412.700,132946.500,142821.800,143110.500,128344.500,0.000
139400.000,138091.200,197939.500,204326.300,132897.200,142768.000,143058.200,128297.800,0.000
139349.500,138042.300,197858.200,204244.300,132850.600,142719.000,143009.900,128255.400,0.000
139292.000,137986.600,197771.900,204157.100,132798.500,142664.200,142954.300,128204.800,0.000
139246.100,137943.000,197700.400,204081.800,132757.600,142628.400,142914.300,128165.600,0.000
139199.200,137893.500,197624.100,204003.700,132708.400,142577.600,142861.700,128119.600,0.000
139156.800,137847.800,197550.900,203931.300,132663.700,142526.100,142811.700,128081.100,0.000
139113.400,137806.200,197480.400,203862.000,132624.900,142487.000,142770.100,128043.700,0.000
139062.300,137757.000,197404.300,203785.000,132578.100,142439.600,142721.400,127998.200,0.000
139026.100,137722.400,197344.100,203720.200,132544.400,142406.900,142686.800,127968.400,0.000
138990.700,137685.200,197283.100,203658.700,132509.300,142367.600,142650.900,127936.800,0.000
138958.200,137651.300,197225.000,203600.300,132476.800,142333.900,142617.200,127908.800,0.000
138930.700,137625.100,197174.000,203549.200,132450.000,142305.000,142586.800,127887.100,0.000
138877.100,137576.300,197100.700,203473.800,132403.100,142261.200,142539.900,127840.500,0.000
138837.300,137537.700,197040.400,203412.200,132366.100,142215.100,142498.900,127801.600,0.000
138812.000,137511.400,196993.600,203363.200,132339.900,142185.600,142469.800,127773.400,0.000
138790.300,137490.300,196951.800,203318.100,132319.100,142161.200,142445.300,127752.800,0.000
138766.400,137469.000,196907.400,203272.900,132299.600,142142.000,142424.300,127734.100,0.000
138726.800,137428.900,196847.300,203213.000,132261.900,142100.900,142385.300,127697.600,0.000
138692.400,137398.200,196795.600,203158.600,132231.700,142070.400,142353.700,127667.400,0.000
138676.800,137385.800,196763.800,203124.600,132221.700,142053.100,142338.300,127657.900,0.000
138650.800,137361.600,196718.300,203078.300,132198.500,142025.800,142310.700,127631.900,0.000
138629.000,137340.500,196677.800,203037.100,132177.300,142001.600,142288.700,127610.300,0.000
138606.300,137316.700,196637.300,202997.000,132154.900,141974.600,142263.900,127588.600,0.000
138585.200,137293.900,196597.800,202956.800,132131.300,141949.800,142238.400,127564.500,0.000
138573.900,137283.000,196569.300,202924.600,132119.300,141939.900,142225.800,127550.000,0.000
138556.100,137264.600,196535.600,202888.400,132104.300,141917.800,142206.500,127534.000,0.000
138541.800,137250.000,196505.700,202858.900,132094.700,141904.800,142193.800,127524.000,0.000
138517.800,137226.300,196466.400,202820.100,132071.800,141881.200,142168.100,127502.400,0.000
138490.800,137197.400,196422.700,202777.100,132042.300,141845.800,142135.400,127474.700,0.000
138476.600,137181.700,196391.700,202746.700,132025.900,141831.600,142119.300,127458.400,0.000
138459.600,137165.900,196360.800,202716.700,132010.000,141814.000,142103.300,127442.800,0.000
138441.600,137150.400,196328.600,202685.000,131993.700,141796.000,142085.900,127426.200,0.000
138426.100,137136.400,196300.000,202655.400,131980.700,141786.600,142074.000,127414.100,0.000
138409.000,137118.000,196268.500,202622.000,131960.800,141761.800,142049.400,127396.500,0.000
138399.600,137109.300,196245.400,202595.800,131950.900,141750.400,142037.000,127387.200,0.000
138389.400,137100.000,196220.000,202570.600,131942.900,141747.700,142030.300,127379.900,0.000
138373.500,137082.400,196188.300,202540.500,131925.500,141727.400,142010.800,127362.500,0.000
138361.400,137071.000,196163.200,202517.100,131912.900,141716.700,142000.000,127351.200,0.000
138344.300,137053.600,196134.000,202487.100,131895.400,141694.300,141980.900,127335.300,0.000
138336.200,137044.600,196113.700,202465.800,131886.600,141679.800,141968.100,127327.400,0.000
138319.000,137029.500,196084.000,202435.800,131871.600,141667.700,141953.500,127312.200,0.000
138314.800,137021.900,196063.200,202414.400,131863.600,141655.300,141943.400,127304.300,0.000
138304.700,137012.700,196042.400,202391.100,131856.600,141648.000,141935.800,127299.800,0.000
138297.000,137006.200,196026.200,202373.000,131852.900,141642.800,141930.800,127295.100,0.000
138282.000,136992.900,196001.500,202348.400,131839.500,141627.900,141915.800,127282.800,0.000
138269.200,136980.900,195977.000,202324.800,131828.700,141620.200,141903.900,127270.800,0.000
138257.400,136968.800,195954.900,202303.600,131818.600,141605.700,141891.300,127259.800,0.000
138250.100,136962.400,195937.600,202286.100,131812.900,141595.100,141882.700,127253.900,0.000
138241.300,136953.100,195917.400,202266.700,131804.600,141584.300,141874.000,127248.900,0.000
138233.800,136945.000,195897.500,202244.300,131796.500,141577.800,141865.100,127239.500,0.000
138220.800,136934.200,195874.300,202217.900,131785.100,141569.000,141852.300,127223.700,0.000
138216.100,136931.800,195859.800,202202.500,131781.400,141568.300,141850.100,127220.700,0.000
138205.600,136920.800,195837.500,202180.500,131769.500,141557.000,141839.100,127209.900,0.000
138195.800,136909.200,195816.000,202160.100,131758.100,141549.200,141830.100,127200.200,0.000
138186.200,136899.800,195796.900,202140.600,131747.600,141539.100,141816.800,127190.500,0.000
138171.700,136885.200,195773.400,202116.500,131732.500,141521.400,141798.500,127175.000,0.000
138164.900,136879.200,195757.300,202102.600,131726.500,141513.600,141794.900,127171.500,0.000
138154.000,136869.700,195736.300,202082.400,131715.600,141502.400,141783.500,127160.700,0.000
138149.800,136865.000,195720.700,202066.400,131709.800,141495.300,141775.900,127155.800,0.000
138152.600,136865.400,195712.300,202057.900,131710.700,141491.400,141774.500,127156.900,0.000
138135.000,136848.500,195685.700,202032.500,131696.400,141474.100,141761.000,127142.700,0.000
138119.800,136836.200,195664.400,202012.600,131688.900,141461.600,141751.500,127133.400,0.000
138118.000,136837.300,195656.500,202004.700,131694.500,141468.400,141757.300,127137.300,0.000
138104.600,136823.200,195633.400,201984.200,131681.500,141451.500,141742.800,127126.300,0.000
138099.200,136817.200,195617.200,201968.500,131674.500,141445.000,141734.400,127119.100,0.000
138096.600,136815.300,195606.200,201955.500,131672.200,141448.400,141733.100,127117.600,0.000
138081.000,136797.300,195579.500,201929.200,131653.800,141423.800,141712.800,127104.200,0.000
138077.700,136794.800,195567.300,201917.100,131651.300,141427.800,141714.500,127106.100,0.000
138066.700,136786.300,195549.800,201901.400,131642.300,141427.100,141709.200,127101.500,0.000
138053.000,136775.000,195529.100,201879.200,131630.100,141419.500,141698.400,127090.900,0.000
138056.600,136778.300,195523.000,201871.000,131631.800,141424.600,141697.500,127090.300,0.000
138060.400,136783.100,195517.300,201864.800,131636.900,141431.900,141703.000,127093.200,0.000
138053.600,136776.300,195500.300,201847.700,131630.100,141425.700,141693.600,127082.500,0.000
138044.600,136763.500,195481.000,201827.600,131614.300,141400.800,141671.400,127065.000,0.000
138053.000,136770.400,195481.800,201827.600,131622.000,141404.100,141678.200,127069.000,0.000
138047.400,136765.500,195469.100,201814.000,131617.900,141393.300,141671.600,127061.000,0.000
138040.300,136758.600,195453.300,201797.600,131611.600,141381.500,141662.500,127049.800,0.000
138038.400,136756.400,195444.600,201789.000,131610.100,141377.200,141660.500,127046.500,0.000
138029.600,136746.700,195428.100,201772.000,131601.400,141365.000,141650.300,127036.200,0.000
138030.200,136746.400,195419.300,201764.400,131602.200,141365.300,141649.900,127036.200,0.000
138021.800,136735.400,195401.900,201746.300,131591.800,141353.100,141639.600,127026.900,0.000
138022.100,136735.500,195393.100,201736.800,131591.000,141351.400,141640.200,127028.400,0.000
138022.800,136735.700,195384.900,201728.800,131592.500,141352.000,141641.600,127030.200,0.000
138020.500,136734.000,195375.600,201717.900,131590.900,141350.100,141638.900,127028.200,0.000
138013.000,136728.800,195360.800,201702.000,131585.000,141348.600,141633.900,127021.400,0.000
138000.900,136718.800,195341.600,201683.000,131574.700,141343.900,141626.800,127012.700,0.000
137996.600,136716.500,195331.700,201673.000,131571.700,141342.800,141622.500,127011.000,0.000
138002.400,136723.700,195333.100,201673.600,131578.600,141354.100,141630.600,127017.900,0.000
138011.600,136733.100,195334.400,201675.200,131587.400,141368.800,141641.800,127027.700,0.000
137998.600,136718.600,195312.600,201652.200,131570.200,141341.600,141618.600,127011.100,0.000
137992.000,136711.200,195299.100,201638.800,131563.500,141330.300,141608.700,127005.700,0.000
137988.600,136707.800,195288.400,201628.800,131562.800,141331.100,141608.600,127006.000,0.000
137987.500,136708.700,195279.300,201618.600,131565.400,141337.800,141612.600,127007.200,0.000
137990.200,136708.500,195269.700,201609.400,131563.200,141343.000,141614.900,127007.400,0.000
137986.500,136699.000,195255.200,201596.700,131552.400,141320.400,141599.700,126999.700,0.000
137984.700,136694.200,195245.500,201586.800,131549.000,141320.400,141597.000,126996.500,0.000
137985.700,136691.700,195238.400,201579.900,131546.600,141320.500,141596.200,126996.300,0.000
137988.100,136690.800,195232.800,201575.300,131544.800,141319.000,141595.600,126999.000,0.000
137982.800,136682.900,195219.800,201562.300,131536.400,141310.300,141587.400,126994.000,0.000
137973.400,136672.900,195204.300,201546.800,131528.900,141300.700,141579.400,126985.100,0.000
137977.500,136679.300,195203.700,201545.500,131538.300,141309.300,141586.600,126990.600,0.000
137971.900,136677.100,195192.500,201534.900,131537.400,141308.700,141583.400,126985.100,0.000
137973.600,136680.300,195187.300,201530.000,131539.700,141311.600,141586.300,126986.700,0.000
137962.800,136670.400,195169.700,201511.900,131527.600,141301.000,141575.500,126974.300,0.000
137956.400,136665.200,195157.200,201499.200,131522.800,141298.500,141571.600,126966.700,0.000
137956.900,136665.900,195149.800,201493.300,131524.300,141298.900,141572.000,126967.100,0.000
137951.800,136662.100,195137.400,201481.500,131520.300,141294.500,141567.700,126961.900,0.000
137945.600,136655.500,195124.400,201469.600,131516.700,141292.200,141565.700,126960.400,0.000
137943.600,136652.100,195115.500,201461.000,131515.700,141287.700,141563.300,126962.300,0.000
137942.500,136652.100,195108.200,201454.900,131515.600,141289.400,141563.700,126962.200,0.000
137944.500,136655.300,195103.700,201450.100,131517.000,141289.500,141563.800,126961.700,0.000
137936.000,136646.400,195087.900,201434.700,131506.900,141277.300,141553.100,126950.100,0.000
137936.000,136644.300,195079.900,201425.500,131503.300,141272.200,141550.300,126947.300,0.000
137929.000,136635.700,195066.300,201410.800,131494.400,141261.600,141541.000,126938.800,0.000
137930.300,136637.800,195061.700,201405.700,131495.800,141266.000,141542.500,126939.900,0.000
137930.000,136639.600,195054.700,201399.000,131493.500,141266.900,141541.400,126940.800,0.000
137923.100,136633.400,195040.200,201385.900,131486.100,141262.300,141536.900,126938.100,0.000
137921.400,136631.100,195032.500,201377.900,131485.000,141266.900,141538.900,126938.700,0.000
137919.800,136629.300,195026.000,201370.200,131482.900,141258.800,141533.800,126936.500,0.000
137922.600,136635.000,195022.600,201367.400,131487.300,141265.000,141537.900,126942.900,0.000
137924.000,136636.900,195017.100,201362.200,131489.400,141269.600,141539.600,126945.500,0.000
137916.300,136629.300,195003.500,201349.000,131482.800,141261.600,141531.600,126935.200,0.000
137912.500,136624.700,194994.300,201340.500,131480.900,141256.000,141528.800,126930.700,0.000
137915.700,136627.800,194993.300,201339.100,131487.100,141259.500,141534.100,126933.600,0.000
137911.400,136622.900,194983.600,201329.600,131483.300,141250.800,141526.200,126926.200,0.000
137913.200,136625.600,194980.600,201326.200,131486.400,141249.100,141524.700,126926.100,0.000
137914.200,136628.200,194978.400,201320.900,131489.600,141247.200,141524.900,126925.500,0.000
137915.500,136629.600,194974.100,201316.800,131491.700,141245.200,141524.000,126925.700,0.000
137913.400,136626.300,194965.300,201310.200,131491.600,141242.800,141522.000,126925.400,0.000
137917.400,136629.200,194963.900,201309.100,131495.100,141244.500,141525.400,126931.100,0.000
137914.400,136625.500,194954.500,201301.200,131491.700,141243.400,141523.100,126926.900,0.000
137914.000,136626.600,194949.600,201295.900,131493.400,141245.500,141524.300,126926.700,0.000
137916.400,136629.900,194947.300,201291.800,131496.600,141246.600,141525.700,126929.700,0.000
137915.400,136625.400,194937.600,201281.800,131489.600,141238.500,141520.000,126925.900,0.000
137906.800,136614.000,194921.300,201265.900,131476.100,141227.200,141509.900,126916.200,0.000
137907.000,136612.200,194914.600,201259.000,131474.000,141224.100,141507.800,126916.700,0.000
137909.100,136612.300,194908.000,201251.800,131474.000,141225.500,141507.800,126916.000,0.000
137905.400,136606.000,194897.800,201240.400,131468.900,141222.100,141504.500,126911.800,0.000
137901.800,136601.700,194888.000,201230.000,131463.900,141217.600,141499.300,126907.100,0.000
137898.900,136598.600,194880.200,201221.100,131459.700,141215.300,141496.000,126904.700,0.000
137900.200,136598.800,194876.900,201217.700,131461.600,141215.600,141497.500,126906.800,0.000
137898.000,136595.900,194870.200,201212.600,131461.900,141214.000,141497.600,126907.800,0.000
137907.000,136603.000,194873.600,201215.200,131469.400,141218.100,141503.100,126914.500,0.000
137907.400,136603.500,194869.100,201208.100,131470.300,141220.100,141503.100,126910.300,0.000
137904.200,136602.100,194861.000,201197.400,131466.800,141216.600,141497.000,126908.500,0.000
137913.000,136611.700,194863.600,201199.100,131475.700,141226.000,141504.600,126916.600,0.000
137909.600,136609.800,194854.400,201189.200,131473.000,141221.200,141499.100,126908.100,0.000
137902.800,136605.400,194843.600,201177.800,131469.300,141216.000,141493.300,126900.400,0.000
137901.100,136605.800,194836.500,201172.300,131469.600,141217.500,141494.300,126900.300,0.000
137908.600,136614.700,194837.100,201174.500,131476.500,141226.700,141499.900,126906.000,0.000
137911.300,136617.400,194832.800,201170.400,131478.800,141228.000,141502.700,126910.400,0.000
137913.000,136617.800,194828.800,201167.600,131481.200,141228.000,141505.500,126914.700,0.000
137907.000,136610.400,194817.300,201158.000,131476.700,141221.500,141501.100,126910.400,0.000
137895.200,136597.800,194799.500,201139.900,131464.500,141209.000,141489.000,126896.300,0.000
137899.200,136602.600,194800.300,201138.400,131470.200,141215.300,141492.300,126899.600,0.000
137894.900,136599.800,194792.300,201130.300,131468.600,141215.000,141492.300,126900.600,0.000
137893.500,136597.900,194785.500,201123.200,131467.400,141212.200,141493.900,126900.400,0.000
137892.800,136595.300,194777.000,201115.000,131463.000,141207.900,141491.200,126899.000,0.000
137891.400,136591.800,194767.800,201104.700,131456.500,141203.900,141483.900,126893.900,0.000
137891.900,136591.200,194763.100,201097.800,131455.000,141198.900,141478.300,126892.300,0.000
137890.700,136589.700,194756.700,201091.700,131456.400,141195.600,141479.800,126894.500,0.000
137885.700,136582.200,194744.100,201080.000,131451.300,141186.400,141473.900,126888.900,0.000
137891.100,136586.700,194743.300,201078.700,131454.500,141191.200,141477.500,126889.800,0.000
137893.700,136589.200,194741.500,201075.300,131454.500,141193.700,141476.400,126888.500,0.000
137893.300,136589.000,194736.800,201070.200,131452.400,141192.800,141474.800,126885.800,0.000
137894.600,136590.300,194733.800,201067.800,131453.800,141195.700,141477.700,126889.700,0.000
137901.500,136599.400,194735.700,201070.400,131463.700,141205.600,141486.900,126895.800,0.000
137895.300,136596.100,194726.100,201060.100,131460.800,141205.700,141482.600,126887.400,0.000
137885.100,136586.000,194711.600,201046.200,131450.700,141190.000,141474.300,126879.800,0.000
137874.600,136572.800,194694.500,201029.300,131438.400,141171.200,141458.800,126867.900,0.000
137879.000,136575.500,194691.100,201025.500,131441.600,141177.900,141460.900,126868.400,0.000
137882.200,136578.200,194686.800,201021.600,131442.700,141179.500,141461.200,126868.400,0.000
137881.500,136580.500,194682.200,201016.500,131444.900,141182.400,141463.800,126869.900,0.000
137878.400,136581.600,194676.500,201011.000,131445.500,141183.600,141466.500,126872.900,0.000
137877.400,136582.800,194671.500,201006.800,131446.100,141185.200,141467.900,126876.400,0.000
137876.700,136581.800,194666.100,200999.900,131443.500,141181.000,141464.300,126874.000,0.000
137880.800,136584.600,194664.600,200996.100,131446.100,141182.000,141467.100,126875.100,0.000
137878.400,136582.800,194656.500,200987.700,131445.800,141184.400,141468.900,126875.700,0.000
137869.900,136574.900,194642.800,200973.600,131438.900,141183.400,141462.000,126868.700,0.000
137876.200,136578.100,194642.800,200973.900,131443.500,141187.000,141468.000,126873.300,0.000
137875.600,136574.800,194636.000,200969.500,131441.900,141180.900,141468.500,126875.600,0.000
137868.300,136568.700,194623.400,200959.900,131436.800,141171.500,141462.200,126871.300,0.000
137866.800,136569.300,194616.900,200952.400,131435.500,141173.700,141459.500,126866.800,0.000
137874.800,136578.400,194620.100,200952.700,131442.600,141190.500,141468.000,126870.700,0.000
137870.600,136574.400,194611.600,200944.500,131438.500,141182.700,141461.800,126866.400,0.000
137862.300,136563.400,194596.400,200931.500,131428.100,141162.200,141446.000,126857.200,0.000
137866.800,136565.500,194594.100,200930.300,131434.100,141167.700,141454.300,126863.800,0.000
137871.900,136570.700,194593.500,200928.800,131438.200,141172.200,141459.700,126870.600,0.000
137866.800,136569.100,194585.000,200917.900,131431.500,141176.000,141456.000,126862.200,0.000
137858.800,136562.700,194572.000,200905.400,131422.100,141165.900,141443.300,126852.000,0.000
137863.300,136570.500,194572.800,200907.400,131430.700,141177.000,141453.600,126859.400,0.000
137869.000,136576.100,194572.600,200906.100,131436.200,141182.700,141460.400,126860.300,0.000
137867.000,136573.800,194565.400,200898.700,131435.100,141184.100,141460.900,126859.400,0.000
137864.900,136568.400,194556.800,200893.300,131430.600,141174.300,141455.300,126859.000,0.000
137860.200,136559.400,194545.200,200883.300,131422.300,141155.800,141443.600,126854.600,0.000
137859.800,136560.000,194541.600,200878.600,131424.200,141161.600,141444.900,126857.300,0.000
137861.600,136562.600,194540.300,200876.300,131429.600,141165.700,141448.800,126862.000,0.000
137857.900,136558.800,194532.100,200869.400,131426.900,141162.400,141446.100,126860.200,0.000
137851.400,136553.100,194521.100,200858.100,131419.400,141158.700,141441.000,126854.200,0.000
137855.500,136559.100,194520.900,200856.100,131423.200,141163.300,141444.300,126855.200,0.000
137859.800,136563.600,194520.200,200853.400,131426.800,141169.200,141448.000,126855.600,0.000
137860.600,136564.100,194513.800,200848.000,131425.500,141172.500,141448.900,126853.800,0.000
137853.300,136556.700,194501.700,200837.500,131418.800,141163.600,141442.800,126849.600,0.000
137848.400,136552.500,194492.600,200829.900,131414.300,141154.800,141436.900,126847.600,0.000
137850.700,136556.300,194491.300,200828.900,131416.200,141159.300,141441.700,126851.300,0.000
137852.900,136558.300,194489.000,200826.500,131417.900,141160.900,141442.400,126857.200,0.000
137848.900,136553.900,194478.000,200815.500,131413.700,141155.800,141437.900,126851.800,0.000
137850.900,136554.100,194472.300,200808.900,131413.300,141157.800,141439.700,126851.900,0.000
137853.000,136554.200,194469.900,200804.900,131414.200,141161.200,141440.900,126853.000,0.000
137851.800,136552.200,194464.000,200798.100,131411.800,141156.600,141436.600,126848.400,0.000
137852.700,136552.500,194458.900,200793.400,131411.800,141159.200,141436.900,126847.000,0.000
137854.400,136551.700,194454.100,200790.000,131413.400,141160.000,141438.200,126849.100,0.000
137861.500,136560.000,194459.600,200795.100,131425.400,141171.700,141449.500,126858.200,0.000
137854.600,136555.100,194450.300,200784.500,131420.000,141166.600,141444.300,126852.100,0.000
137853.400,136551.600,194439.400,200773.900,131411.800,141157.400,141434.500,126843.000,0.000
137862.300,136557.700,194439.500,200773.700,131417.000,141163.200,141436.800,126845.400,0.000
137871.700,136565.000,194445.300,200776.700,131425.900,141169.300,141446.100,126853.300,0.000
137879.800,136570.400,194447.900,200777.800,131428.900,141168.300,141447.800,126857.400,0.000
137884.400,136571.800,194446.100,200775.200,131429.400,141171.800,141445.300,126857.400,0.000
137890.400,136575.900,194445.800,200773.500,131432.600,141170.800,141447.200,126861.100,0.000
137896.000,136580.200,194445.100,200771.500,131434.900,141174.300,141450.200,126865.000,0.000
137902.100,136583.100,194444.500,200770.900,131438.800,141176.900,141452.800,126868.900,0.000
137898.300,136578.500,194436.200,200763.900,131436.200,141174.900,141451.800,126867.900,0.000
137898.100,136579.600,194432.200,200761.000,131438.100,141178.000,141454.900,126870.600,0.000
137897.900,136578.100,194425.700,200753.600,131433.200,141168.400,141448.400,126866.100,0.000
137900.300,136580.300,194423.200,200749.000,131433.000,141169.300,141447.500,126865.300,0.000
137902.300,136581.500,194419.100,200745.000,131434.000,141173.200,141448.000,126864.600,0.000
137907.500,136585.200,194420.200,200747.600,131439.300,141178.800,141452.700,126868.800,0.000
137908.000,136587.000,194417.800,200744.600,131441.500,141181.500,141453.300,126870.400,0.000
137909.500,136588.700,194414.500,200740.800,131444.300,141182.700,141453.600,126869.900,0.000
137911.000,136589.400,194410.500,200736.700,131446.100,141184.400,141454.300,126869.900,0.000
137911.100,136590.000,194406.400,200732.900,131447.000,141183.500,141454.900,126870.200,0.000
137913.000,136593.400,194407.400,200733.300,131452.000,141185.900,141459.400,126875.600,0.000
137912.000,136594.400,194404.100,200729.700,131454.500,141187.900,141461.300,126878.400,0.000
137908.400,136591.000,194395.500,200720.500,131450.300,141183.600,141457.500,126875.700,0.000
137913.300,136591.900,194391.300,200717.600,131450.000,141182.100,141457.800,126877.500,0.000
137909.100,136585.700,194379.300,200707.300,131444.200,141177.700,141454.700,126871.100,0.000
137904.500,136582.500,194369.300,200698.200,131441.800,141179.300,141454.900,126867.300,0.000
137913.800,136589.700,194371.500,200699.200,131448.500,141184.700,141460.900,126871.300,0.000
137917.500,136589.000,194368.600,200695.300,131448.200,141174.400,141456.900,126870.700,0.000
137918.400,136590.500,194365.600,200690.200,131450.400,141181.100,141460.100,126873.300,0.000
137918.200,136591.700,194361.700,200686.800,131452.000,141183.300,141462.500,126875.500,0.000
137916.000,136590.400,194356.300,200680.600,131453.100,141180.800,141462.800,126873.100,0.000
137914.600,136589.400,194351.500,200674.400,131455.400,141180.200,141462.800,126869.500,0.000
137913.100,136587.000,194344.700,200666.700,131453.800,141176.200,141459.800,126865.900,0.000
137916.600,136590.200,194341.800,200664.600,131454.200,141180.700,141462.000,126869.000,0.000
137923.500,136595.600,194343.400,200667.500,131455.900,141180.100,141460.800,126875.800,0.000
137927.400,136598.800,194341.900,200668.700,131456.800,141184.300,141461.400,126880.900,0.000
137923.900,136595.500,194335.100,200663.800,131456.300,141187.500,141462.300,126883.200,0.000
137921.300,136594.400,194331.300,200661.900,131456.900,141185.100,141461.200,126886.500,0.000
137915.500,136590.000,194322.000,200653.000,131451.200,141177.600,141452.500,126877.800,0.000
137923.400,136598.000,194323.500,200654.100,131458.500,141181.600,141458.800,126881.500,0.000
137930.300,136605.500,194325.700,200656.400,131466.200,141186.000,141464.600,126887.600,0.000
137927.300,136603.500,194318.600,200650.200,131465.400,141187.500,141465.200,126886.600,0.000
137920.600,136596.300,194306.300,200640.100,131458.800,141179.400,141458.500,126880.700,0.000
137920.900,136596.700,194300.900,200635.300,131457.000,141183.100,141459.200,126879.600,0.000
137923.600,136598.800,194297.400,200631.600,131456.900,141185.400,141461.300,126880.000,0.000
137922.500,136598.400,194292.300,200628.900,131456.300,141185.800,141463.600,126882.500,0.000
137909.000,136584.500,194274.900,200612.900,131442.600,141173.800,141452.500,126872.200,0.000
137906.100,136579.500,194267.800,200607.500,131438.900,141165.400,141446.800,126870.500,0.000
137913.900,136588.300,194272.300,200611.700,131450.700,141175.300,141456.400,126876.000,0.000
137910.500,136586.800,194264.700,200604.200,131452.600,141178.600,141457.900,126872.900,0.000
137912.000,136589.400,194262.500,200601.500,131453.800,141176.200,141457.800,126874.800,0.000
137906.500,136585.300,194252.800,200590.600,131445.300,141172.800,141450.600,126866.000,0.000
137905.400,136586.900,194249.700,200586.600,131445.400,141175.400,141451.200,126865.900,0.000
137906.800,136589.500,194247.900,200585.100,131450.000,141182.100,141451.900,126871.500,0.000
137902.400,136585.500,194239.400,200579.400,131450.300,141181.400,141452.800,126875.800,0.000
137908.000,136591.600,194241.400,200582.200,131458.800,141190.100,141465.500,126891.200,0.000
137903.700,136587.700,194233.500,200573.300,131452.300,141186.200,141458.200,126887.100,0.000
137893.800,136577.700,194220.000,200559.400,131441.700,141173.900,141448.000,126877.300,0.000
137893.400,136578.300,194216.000,200553.900,131442.400,141176.600,141450.700,126876.000,0.000
137902.000,136586.900,194217.600,200557.500,131447.800,141183.100,141456.100,126885.000,0.000
137896.400,136582.500,194207.300,200547.700,131442.500,141180.100,141452.800,126878.300,0.000
137887.600,136574.300,194194.900,200535.000,131436.700,141174.800,141446.600,126868.600,0.000
137895.200,136581.200,194199.500,200539.300,131445.700,141184.200,141454.700,126874.000,0.000
137894.500,136579.100,194195.900,200535.000,131441.900,141177.000,141448.900,126871.300,0.000
137904.200,136589.600,194201.700,200539.700,131449.600,141185.200,141456.900,126879.100,0.000
137900.500,136586.800,194193.800,200531.500,131446.200,141185.300,141454.300,126872.600,0.000
137891.900,136575.400,194181.100,200519.100,131436.700,141173.500,141443.500,126864.800,0.000
137893.800,136576.200,194178.000,200514.900,131437.100,141175.300,141444.800,126867.100,0.000
137892.300,136574.300,194170.400,200507.800,131431.300,141173.000,141438.200,126864.200,0.000
137894.300,136574.900,194165.800,200503.900,131429.400,141173.500,141437.900,126864.800,0.000
137894.800,136573.800,194161.300,200497.100,131427.000,141172.400,141436.400,126863.100,0.000
137897.700,136576.500,194161.800,200495.600,131431.000,141173.500,141438.900,126867.300,0.000
137899.800,136580.100,194160.300,200493.600,131434.300,141177.900,141441.000,126866.900,0.000
137895.200,136574.800,194152.000,200483.400,131429.100,141174.700,141437.100,126857.900,0.000
137898.200,136575.300,194150.800,200480.900,131431.800,141169.800,141437.700,126857.000,0.000
137901.700,136578.400,194150.100,200479.000,131436.800,141171.900,141440.500,126858.100,0.000
137904.700,136582.100,194150.800,200478.000,131442.900,141176.700,141447.300,126864.400,0.000
137898.900,136576.900,194141.800,200467.400,131439.200,141167.900,141440.900,126856.400,0.000
137898.800,136576.700,194138.300,200463.200,131439.800,141162.800,141437.500,126854.700,0.000
137897.900,136573.900,194133.500,200459.300,131441.300,141159.000,141435.700,126856.400,0.000
137898.400,136573.500,194130.700,200457.400,131445.200,141160.900,141438.300,126861.200,0.000
137900.200,136576.300,194129.600,200457.400,131449.600,141167.100,141443.500,126866.900,0.000
137894.900,136571.500,194121.400,200449.000,131444.100,141164.200,141439.100,126861.300,0.000
137895.200,136574.200,194119.800,200447.100,131446.700,141168.500,141441.800,126860.500,0.000
137900.600,136580.800,194122.300,200451.200,131455.000,141173.000,141448.600,126865.800,0.000
137898.900,136579.800,194116.100,200445.500,131451.200,141166.800,141443.500,126860.500,0.000
137897.000,136578.800,194109.800,200437.600,131448.600,141165.500,141440.600,126856.500,0.000
137891.800,136575.100,194101.500,200428.300,131445.000,141162.000,141437.000,126852.000,0.000
137888.500,136573.700,194095.300,200423.500,131445.600,141165.500,141439.700,126855.600,0.000
137883.800,136571.600,194088.200,200418.500,131445.100,141163.200,141440.000,126860.200,0.000
137882.400,136572.400,194084.200,200416.300,131447.800,141168.200,141444.800,126868.700,0.000
137882.400,136570.000,194079.600,200412.600,131445.800,141169.000,141446.200,126871.500,0.000
137879.000,136566.800,194072.500,200407.000,131442.800,141165.200,141446.000,126872.400,0.000
137871.200,136561.300,194060.900,200397.900,131435.900,141161.000,141440.100,126867.300,0.000
137867.700,136560.100,194052.000,200391.700,131431.700,141161.600,141437.500,126862.800,0.000
137869.000,136563.600,194049.400,200388.700,131433.000,141168.100,141443.100,126864.300,0.000
137866.000,136561.800,194043.300,200383.000,131430.900,141169.100,141442.300,126863.000,0.000
137871.200,136563.700,194042.400,200382.100,131433.800,141171.900,141445.000,126866.200,0.000
137865.600,136555.600,194031.300,200369.800,131426.400,141162.300,141434.700,126858.000,0.000
137863.300,136551.500,194023.300,200362.000,131423.600,141158.300,141431.500,126856.200,0.000
137864.600,136551.800,194020.600,200358.300,131425.000,141159.600,141433.200,126859.900,0.000
137862.500,136548.900,194014.300,200352.100,131424.200,141158.100,141432.700,126859.000,0.000
137867.200,136552.500,194014.300,200351.700,131427.700,141162.000,141436.300,126863.200,0.000
137875.200,136557.400,194016.400,200352.500,131432.200,141165.200,141439.900,126867.500,0.000
137876.700,136555.000,194012.200,200347.600,131431.000,141158.300,141435.900,126862.700,0.000
137876.700,136554.200,194009.600,200344.200,131430.000,141158.100,141435.000,126859.800,0.000
137874.600,136551.600,194004.000,200336.800,131423.200,141155.300,141430.100,126852.600,0.000
137878.200,136554.100,194003.400,200334.600,131423.800,141156.600,141430.900,126852.100,0.000
137880.400,136556.300,194001.500,200330.800,131425.900,141163.500,141431.200,126853.000,0.000
137881.100,136557.000,193997.100,200326.700,131425.500,141165.900,141432.700,126853.600,0.000
137882.400,136557.500,193994.800,200326.400,131427.300,141162.300,141434.000,126856.700,0.000
137876.100,136552.600,193986.700,200320.000,131423.400,141150.600,141426.200,126855.500,0.000
137874.000,136553.900,193982.200,200315.300,131423.600,141152.300,141426.700,126855.200,0.000
137877.700,136559.400,193982.200,200314.900,131428.800,141158.300,141430.900,126858.700,0.000
137878.900,136561.300,193979.500,200311.400,131432.100,141161.000,141434.500,126861.300,0.000
137880.900,136563.700,193978.500,200308.700,131436.800,141168.500,141441.800,126863.000,0.000
137873.000,136555.200,193968.300,200297.400,131431.700,141160.100,141434.200,126855.800,0.000
137876.400,136555.800,193966.800,200297.400,131435.300,141155.500,141431.200,126856.500,0.000
137875.200,136556.600,193962.500,200293.500,131435.800,141163.700,141434.300,126856.800,0.000
137876.500,136557.700,193959.800,200292.600,131436.700,141158.400,141434.300,126859.600,0.000
137874.200,136554.800,193953.600,200287.600,131430.100,141150.000,141429.200,126858.000,0.000
137868.100,136550.400,193945.500,200280.100,131422.000,141149.200,141424.800,126852.800,0.000
137868.900,136553.000,193942.400,200278.200,131422.900,141158.100,141428.400,126853.300,0.000
137867.000,136552.200,193935.700,200270.200,131419.700,141156.100,141425.000,126850.300,0.000
137871.400,136554.800,193933.000,200266.300,131421.500,141156.200,141425.800,126852.000,0.000
137873.500,136556.400,193930.500,200261.800,131423.600,141159.500,141428.300,126853.200,0.000
137872.500,136555.800,193926.800,200258.000,131425.000,141160.500,141429.200,126853.100,0.000
137872.400,136556.500,193923.700,200255.500,131427.700,141161.700,141431.100,126854.200,0.000
137866.300,136550.300,193914.500,200245.800,131422.300,141157.400,141425.200,126849.600,0.000
137871.600,136555.800,193916.200,200247.000,131426.700,141161.000,141428.900,126853.700,0.000
137880.100,136566.800,193921.900,200252.600,131436.000,141172.400,141437.200,126859.700,0.000
137871.000,136557.400,193908.500,200239.200,131423.500,141161.900,141425.500,126849.200,0.000
137872.200,136558.300,193904.800,200236.000,131422.300,141161.600,141426.500,126850.600,0.000
137873.000,136560.900,193904.200,200234.800,131425.600,141165.700,141428.500,126853.900,0.000
137873.400,136560.500,193901.300,200232.600,131427.000,141166.000,141430.300,126855.000,0.000
137866.500,136551.100,193888.800,200222.400,131418.900,141155.400,141423.200,126848.600,0.000
137864.700,136548.500,193882.300,200217.800,131416.200,141151.300,141421.400,126846.500,0.000
137868.800,136552.500,193882.100,200217.000,131419.500,141156.600,141425.000,126845.800,0.000
137868.500,136553.500,193879.000,200212.300,131419.100,141156.000,141422.800,126843.000,0.000
137869.000,136555.800,193876.600,200208.700,131420.800,141157.300,141424.600,126844.900,0.000
137869.600,136555.700,193871.800,200205.300,131420.100,141151.100,141421.500,126846.200,0.000
137866.500,136555.600,193866.200,200199.000,131418.800,141155.300,141422.600,126847.100,0.000
137865.500,136559.200,193864.600,200195.700,131421.500,141165.000,141426.700,126850.400,0.000
137870.400,136563.600,193867.300,200197.900,131424.500,141167.200,141428.900,126854.700,0.000
137866.400,136555.700,193858.700,200188.800,131416.000,141158.100,141422.000,126845.800,0.000
137871.700,136555.800,193856.900,200187.100,131415.800,141157.200,141422.100,126845.200,0.000
137866.300,136548.500,193847.700,200179.300,131410.200,141150.600,141415.500,126842.300,0.000
137870.800,136552.500,193849.000,200181.400,131415.500,141154.800,141419.800,126848.500,0.000
137870.100,136549.600,193843.500,200175.900,131409.400,141147.600,141413.000,126844.400,0.000
137875.500,136553.800,193844.200,200175.200,131410.500,141149.200,141412.200,126844.300,0.000
137877.200,136552.600,193839.200,200170.100,131409.300,141145.100,141410.500,126843.800,0.000
137877.400,136552.100,193834.000,200165.900,131409.800,141147.500,141412.300,126842.000,0.000
137876.200,136550.500,193829.200,200161.100,131409.400,141148.300,141412.200,126839.500,0.000
137874.400,136549.300,193823.500,200155.800,131408.800,141150.800,141415.800,126839.900,0.000
137874.100,136547.300,193816.800,200150.800,131405.900,141148.400,141411.700,126838.500,0.000
137869.500,136542.400,193809.100,200141.300,131401.800,141147.000,141408.400,126834.400,0.000
137872.100,136545.600,193809.800,200140.100,131405.200,141149.100,141411.600,126838.400,0.000
137867.200,136542.200,193802.500,200131.500,131401.200,141144.800,141407.000,126834.400,0.000
137866.600,136543.300,193800.000,200128.800,131402.800,141145.600,141406.800,126835.600,0.000
137865.400,136542.600,193796.700,200127.300,131404.900,141145.700,141408.100,126836.600,0.000
137869.000,136546.200,193798.200,200129.800,131409.400,141151.800,141413.100,126841.300,0.000
137866.500,136543.600,193792.100,200124.300,131407.100,141151.100,141412.900,126839.300,0.000
137866.000,136543.800,193789.500,200122.500,131408.400,141143.700,141409.100,126841.100,0.000
137871.700,136551.400,193793.900,200126.400,131416.100,141154.500,141415.500,126846.900,0.000
137862.800,136545.000,193782.800,200114.200,131406.700,141144.300,141404.200,126837.100,0.000
137864.500,136548.500,193780.800,200111.400,131406.500,141144.500,141404.700,126837.900,0.000
137872.500,136555.700,193782.800,200113.300,131411.100,141148.000,141410.700,126842.000,0.000
137881.900,136564.300,193786.000,200116.200,131417.900,141157.200,141416.200,126845.500,0.000
137882.000,136562.800,193781.200,200111.600,131418.100,141156.500,141415.800,126846.100,0.000
137875.000,136555.800,193771.200,200103.000,131415.300,141150.300,141413.300,126843.400,0.000
137874.900,136555.400,193767.200,200100.500,131417.800,141150.600,141417.400,126846.300,0.000
137876.800,136556.300,193765.300,200097.200,131417.100,141150.100,141415.700,126845.800,0.000
137881.500,136564.200,193768.100,200097.400,131422.700,141155.600,141418.100,126848.700,0.000
137878.300,136564.500,193764.400,200090.400,131422.800,141154.900,141415.100,126844.400,0.000
137876.900,136566.000,193760.600,200087.000,131425.400,141160.000,141416.000,126843.700,0.000
137873.400,136563.900,193754.900,200081.500,131423.700,141159.600,141414.000,126840.000,0.000
137874.200,136562.800,193751.900,200080.400,131420.900,141149.300,141409.900,126838.900,0.000
137871.800,136559.500,193744.800,200075.200,131417.800,141150.200,141409.500,126837.300,0.000
137875.900,136560.500,193743.700,200075.600,131420.700,141152.600,141412.700,126843.100,0.000
137877.300,136560.500,193740.500,200072.800,131420.500,141150.700,141414.100,126845.200,0.000
137886.300,136570.300,193747.500,200078.100,131429.000,141157.500,141423.300,126854.400,0.000
137881.000,136566.500,193738.700,200069.000,131424.100,141156.500,141419.800,126851.800,0.000
137877.500,136564.500,193730.400,200061.200,131420.900,141161.600,141421.200,126851.000,0.000
137875.200,136562.200,193724.000,200053.800,131418.000,141165.000,141419.400,126849.600,0.000
137876.700,136560.800,193719.500,200050.100,131416.100,141163.600,141417.300,126845.200,0.000
137873.300,136554.300,193711.000,200042.400,131408.000,141152.300,141409.000,126838.800,0.000
137879.500,136558.600,193713.500,200045.500,131413.200,141155.200,141415.600,126846.500,0.000
137875.700,136556.100,193708.000,200039.600,131412.400,141153.500,141415.900,126845.200,0.000
137871.000,136552.000,193701.100,200031.200,131410.200,141143.800,141408.100,126840.800,0.000
137874.400,136556.600,193701.400,200031.800,131417.200,141149.900,141415.600,126849.100,0.000
137874.200,136554.500,193696.400,200025.400,131413.300,141145.500,141410.800,126845.500,0.000
137874.000,136553.500,193690.900,200020.100,131410.900,141148.100,141410.800,126844.000,0.000
137875.200,136555.200,193689.000,200017.900,131412.000,141152.000,141414.600,126846.400,0.000
137877.000,136557.400,193688.200,200015.800,131411.800,141157.700,141415.700,126845.800,0.000
137873.400,136552.500,193679.700,200007.300,131405.800,141151.400,141411.500,126840.100,0.000
137876.900,136557.500,193679.900,200007.900,131411.400,141160.100,141418.200,126844.500,0.000
137876.000,136554.600,193674.400,200001.900,131408.900,141150.400,141412.900,126842.000,0.000
137880.000,136557.000,193675.400,200000.800,131413.400,141151.500,141415.800,126843.700,0.000
137885.800,136562.500,193680.400,200003.500,131421.500,141157.200,141421.600,126849.600,0.000
137890.400,136567.400,193681.200,200005.000,131426.800,141159.300,141424.800,126855.400,0.000
137887.600,136563.500,193671.100,199995.600,131420.000,141152.300,141419.300,126849.600,0.000
137881.500,136557.500,193660.700,199985.200,131411.500,141145.800,141410.800,126842.600,0.000
137880.900,136559.100,193657.100,199981.700,131412.000,141149.300,141412.300,126841.900,0.000
137882.300,136562.500,193657.000,199980.900,131417.400,141156.500,141417.300,126844.400,0.000
137875.800,136556.600,193646.800,199971.800,131414.600,141153.700,141413.100,126838.300,0.000
137879.700,136559.300,193646.300,199971.400,131420.000,141160.800,141418.200,126840.500,0.000
137888.100,136568.600,193650.000,199974.700,131428.200,141176.200,141430.100,126848.300,0.000
137877.300,136559.700,193636.100,199961.200,131417.400,141166.500,141421.600,126838.800,0.000
137872.200,136553.800,193627.900,199953.400,131411.500,141155.800,141413.100,126833.900,0.000
137875.500,136559.600,193627.900,199953.500,131415.600,141160.700,141416.600,126837.600,0.000
137867.700,136555.800,193619.100,199945.100,131410.400,141156.900,141413.300,126832.900,0.000
137866.300,136557.500,193618.200,199944.200,131411.800,141159.100,141415.400,126836.200,0.000
137867.600,136561.800,193619.600,199947.400,131414.100,141158.700,141417.500,126843.400,0.000
137859.900,136557.800,193610.600,199938.500,131409.600,141157.400,141414.300,126841.100,0.000
137859.100,136557.200,193606.100,199935.100,131411.200,141155.900,141415.000,126842.700,0.000
137856.700,136552.600,193598.500,199929.900,131410.700,141150.600,141414.800,126842.500,0.000
137854.300,136550.300,193593.000,199924.700,131410.800,141147.700,141414.500,126843.600,0.000
137853.000,136549.900,193589.000,199918.800,131410.500,141150.100,141414.900,126843.700,0.000
137862.100,136559.100,193594.000,199922.100,131417.900,141158.300,141421.100,126849.300,0.000
137869.500,136565.500,193597.000,199923.800,131421.800,141158.000,141421.800,126848.400,0.000
137864.700,136560.300,193588.800,199912.900,131413.900,141153.100,141414.800,126838.400,0.000
137867.200,136565.200,193589.600,199913.900,131417.800,141159.700,141418.400,126842.500,0.000
137861.800,136563.200,193582.000,199907.900,131415.800,141164.500,141420.000,126843.300,0.000
137855.000,136557.300,193571.300,199900.000,131408.500,141159.700,141414.700,126840.600,0.000
137855.800,136557.500,193569.700,199899.500,131411.100,141159.900,141417.800,126843.400,0.000
137859.700,136559.400,193570.500,199900.700,131414.900,141162.000,141422.800,126847.600,0.000
137860.000,136555.200,193565.600,199894.900,131412.200,141159.800,141420.200,126843.900,0.000
137860.700,136553.200,193560.800,199888.000,131411.400,141157.200,141419.300,126840.700,0.000
137868.900,136559.200,193565.000,199892.000,131422.500,141161.600,141426.100,126851.200,0.000
137877.700,136566.400,193569.800,199897.800,131433.500,141162.000,141434.700,126864.200,0.000
137874.000,136561.700,193561.600,199891.300,131430.300,141152.500,141430.200,126865.000,0.000
137868.400,136555.100,193550.700,199880.100,131422.400,141144.400,141421.600,126859.900,0.000
137864.500,136552.500,193544.100,199872.900,131418.200,141145.700,141421.600,126863.700,0.000
137862.300,136552.900,193540.800,199869.600,131417.500,141144.400,141418.400,126866.000,0.000
137864.400,136557.500,193540.700,199870.700,131423.000,141154.700,141423.400,126869.500,0.000
137865.100,136560.300,193540.800,199871.700,131426.800,141164.800,141428.900,126872.200,0.000
137874.600,136573.500,193549.500,199879.500,131437.900,141185.500,141440.100,126880.000,0.000
137874.800,136574.800,193547.900,199876.500,131437.200,141184.700,141437.500,126877.800,0.000
137866.500,136567.600,193537.600,199866.400,131428.500,141175.200,141426.100,126870.000,0.000
137869.100,136570.200,193536.500,199866.000,131429.700,141172.500,141427.600,126871.400,0.000
137869.200,136571.000,193533.900,199864.300,131431.000,141170.400,141428.300,126870.700,0.000
137871.300,136574.400,193533.800,199863.900,131433.500,141177.600,141433.400,126873.300,0.000
137872.300,136574.600,193532.400,199863.000,131434.400,141177.400,141434.700,126874.600,0.000
137864.100,136564.900,193522.000,199853.500,131426.200,141165.900,141424.800,126865.500,0.000
137866.400,136567.400,193520.200,199854.400,131429.300,141168.300,141427.600,126867.100,0.000
137861.900,136565.000,193512.900,199847.000,131425.800,141163.200,141424.400,126861.400,0.000
137865.000,136569.700,193513.400,199845.300,131428.900,141169.600,141426.000,126859.700,0.000
137869.800,136573.500,193514.700,199845.100,131431.400,141165.500,141425.000,126861.800,0.000
137873.300,136577.800,193515.000,199845.800,131436.600,141168.200,141429.500,126866.400,0.000
137872.000,136576.500,193509.700,199842.800,131436.400,141170.800,141429.200,126862.600,0.000
137882.600,136583.800,193516.400,199848.000,131443.800,141175.700,141434.500,126868.500,0.000
137878.700,136577.300,193507.800,199838.100,131434.500,141168.100,141426.700,126861.000,0.000
137864.800,136563.900,193489.900,199819.600,131416.500,141157.600,141414.500,126846.400,0.000
137864.900,136564.200,193487.300,199817.800,131419.300,141160.500,141417.800,126849.800,0.000
137868.300,136564.300,193485.100,199817.300,131422.600,141156.200,141417.300,126853.800,0.000
137863.700,136558.100,193476.200,199807.500,131417.600,141150.600,141414.200,126851.600,0.000
137869.900,136565.900,193481.100,199809.200,131425.600,141159.000,141421.900,126860.100,0.000
137877.100,136571.200,193483.200,199811.200,131431.100,141168.300,141429.900,126866.800,0.000
137878.300,136570.900,193478.300,199807.400,131429.700,141171.900,141429.800,126862.500,0.000
137879.800,136570.600,193474.600,199804.500,131429.700,141167.600,141425.800,126858.300,0.000
137880.600,136570.300,193473.200,199801.500,131430.000,141161.600,141424.300,126858.200,0.000
137876.800,136568.500,193468.000,199795.300,131427.700,141159.000,141421.700,126859.000,0.000
137865.400,136560.000,193452.700,199780.600,131417.800,141157.200,141413.500,126851.500,0.000
137857.800,136551.200,193440.900,199769.400,131410.500,141146.000,141410.300,126843.400,0.000
137858.500,136552.500,193438.100,199766.300,131410.500,141152.100,141412.900,126846.100,0.000
137864.000,136555.400,193440.300,199767.700,131414.100,141151.200,141414.800,126852.500,0.000
137864.000,136555.800,193437.200,199763.800,131413.900,141157.800,141417.200,126853.700,0.000
137863.500,136555.200,193432.500,199759.700,131413.100,141158.700,141416.000,126852.800,0.000
137861.800,136551.800,193427.000,199756.700,131414.600,141155.900,141415.100,126854.000,0.000
137857.300,136549.300,193420.700,199753.000,131416.300,141164.100,141420.000,126855.900,0.000
137857.100,136548.700,193415.600,199749.100,131412.100,141151.100,141412.300,126853.200,0.000
137855.700,136548.500,193410.700,199744.200,131408.600,141149.600,141411.300,126851.100,0.000
137857.600,136552.100,193411.400,199744.700,131411.400,141158.700,141417.200,126857.200,0.000
137850.600,136546.300,193403.000,199736.400,131405.700,141157.900,141412.400,126854.000,0.000
137850.700,136546.800,193398.300,199734.000,131405.400,141156.700,141413.100,126857.700,0.000
137849.600,136548.300,193394.200,199731.500,131407.500,141161.900,141416.000,126861.700,0.000
137842.900,136544.900,193386.900,199724.400,131406.900,141164.500,141416.800,126860.700,0.000
137837.800,136541.700,193380.700,199717.700,131405.100,141170.200,141416.000,126856.500,0.000
137839.300,136544.200,193379.200,199715.400,131405.800,141183.700,141420.500,126857.400,0.000
137844.500,136547.500,193378.100,199715.900,131406.200,141179.300,141418.900,126857.200,0.000
137846.300,136548.900,193375.800,199714.100,131405.100,141174.300,141414.800,126853.400,0.000
137849.100,136552.000,193376.700,199712.500,131407.700,141177.900,141417.700,126854.600,0.000
137861.400,136563.400,193384.500,199720.900,131418.700,141187.800,141430.600,126865.600,0.000
137853.800,136556.700,193374.200,199710.300,131413.000,141185.200,141426.600,126858.600,0.000
137854.700,136555.200,193370.400,199705.700,131413.200,141174.400,141419.000,126854.100,0.000
137864.900,136564.100,193378.600,199712.700,131422.800,141183.400,141425.700,126860.800,0.000
137869.600,136569.400,193382.200,199715.000,131428.800,141188.300,141433.900,126866.400,0.000
137868.200,136568.900,193378.300,199710.400,131426.000,141181.100,141430.000,126865.700,0.000
137866.300,136566.600,193374.300,199705.500,131423.700,141173.300,141424.000,126864.800,0.000
137862.200,136560.800,193365.900,199698.700,131418.300,141166.800,141419.100,126860.400,0.000
137862.300,136560.500,193360.500,199694.500,131417.600,141170.600,141422.200,126860.500,0.000
137865.100,136562.500,193359.200,199693.600,131419.600,141174.600,141425.000,126866.500,0.000
137853.900,136552.900,193345.000,199679.700,131408.800,141166.500,141416.200,126855.800,0.000
137851.100,136552.600,193340.600,199676.300,131409.100,141169.700,141416.500,126855.000,0.000
137853.300,136555.200,193339.300,199675.700,131411.400,141174.900,141421.300,126857.500,0.000
137855.500,136554.500,193337.100,199673.200,131410.700,141170.800,141419.800,126856.700,0.000
137857.500,136554.900,193335.700,199672.100,131409.700,141168.900,141417.400,126858.500,0.000
137858.200,136556.600,193333.600,199669.600,131408.400,141168.700,141418.300,126860.700,0.000
137861.700,136560.300,193334.500,199669.100,131411.600,141171.000,141421.800,126862.500,0.000
137864.800,136564.900,193333.800,199667.800,131416.600,141176.500,141425.500,126862.100,0.000
137853.100,136553.600,193317.300,199652.300,131406.200,141162.400,141413.100,126848.700,0.000
137852.300,136552.500,193314.600,199649.300,131405.500,141159.200,141411.500,126846.700,0.000
137853.900,136555.700,193315.000,199650.400,131409.800,141165.500,141416.500,126850.600,0.000
137850.300,136551.500,193308.300,199644.200,131406.300,141159.400,141413.000,126848.800,0.000
137858.300,136558.300,193312.300,199645.900,131413.200,141162.100,141418.800,126853.700,0.000
137856.100,136553.700,193304.400,199637.800,131410.300,141157.400,141416.700,126850.000,0.000
137858.300,136551.200,193299.400,199634.100,131405.800,141153.000,141411.700,126848.500,0.000
137861.700,136552.500,193297.200,199630.500,131403.400,141155.300,141412.600,126848.500,0.000
137860.900,136552.200,193294.000,199626.400,131400.700,141147.600,141407.100,126845.600,0.000
137860.000,136553.700,193290.800,199624.900,131402.700,141146.600,141406.300,126844.000,0.000
137864.500,136563.400,193295.300,199628.900,131413.800,141165.900,141422.700,126852.000,0.000
137857.600,136557.500,193287.400,199620.200,131408.400,141170.000,141420.900,126847.400,0.000
137849.600,136550.000,193279.700,199613.300,131401.800,141157.500,141409.900,126839.900,0.000
137848.600,136547.600,193276.400,199612.400,131401.700,141145.600,141403.500,126843.100,0.000
137856.600,136556.200,193280.400,199615.900,131411.000,141157.600,141412.800,126853.000,0.000
137852.000,136551.900,193273.600,199606.300,131406.300,141156.500,141410.200,126847.900,0.000
137848.000,136547.300,193266.300,199595.800,131399.800,141150.200,141404.400,126842.200,0.000
137853.300,136552.000,193268.700,199597.100,131404.600,141155.300,141409.200,126845.500,0.000
137856.000,136556.600,193270.900,199599.100,131412.000,141167.800,141419.600,126850.700,0.000
137846.900,136548.500,193261.100,199591.300,131407.700,141159.000,141412.500,126843.800,0.000
137843.500,136543.900,193254.200,199586.300,131404.100,141149.000,141406.900,126840.600,0.000
137840.400,136542.800,193249.000,199582.600,131402.800,141150.900,141408.300,126841.100,0.000
137843.300,136546.300,193250.800,199585.400,131406.400,141151.700,141412.000,126848.200,0.000
137856.300,136559.900,193261.900,199596.400,131419.900,141163.900,141425.300,126863.400,0.000
137844.400,136548.300,193244.900,199581.400,131407.600,141152.500,141412.700,126850.400,0.000
137843.800,136544.200,193238.300,199577.600,131403.800,141148.200,141409.200,126847.500,0.000
137844.600,136543.500,193235.800,199574.200,131401.700,141143.700,141405.900,126843.400,0.000
137848.500,136548.900,193238.700,199573.500,131405.500,141149.400,141409.300,126844.900,0.000
137862.100,136562.400,193249.300,199581.700,131416.300,141166.600,141420.600,126856.800,0.000
137856.100,136553.800,193237.500,199569.700,131406.600,141157.800,141412.100,126844.800,0.000
137853.900,136550.000,193231.600,199564.100,131405.300,141154.800,141410.400,126840.700,0.000
137855.200,136551.200,193230.700,199561.400,131407.800,141159.900,141413.100,126844.500,0.000
137856.400,136551.900,193228.100,199558.900,131407.200,141156.900,141413.500,126846.500,0.000
137863.200,136557.400,193230.000,199561.700,131411.700,141160.800,141418.500,126853.300,0.000
137856.400,136550.800,193220.700,199554.700,131407.600,141157.400,141414.000,126850.100,0.000
137848.100,136544.000,193212.200,199546.400,131403.000,141149.800,141408.400,126845.800,0.000
137846.100,136543.300,193209.700,199542.900,131403.100,141147.900,141408.200,126846.400,0.000
137854.300,136555.500,193215.900,199547.200,131412.600,141159.700,141418.100,126851.900,0.000
137862.100,136566.600,193221.100,199552.200,131421.200,141174.000,141430.000,126860.700,0.000
137857.900,136563.000,193213.900,199546.300,131415.600,141166.300,141424.500,126856.700,0.000
137847.200,136549.500,193198.500,199530.800,131400.400,141146.100,141406.200,126840.900,0.000
137846.300,136548.900,193194.700,199526.200,131397.800,141147.800,141405.500,126837.400,0.000
137849.400,136553.700,193195.600,199527.100,131400.900,141154.200,141410.000,126839.700,0.000
137858.500,136564.800,193202.900,199534.700,131410.800,141166.400,141420.000,126852.100,0.000
137850.200,136557.400,193192.300,199525.500,131405.400,141162.700,141415.800,126847.600,0.000
137845.200,136554.500,193184.800,199519.200,131403.700,141159.400,141413.200,126844.600,0.000
137847.200,136558.300,193185.700,199519.500,131407.600,141163.300,141415.500,126848.100,0.000
137847.700,136558.400,193182.900,199515.700,131408.600,141165.600,141417.100,126851.900,0.000
137847.000,136554.300,193176.400,199511.600,131405.400,141163.100,141414.900,126849.600,0.000
137845.400,136548.600,193169.000,199508.000,131399.200,141150.200,141406.900,126844.900,0.000
137849.600,136552.300,193169.700,199505.900,131400.600,141155.500,141409.100,126844.000,0.000
137859.600,136560.900,193176.600,199509.100,131408.900,141165.000,141417.100,126850.200,0.000
137861.900,136563.000,193176.400,199507.300,131411.500,141164.400,141417.400,126849.500,0.000
137857.800,136559.200,193169.700,199502.100,131409.300,141159.800,141413.600,126845.600,0.000
137854.700,136557.200,193164.600,199497.300,131408.100,141160.700,141413.900,126844.900,0.000
137858.100,136558.300,193163.300,199494.800,131406.700,141162.100,141414.900,126846.000,0.000
137868.800,136564.300,193167.400,199498.500,131410.700,141165.400,141417.300,126849.700,0.000
137867.500,136559.200,193162.100,199494.300,131407.300,141157.800,141413.800,126849.200,0.000
137865.900,136554.900,193156.400,199490.100,131404.500,141152.700,141409.500,126848.700,0.000
137874.900,136563.300,193161.000,199494.300,131411.800,141157.800,141415.500,126851.900,0.000
137883.100,136571.000,193166.300,199498.400,131421.400,141167.100,141425.500,126857.500,0.000
137883.200,136568.300,193162.500,199493.200,131418.700,141167.000,141422.600,126855.000,0.000
137882.400,136568.400,193158.900,199488.300,131414.900,141157.600,141414.000,126850.900,0.000
137885.300,136572.800,193159.500,199486.300,131416.500,141159.600,141414.000,126849.800,0.000
137894.200,136581.400,193164.100,199491.200,131424.800,141173.500,141425.200,126857.700,0.000
137894.500,136581.000,193163.100,199491.600,131429.200,141176.200,141428.700,126863.000,0.000
137891.900,136579.300,193159.600,199489.400,131431.300,141178.500,141432.400,126866.400,0.000
137890.700,136577.000,193153.900,199484.200,131430.400,141177.900,141430.600,126865.200,0.000
137881.300,136566.000,193140.100,199468.500,131419.700,141170.800,141420.600,126852.900,0.000
137884.300,136566.800,193138.000,199466.500,131418.400,141163.400,141418.200,126852.100,0.000
137890.800,136574.400,193141.900,199469.400,131423.900,141170.000,141424.800,126857.200,0.000
137892.600,136576.800,193141.600,199469.300,131425.100,141168.500,141423.600,126860.800,0.000
137894.000,136578.900,193140.500,199467.700,131424.200,141167.300,141421.400,126860.800,0.000
137900.800,136586.100,193141.700,199466.800,131427.000,141175.700,141426.600,126863.200,0.000
137904.500,136589.700,193141.000,199462.600,131429.000,141180.700,141430.000,126863.700,0.000
137898.100,136581.900,193133.000,199455.900,131424.200,141174.400,141426.100,126859.400,0.000
137889.000,136574.100,193124.400,199447.900,131419.000,141169.400,141423.700,126855.400,0.000
137888.600,136574.300,193123.400,199446.900,131421.400,141172.600,141426.400,126857.700,0.000
137888.300,136575.100,193121.900,199446.100,131424.200,141180.400,141431.600,126862.600,0.000
137888.900,136574.900,193119.900,199443.500,131424.000,141170.000,141425.600,126863.100,0.000
137901.700,136586.000,193128.100,199450.500,131431.900,141177.600,141431.000,126868.900,0.000
137903.200,136584.500,193124.500,199447.200,131430.300,141180.900,141432.100,126868.300,0.000
137898.900,136579.800,193115.900,199439.700,131425.600,141176.800,141425.400,126863.900,0.000
137902.500,136584.700,193116.800,199439.000,131431.200,141182.600,141430.100,126866.700,0.000
137904.700,136586.700,193116.000,199437.700,131433.500,141180.200,141431.200,126867.100,0.000
137902.500,136585.300,193112.700,199436.200,131431.500,141176.700,141428.600,126865.200,0.000
137892.100,136577.100,193102.600,199428.400,131424.800,141173.100,141423.300,126859.700,0.000
137892.800,136580.600,193103.100,199428.400,131430.900,141176.400,141429.000,126864.000,0.000
137894.500,136585.300,193102.600,199425.800,131434.900,141181.300,141432.800,126868.300,0.000
137892.000,136586.100,193098.100,199420.800,131436.400,141186.400,141434.600,126868.900,0.000
137889.000,136586.500,193092.900,199413.700,131437.100,141190.500,141436.100,126868.800,0.000
137897.200,136595.500,193097.600,199416.200,131445.200,141199.400,141445.100,126875.600,0.000
137897.600,136594.500,193094.400,199412.700,131443.800,141194.500,141440.000,126873.800,0.000
137902.600,136598.400,193098.400,199417.700,131450.800,141200.200,141445.300,126877.000,0.000
137910.200,136605.000,193103.300,199423.100,131460.100,141207.700,141452.500,126882.500,0.000
137908.400,136601.800,193096.200,199416.100,131454.900,141204.100,141448.500,126879.100,0.000
137899.500,136589.900,193083.000,199403.200,131441.500,141188.600,141434.600,126867.400,0.000
137905.600,136598.000,193087.200,199407.000,131448.300,141195.000,141439.500,126873.200,0.000
137904.600,136603.200,193087.900,199406.500,131453.000,141200.800,141445.300,126878.700,0.000
137905.500,136607.500,193086.700,199405.300,131455.800,141205.900,141447.500,126883.300,0.000
137906.100,136609.500,193085.900,199404.600,131459.900,141210.800,141451.400,126886.800,0.000
137896.000,136599.100,193076.000,199395.000,131452.500,141203.400,141445.000,126880.000,0.000
137888.600,136589.500,193066.500,199388.500,131446.900,141195.600,141441.000,126879.700,0.000
137896.000,136596.300,193069.300,199392.200,131453.200,141203.800,141449.400,126888.900,0.000
137901.600,136601.200,193069.700,199394.500,131456.300,141209.800,141453.600,126892.300,0.000
137902.100,136603.900,193067.400,199391.100,131457.700,141213.100,141455.400,126892.600,0.000
137904.400,136608.300,193066.900,199390.400,131461.800,141214.800,141459.400,126897.400,0.000
137906.100,136609.800,193064.900,199390.000,131463.800,141218.200,141462.300,126902.800,0.000
137889.200,136593.600,193045.800,199373.600,131447.000,141203.800,141449.300,126890.100,0.000
137888.200,136591.000,193041.800,199371.100,131446.100,141202.900,141448.000,126887.700,0.000
137896.400,136600.200,193048.700,199376.300,131457.200,141222.600,141461.400,126893.400,0.000
137898.300,136600.100,193047.500,199373.000,131455.400,141215.400,141455.000,126888.000,0.000
137903.700,136601.400,193047.800,199374.400,131455.300,141199.800,141446.900,126888.200,0.000
137902.000,136599.500,193042.600,199369.800,131452.000,141200.300,141444.000,126886.000,0.000
137901.900,136599.000,193038.400,199367.300,131451.600,141200.800,141445.100,126887.400,0.000
137899.600,136598.600,193033.300,199359.700,131448.000,141198.000,141444.700,126884.700,0.000
137902.300,136601.000,193033.200,199356.700,131447.600,141198.300,141444.400,126884.800,0.000
137915.500,136613.400,193043.600,199365.300,131457.700,141211.100,141455.000,126895.100,0.000
137909.500,136606.500,193035.200,199356.600,131451.900,141203.400,141447.600,126887.100,0.000
137907.200,136602.500,193029.800,199351.400,131451.600,141201.200,141448.600,126886.100,0.000
137912.000,136607.100,193031.300,199352.900,131456.300,141210.200,141457.800,126892.100,0.000
137908.300,136601.700,193024.800,199346.500,131449.800,141194.800,141448.200,126886.400,0.000
137904.300,136598.600,193020.200,199341.100,131446.400,141190.100,141443.600,126881.800,0.000
137904.900,136604.000,193019.900,199339.900,131449.500,141200.200,141448.000,126883.400,0.000
137906.500,136607.300,193019.500,199338.100,131451.900,141202.600,141449.200,126885.000,0.000
137904.400,136605.700,193015.400,199332.700,131451.600,141202.400,141448.600,126883.400,0.000
137915.100,136615.900,193025.500,199340.800,131464.700,141216.200,141459.400,126892.400,0.000
137916.800,136617.800,193025.900,199341.500,131468.100,141219.100,141462.200,126893.500,0.000
137911.400,136610.700,193014.600,199332.800,131458.900,141209.900,141452.000,126884.100,0.000
137910.600,136611.700,193010.800,199330.100,131459.900,141210.500,141451.600,126885.100,0.000
137911.800,136615.200,193011.800,199331.600,131465.500,141216.000,141457.800,126891.000,0.000
137920.400,136624.500,193019.200,199337.100,131474.000,141218.900,141464.500,126900.500,0.000
137912.900,136619.500,193011.200,199325.300,131468.000,141211.100,141457.000,126892.100,0.000
137916.400,136621.800,193008.500,199321.900,131469.500,141217.300,141459.700,126893.300,0.000
137921.800,136624.000,193006.900,199321.200,131469.800,141215.700,141462.000,126896.400,0.000
137925.000,136624.000,193005.300,199320.400,131468.700,141207.100,141457.100,126895.100,0.000
137927.500,136624.400,193004.700,199321.300,131471.300,141213.000,141460.400,126895.600,0.000
137927.400,136622.900,193002.100,199317.800,131471.400,141214.200,141459.200,126893.200,0.000
137934.100,136633.500,193007.500,199321.000,131480.600,141230.600,141469.700,126898.100,0.000
137927.500,136630.800,193000.300,199312.600,131475.700,141229.600,141466.400,126893.700,0.000
137929.300,136633.900,193000.100,199311.000,131474.800,141227.500,141465.200,126894.300,0.000
137930.700,136635.200,192998.300,199309.800,131474.200,141228.400,141465.300,126896.600,0.000
137931.900,136636.800,192997.000,199309.500,131476.800,141230.000,141467.900,126900.900,0.000
137932.700,136636.100,192995.300,199308.400,131476.200,141227.500,141467.100,126902.800,0.000
137935.800,136634.000,192992.200,199306.800,131475.200,141219.100,141463.000,126902.100,0.000
137930.200,136624.200,192980.300,199296.500,131467.300,141206.500,141454.800,126890.700,0.000
137933.800,136626.500,192980.400,199296.200,131470.400,141213.900,141460.700,126893.400,0.000
137940.500,136637.200,192987.300,199301.700,131481.500,141231.200,141474.800,126905.000,0.000
137939.500,136636.900,192984.600,199299.300,131481.800,141226.300,141472.500,126906.100,0.000
137934.300,136630.800,192975.500,199290.800,131477.600,141215.700,141464.700,126901.400,0.000
137931.100,136626.000,192968.100,199283.300,131472.600,141205.900,141456.900,126897.000,0.000
137943.700,136638.300,192977.700,199290.900,131483.600,141217.300,141468.000,126907.700,0.000
137937.500,136632.500,192969.000,199283.200,131478.000,141216.200,141464.600,126901.400,0.000
137933.700,136627.600,192964.400,199279.500,131476.900,141215.500,141463.400,126899.400,0.000
137933.900,136628.400,192962.700,199277.400,131478.800,141216.200,141464.500,126903.300,0.000
137940.000,136635.200,192965.800,199280.900,131486.200,141227.700,141474.100,126914.100,0.000
137938.600,136631.900,192962.000,199277.700,131484.400,141225.600,141470.300,126915.300,0.000
137935.400,136630.500,192956.200,199273.500,131484.900,141229.500,141474.900,126915.300,0.000
137930.500,136627.100,192948.400,199267.600,131483.100,141231.100,141476.200,126920.200,0.000
137925.600,136623.400,192942.100,199260.800,131480.600,141229.500,141474.400,126920.600,0.000
137919.900,136618.600,192935.800,199254.800,131475.600,141225.300,141471.200,126918.800,0.000
137926.700,136626.200,192940.700,199258.000,131481.300,141234.200,141476.400,126924.700,0.000
137927.500,136624.100,192937.000,199255.400,131477.300,141226.600,141468.900,126921.500,0.000
137922.300,136615.500,192927.600,199247.400,131468.000,141212.200,141458.000,126912.000,0.000
137926.900,136624.500,192931.000,199248.400,131475.900,141222.500,141465.600,126915.900,0.000
137936.100,136640.300,192941.200,199254.500,131490.500,141244.300,141480.200,126927.300,0.000
137935.000,136636.800,192936.500,199249.100,131487.500,141243.100,141477.300,126924.300,0.000
137925.300,136624.200,192921.000,199236.100,131474.700,141227.600,141462.900,126913.100,0.000
137924.800,136624.400,192917.600,199234.100,131476.500,141232.900,141465.900,126913.600,0.000
137921.100,136621.600,192911.700,199229.700,131474.400,141229.100,141464.200,126908.800,0.000
137922.700,136624.500,192912.600,199230.900,131476.800,141228.100,141466.600,126911.700,0.000
137923.600,136625.800,192911.800,199228.300,131477.200,141232.500,141469.800,126911.800,0.000
137925.700,136629.800,192911.200,199228.500,131481.400,141241.800,141477.400,126915.700,0.000
137923.000,136624.100,192906.400,199224.100,131475.300,141224.600,141468.600,126912.500,0.000
137919.700,136620.400,192901.800,199222.300,131473.500,141214.200,141464.500,126912.400,0.000
137919.000,136625.400,192901.500,199221.500,131479.000,141221.800,141468.200,126910.800,0.000
137918.900,136627.400,192898.300,199218.600,131480.800,141227.000,141469.900,126908.600,0.000
137923.500,136632.900,192900.400,199217.800,131484.900,141235.200,141475.600,126911.400,0.000
137926.200,136636.600,192901.600,199218.300,131487.800,141239.300,141479.200,126923.100,0.000
137933.000,136641.500,192903.900,199222.400,131493.200,141237.800,141482.500,126938.900,0.000
137909.700,136618.200,192876.700,199195.700,131469.300,141219.900,141461.800,126913.500,0.000
137902.500,136613.000,192868.200,199187.200,131464.700,141221.600,141460.600,126906.300,0.000
137906.800,136616.800,192871.300,199189.500,131468.000,141217.100,141460.300,126909.000,0.000
137916.000,136625.800,192877.500,199196.200,131476.700,141225.600,141467.700,126915.400,0.000
137915.700,136626.000,192873.300,199192.000,131477.400,141231.800,141471.000,126912.500,0.000
137914.800,136624.100,192869.700,199187.500,131476.500,141230.600,141470.100,126909.900,0.000
137918.400,136626.500,192871.400,199187.400,131478.900,141228.000,141469.500,126912.600,0.000
137916.600,136626.800,192867.000,199183.800,131478.100,141233.900,141472.100,126914.300,0.000
137917.300,136628.900,192865.900,199185.300,131483.100,141240.600,141478.900,126921.100,0.000
137913.300,136628.500,192862.800,199182.400,131485.500,141241.200,141481.100,126924.800,0.000
137899.600,136616.900,192849.900,199170.200,131474.400,141227.900,141470.100,126915.100,0.000
137895.000,136614.100,192844.300,199166.000,131471.100,141227.700,141466.500,126909.900,0.000
137898.600,136619.600,192845.900,199164.900,131474.800,141233.300,141470.800,126912.000,0.000
137903.800,136622.900,192847.600,199164.300,131475.500,141227.500,141469.800,126914.200,0.000
137912.600,136630.500,192851.500,199165.500,131479.700,141236.500,141476.600,126919.400,0.000
137908.600,136625.900,192844.300,199154.400,131472.900,141232.100,141470.500,126912.000,0.000
137911.800,136626.600,192843.000,199153.700,131472.000,141226.400,141466.900,126912.600,0.000
137913.100,136624.900,192839.400,199153.200,131471.900,141223.100,141466.300,126915.500,0.000
137915.600,136625.600,192837.800,199153.700,131475.000,141228.000,141471.000,126920.700,0.000
137911.400,136620.300,192830.400,199147.900,131472.200,141223.300,141467.200,126917.500,0.000
137912.100,136620.400,192828.200,199146.100,131473.500,141224.700,141467.200,126914.400,0.000
137917.100,136625.500,192830.500,199144.900,131477.200,141230.700,141470.400,126916.100,0.000
137928.100,136636.000,192837.500,199150.400,131485.500,141240.800,141477.700,126919.400,0.000
137916.900,136623.700,192822.800,199136.500,131472.400,141226.900,141465.100,126907.800,0.000
137911.700,136618.900,192814.300,199131.500,131467.700,141226.400,141463.500,126906.900,0.000
137913.000,136621.400,192813.800,199129.100,131469.100,141226.900,141466.300,126909.700,0.000
137914.600,136623.200,192814.100,199126.700,131471.000,141223.000,141466.300,126912.600,0.000
137915.800,136622.100,192811.400,199123.300,131470.600,141222.700,141466.300,126909.500,0.000
137917.300,136622.700,192810.300,199121.200,131473.500,141223.300,141466.500,126908.300,0.000
137918.400,136624.200,192810.100,199122.700,131478.700,141228.200,141471.400,126911.900,0.000
137915.300,136620.400,192804.800,199118.800,131476.000,141231.400,141471.700,126909.800,0.000
137919.400,136622.900,192806.300,199121.300,131479.000,141233.500,141472.800,126913.900,0.000
137915.500,136617.500,192798.900,199116.300,131472.800,141223.900,141464.900,126907.000,0.000
137912.500,136618.200,192795.300,199113.900,131471.300,141226.000,141465.200,126907.200,0.000
137915.500,136622.700,192796.900,199114.100,131475.100,141232.900,141472.200,126912.600,0.000
137908.600,136615.700,192788.600,199104.800,131470.000,141231.900,141469.700,126908.900,0.000
137903.000,136609.800,192782.500,199097.300,131464.100,141222.500,141463.000,126904.600,0.000
137900.300,136606.600,192778.300,199092.900,131460.500,141215.600,141459.700,126903.500,0.000
137905.700,136612.600,192783.100,199096.100,131466.000,141222.400,141464.900,126909.500,0.000
137907.500,136615.800,192781.500,199095.000,131468.000,141222.900,141464.100,126907.800,0.000
137906.300,136616.900,192776.000,199089.500,131467.400,141229.100,141467.400,126905.600,0.000
137910.000,136619.700,192774.500,199088.100,131468.800,141230.500,141468.400,126905.200,0.000
137905.500,136617.000,192767.800,199081.700,131466.500,141231.600,141470.500,126903.500,0.000
137899.800,136611.900,192761.700,199075.300,131462.900,141227.800,141467.200,126901.100,0.000
137902.100,136613.600,192762.200,199078.000,131466.500,141223.800,141465.000,126906.400,0.000
137901.600,136612.500,192761.000,199076.600,131467.100,141221.800,141465.200,126907.200,0.000
137895.200,136606.500,192753.900,199070.000,131462.100,141216.500,141460.400,126903.400,0.000
137895.800,136611.500,192753.300,199068.200,131464.800,141223.500,141465.700,126905.700,0.000
137893.400,136610.100,192748.200,199061.700,131462.300,141225.500,141462.500,126901.000,0.000
137902.100,136618.100,192753.700,199068.700,131471.500,141240.600,141473.900,126910.500,0.000
137904.900,136618.200,192752.300,199068.200,131470.800,141239.700,141472.100,126911.200,0.000
137904.800,136616.100,192748.400,199063.400,131468.100,141238.500,141470.100,126907.800,0.000
137903.300,136615.600,192745.500,199059.500,131467.400,141240.600,141469.900,126906.500,0.000
137896.600,136609.200,192736.400,199049.800,131461.200,141235.000,141463.100,126898.400,0.000
137895.200,136608.300,192732.800,199046.500,131461.400,141232.900,141463.700,126897.900,0.000
137900.500,136612.300,192735.400,199049.800,131466.900,141235.300,141467.500,126905.700,0.000
137911.100,136621.300,192741.000,199053.800,131474.200,141242.800,141473.900,126914.600,0.000
137913.700,136622.100,192738.000,199048.900,131473.000,141237.400,141470.800,126913.100,0.000
137907.500,136618.700,192730.800,199041.900,131470.900,141241.100,141472.300,126909.700,0.000
137901.900,136610.400,192721.300,199034.500,131463.900,141223.100,141461.600,126903.200,0.000
137904.700,136611.500,192720.200,199031.800,131462.200,141215.600,141457.600,126901.700,0.000
137910.200,136616.600,192723.700,199032.500,131466.800,141224.700,141463.200,126903.000,0.000
137912.500,136617.400,192723.800,199033.900,131469.000,141225.000,141464.800,126905.900,0.000
137919.500,136626.600,192729.100,199040.900,131478.300,141238.800,141475.500,126914.400,0.000
137916.800,136623.200,192723.500,199035.900,131475.700,141238.000,141473.400,126912.400,0.000
137905.600,136610.400,192709.900,199023.200,131464.300,141224.000,141462.600,126903.800,0.000
137902.000,136604.500,192702.400,199017.100,131459.200,141218.200,141458.500,126902.800,0.000
137906.700,136608.600,192702.400,199016.200,131463.000,141227.100,141464.800,126904.600,0.000
137915.000,136615.200,192707.600,199017.700,131467.100,141227.500,141465.500,126909.200,0.000
137914.700,136613.600,192703.300,199013.100,131464.800,141224.400,141463.700,126909.600,0.000
137919.300,136619.900,192706.400,199015.300,131469.900,141233.300,141469.500,126912.700,0.000
137914.700,136616.500,192700.800,199008.700,131464.700,141229.800,141462.900,126904.900,0.000
137913.200,136615.800,192697.100,199005.500,131463.400,141230.000,141460.400,126901.700,0.000
137921.100,136621.400,192699.900,199008.200,131468.000,141229.100,141465.200,126906.200,0.000
137923.800,136622.800,192698.300,199007.300,131468.900,141230.600,141467.200,126906.300,0.000
137917.100,136615.100,192688.600,198998.600,131461.600,141230.800,141464.100,126901.400,0.000
137916.400,136613.900,192686.300,198997.300,131460.500,141224.500,141462.000,126901.900,0.000
137918.100,136615.900,192687.200,198998.600,131461.700,141214.600,141456.600,126902.300,0.000
137912.600,136612.400,192682.200,198992.100,131460.400,141219.100,141457.800,126899.400,0.000
137916.400,136617.400,192684.400,198993.600,131465.500,141222.600,141460.700,126902.600,0.000
137917.300,136618.400,192682.900,198992.000,131466.900,141222.100,141459.900,126901.500,0.000
137911.400,136613.100,192675.700,198985.300,131464.400,141217.300,141457.000,126899.000,0.000
137913.200,136619.500,192676.800,198985.600,131472.200,141229.400,141464.200,126904.800,0.000
137914.300,136623.500,192677.700,198987.100,131476.700,141236.100,141470.500,126911.500,0.000
137904.100,136614.400,192665.700,198977.600,131467.300,141224.400,141462.000,126905.000,0.000
137904.700,136618.400,192665.300,198977.100,131468.900,141228.500,141465.400,126904.100,0.000
137902.700,136617.100,192662.800,198972.900,131467.600,141225.100,141463.000,126903.000,0.000
137903.100,136616.500,192661.500,198971.400,131468.300,141226.700,141463.200,126904.400,0.000
137907.700,136620.800,192663.400,198973.400,131473.400,141235.000,141468.200,126907.800,0.000
137911.000,136625.300,192663.100,198973.700,131477.300,141239.200,141473.700,126912.000,0.000
137906.600,136622.000,192657.700,198968.400,131475.500,141235.000,141470.600,126909.400,0.000
137901.200,136616.200,192650.000,198962.200,131471.500,141229.900,141464.500,126904.800,0.000
137907.000,136623.200,192654.400,198966.900,131478.600,141238.900,141472.100,126911.700,0.000
137911.400,136627.600,192657.000,198968.400,131482.600,141241.100,141474.800,126914.900,0.000
137906.900,136623.100,192648.700,198959.500,131478.200,141239.400,141473.200,126910.800,0.000
137903.800,136620.400,192642.500,198952.000,131474.200,141238.400,141471.000,126907.600,0.000
137906.100,136619.100,192639.300,198949.000,131470.200,141225.300,141462.700,126903.200,0.000
137904.400,136615.600,192631.900,198942.700,131465.200,141223.600,141462.500,126900.600,0.000
137900.400,136613.500,192625.800,198936.300,131463.000,141226.000,141465.000,126901.000,0.000
137901.600,136615.100,192624.100,198937.100,131464.600,141228.700,141466.300,126902.800,0.000
137911.100,136623.300,192629.800,198941.400,131468.900,141224.700,141466.700,126906.800,0.000
137907.900,136616.900,192623.100,198936.200,131461.900,141213.800,141458.400,126896.600,0.000
137912.800,136622.000,192627.400,198940.300,131467.700,141226.900,141466.900,126899.000,0.000
137918.900,136628.500,192632.100,198943.300,131471.100,141227.200,141465.500,126903.300,0.000
137917.300,136623.600,192627.000,198939.600,131467.000,141213.200,141459.400,126905.100,0.000
137913.800,136620.200,192621.100,198932.100,131465.700,141215.700,141461.000,126905.100,0.000
137918.700,136624.200,192622.200,198930.600,131469.700,141228.500,141468.800,126908.200,0.000
137918.900,136621.400,192617.300,198925.000,131464.400,141213.000,141457.700,126900.000,0.000
137920.400,136625.200,192617.800,198925.800,131468.500,141224.000,141465.500,126903.500,0.000
137918.300,136624.200,192614.200,198922.600,131467.400,141222.400,141464.700,126902.600,0.000
137921.100,136624.200,192614.400,198923.300,131467.500,141217.500,141462.200,126904.800,0.000
137923.800,136627.500,192613.200,198920.700,131469.700,141225.400,141464.800,126905.100,0.000
137920.500,136623.700,192608.400,198914.600,131467.400,141219.500,141461.900,126901.900,0.000
137918.100,136626.200,192606.200,198912.800,131469.200,141224.000,141464.100,126901.200,0.000
137921.000,136630.300,192607.000,198915.700,131473.700,141227.600,141467.100,126907.200,0.000
137926.400,136635.300,192610.600,198918.100,131478.700,141231.400,141472.900,126912.700,0.000
137928.100,136637.200,192610.400,198917.400,131478.500,141231.400,141472.700,126913.300,0.000
137923.400,136634.900,192605.200,198912.200,131475.500,141232.700,141469.900,126907.000,0.000
137911.000,136621.600,192590.700,198897.100,131460.500,141215.400,141455.100,126893.000,0.000
137916.300,136624.400,192591.700,198899.300,131462.600,141215.800,141457.800,126896.900,0.000
137923.300,136630.100,192596.100,198903.800,131470.500,141222.900,141464.400,126904.400,0.000
137926.200,136634.000,192597.100,198902.500,131475.700,141231.600,141469.600,126907.100,0.000
137925.400,136635.400,192595.700,198898.500,131475.900,141236.800,141472.300,126906.300,0.000
137919.500,136626.400,192587.100,198889.900,131465.900,141222.300,141461.100,126898.400,0.000
137917.800,136623.500,192582.100,198886.000,131464.600,141224.800,141462.500,126897.700,0.000
137922.300,136628.400,192583.000,198887.900,131469.900,141231.400,141467.200,126900.000,0.000
137918.400,136625.400,192577.800,198881.000,131466.600,141217.400,141460.500,126899.200,0.000
137923.000,136625.000,192578.000,198883.200,131468.300,141214.400,141459.600,126901.400,0.000
137924.900,136625.600,192577.500,198883.000,131470.500,141222.300,141465.100,126901.500,0.000
137925.400,136629.100,192576.600,198880.200,131472.900,141224.400,141466.300,126902.300,0.000
137924.900,136629.300,192575.400,198878.700,131474.300,141222.700,141465.000,126903.900,0.000
137910.600,136611.000,192558.100,198863.300,131459.200,141210.200,141451.300,126890.900,0.000
137913.000,136611.300,192556.500,198861.600,131459.200,141211.300,141452.900,126891.000,0.000
137920.500,136618.100,192559.900,198862.700,131462.100,141216.800,141456.600,126892.600,0.000
137920.000,136620.800,192557.400,198859.500,131462.200,141221.600,141460.000,126892.600,0.000
137921.800,136625.000,192557.500,198860.100,131467.400,141224.200,141465.600,126897.400,0.000
137927.200,136629.100,192560.000,198861.200,131471.800,141220.900,141465.000,126902.600,0.000
137930.400,136634.600,192561.300,198861.300,131478.200,141232.800,141473.000,126906.300,0.000
137931.800,136637.100,192561.600,198860.500,131481.300,141235.900,141474.600,126906.400,0.000
137927.100,136631.700,192554.600,198853.500,131476.000,141227.100,141468.100,126901.100,0.000
137922.700,136626.700,192548.900,198847.200,131470.500,141220.500,141461.300,126894.500,0.000
137918.600,136623.600,192544.300,198841.200,131466.600,141219.500,141458.000,126890.800,0.000
137921.000,136626.600,192544.300,198841.900,131466.200,141224.200,141459.100,126893.400,0.000
137919.800,136622.400,192536.400,198837.500,131459.400,141214.400,141453.800,126889.000,0.000
137914.100,136617.900,192527.300,198830.800,131456.300,141207.400,141451.500,126889.200,0.000
137920.500,136627.100,192533.600,198837.400,131468.300,141218.000,141464.500,126898.900,0.000
137920.200,136625.000,192530.300,198833.300,131465.500,141208.600,141458.500,126894.300,0.000
137916.300,136618.600,192523.100,198826.800,131461.000,141205.000,141453.900,126887.300,0.000
137925.900,136627.200,192530.500,198833.900,131471.600,141220.500,141465.000,126894.500,0.000
137931.000,136631.400,192532.900,198836.300,131478.700,141227.200,141472.700,126901.500,0.000
137926.600,136626.400,192524.400,198829.500,131473.100,141219.400,141466.800,126896.300,0.000
137924.300,136624.000,192518.600,198823.500,131468.400,141217.700,141462.900,126891.800,0.000
137921.300,136621.100,192513.200,198818.200,131465.200,141218.900,141460.300,126889.500,0.000
137920.200,136623.200,192509.900,198815.100,131464.000,141222.400,141462.100,126889.200,0.000
137913.300,136616.900,192499.800,198805.800,131456.100,141218.000,141456.400,126885.800,0.000
137910.400,136613.500,192495.100,198801.400,131453.500,141216.500,141454.900,126884.800,0.000
137915.900,136617.700,192498.600,198805.500,131459.800,141223.300,141462.100,126891.200,0.000
137913.800,136619.400,192496.800,198802.600,131461.400,141224.000,141462.000,126889.000,0.000
137903.800,136612.200,192486.400,198792.500,131454.300,141214.700,141453.800,126881.600,0.000
137905.900,136613.400,192486.600,198794.600,131459.000,141217.700,141457.600,126886.800,0.000
137913.000,136619.700,192491.300,198797.100,131464.400,141214.200,141460.300,126889.000,0.000
137912.100,136620.500,192487.500,198792.400,131462.100,141213.300,141458.100,126884.100,0.000
137908.800,136618.300,192481.300,198784.400,131458.500,141210.500,141456.500,126881.200,0.000
137909.200,136616.900,192477.000,198781.800,131459.600,141215.500,141460.200,126884.400,0.000
137916.100,136621.300,192480.200,198787.600,131466.300,141220.800,141466.200,126893.500,0.000
137916.600,136622.700,192480.600,198787.700,131467.500,141214.000,141462.800,126894.300,0.000
137905.700,136614.700,192470.500,198776.900,131461.500,141213.200,141457.700,126886.700,0.000
137897.600,136608.400,192464.200,198770.000,131458.200,141209.000,141455.400,126885.300,0.000
137902.800,136615.900,192468.900,198774.800,131464.700,141220.500,141463.200,126891.400,0.000
137900.500,136614.600,192463.000,198769.300,131459.900,141219.500,141460.200,126889.200,0.000
137904.900,136619.400,192463.500,198768.600,131460.300,141220.700,141461.500,126892.000,0.000
137904.600,136620.700,192461.500,198765.100,131461.400,141229.500,141465.800,126892.700,0.000
137905.600,136621.900,192461.400,198763.300,131463.000,141217.100,141459.100,126894.000,0.000
137907.900,136628.200,192464.200,198765.100,131471.200,141228.400,141470.500,126902.100,0.000
137912.300,136632.100,192467.000,198767.200,131478.700,141233.000,141478.100,126905.900,0.000
137907.900,136625.000,192461.700,198762.800,131475.700,141227.600,141474.200,126900.500,0.000
137908.600,136624.100,192460.800,198764.300,131477.700,141227.000,141476.600,126903.600,0.000
137904.800,136623.100,192457.300,198759.200,131477.800,141227.600,141478.000,126902.800,0.000
137898.700,136620.400,192450.400,198752.800,131474.700,141225.800,141475.100,126900.900,0.000
137898.100,136622.700,192447.800,198750.900,131475.000,141226.700,141474.100,126903.100,0.000
137896.800,136621.300,192444.800,198747.700,131475.200,141224.100,141471.600,126904.400,0.000
137896.000,136618.300,192441.700,198748.100,131476.000,141224.500,141470.900,126908.400,0.000
137900.600,136623.700,192446.500,198750.700,131481.300,141231.600,141473.200,126910.000,0.000
137909.700,136638.300,192456.500,198756.700,131495.200,141249.400,141486.500,126921.300,0.000
137911.700,136642.600,192457.700,198756.900,131497.600,141251.700,141487.300,126924.400,0.000
137906.100,136636.300,192449.500,198750.300,131489.600,141243.600,141480.600,126921.400,0.000
137905.300,136632.300,192444.800,198748.900,131486.400,141239.200,141479.700,126923.700,0.000
137905.100,136631.100,192442.600,198748.200,131484.900,141231.700,141478.200,126925.100,0.000
137908.300,136636.800,192443.400,198748.200,131488.600,141237.600,141483.900,126930.600,0.000
137904.500,136635.400,192436.500,198742.400,131487.400,141238.400,141484.100,126929.200,0.000
137900.200,136628.700,192427.400,198736.400,131480.200,141228.900,141475.300,126923.100,0.000
137902.100,136630.200,192428.100,198740.100,131483.100,141230.900,141478.400,126924.300,0.000
137894.800,136623.200,192420.800,198730.100,131477.800,141223.300,141472.400,126915.400,0.000
137886.500,136614.600,192410.900,198719.400,131470.400,141215.100,141463.000,126904.900,0.000
137888.000,136614.100,192408.200,198718.500,131470.300,141213.500,141463.100,126903.600,0.000
137890.500,136612.700,192404.500,198714.300,131467.800,141211.700,141459.500,126899.600,0.000
137897.800,136618.400,192407.000,198717.400,131473.800,141221.500,141466.700,126905.000,0.000
137895.900,136612.900,192400.800,198715.800,131471.400,141213.000,141462.800,126904.400,0.000
137895.300,136612.500,192396.700,198712.200,131470.200,141210.800,141460.300,126902.500,0.000
137903.900,136625.000,192403.900,198718.100,131481.500,141224.900,141471.300,126912.600,0.000
137905.700,136622.800,192404.100,198719.200,131482.600,141223.800,141472.300,126915.200,0.000
137904.400,136618.400,192401.300,198715.300,131481.200,141221.500,141472.600,126914.600,0.000
137907.800,136622.500,192403.600,198717.400,131486.200,141226.700,141478.600,126921.900,0.000
137897.200,136612.900,192391.100,198707.300,131475.700,141219.000,141469.800,126915.100,0.000
137892.200,136607.800,192383.300,198699.500,131468.000,141211.400,141463.600,126910.800,0.000
137897.900,136614.200,192384.900,198700.800,131472.500,141222.200,141470.700,126914.000,0.000
137897.800,136616.200,192381.300,198697.400,131474.600,141226.200,141473.000,126913.500,0.000
137898.500,136618.700,192379.300,198695.600,131477.300,141231.000,141479.000,126916.300,0.000
137896.900,136618.000,192377.500,198692.500,131477.700,141223.600,141476.600,126918.400,0.000
137891.000,136611.700,192372.900,198688.500,131475.100,141216.700,141471.900,126915.500,0.000
137886.000,136609.300,192369.000,198683.600,131473.100,141218.000,141472.300,126910.400,0.000
137889.300,136610.200,192368.200,198682.700,131470.900,141211.100,141467.300,126907.500,0.000
137895.400,136614.400,192369.800,198684.100,131472.400,141214.900,141470.500,126909.600,0.000
137891.900,136608.500,192362.600,198676.000,131465.300,141211.300,141465.800,126903.100,0.000
137887.100,136602.200,192353.200,198668.200,131459.300,141208.000,141462.100,126898.500,0.000
137895.800,136612.600,192359.200,198673.600,131469.000,141217.300,141467.000,126903.000,0.000
137905.900,136624.300,192367.400,198680.700,131479.900,141227.500,141473.700,126909.900,0.000
137905.900,136622.200,192363.300,198675.800,131475.600,141222.700,141468.300,126907.300,0.000
137900.300,136615.900,192358.000,198672.200,131474.900,141219.800,141467.100,126908.200,0.000
137898.700,136614.700,192357.200,198674.100,131478.000,141219.700,141468.900,126915.500,0.000
137902.100,136619.000,192359.900,198677.300,131482.700,141226.600,141475.300,126923.100,0.000
137899.400,136615.200,192355.200,198671.200,131478.600,141224.500,141471.000,126920.700,0.000
137902.100,136618.200,192356.100,198671.200,131481.300,141230.700,141474.100,126924.800,0.000
137903.200,136619.500,192355.100,198671.200,131482.500,141232.000,141474.800,126930.500,0.000
137899.000,136616.100,192348.100,198663.500,131477.200,141229.000,141470.500,126926.000,0.000
137895.000,136614.300,192342.000,198657.000,131473.700,141229.400,141467.800,126922.100,0.000
137895.300,136617.300,192340.700,198654.600,131474.200,141233.300,141469.200,126923.100,0.000
137902.000,136624.800,192345.200,198656.400,131481.500,141242.700,141476.100,126928.700,0.000
137897.500,136619.700,192338.900,198649.000,131477.400,141236.000,141470.400,126921.800,0.000
137897.400,136617.200,192336.400,198648.900,131476.600,141231.900,141468.600,126921.100,0.000
137892.500,136613.300,192331.300,198646.200,131473.900,141225.300,141465.100,126918.200,0.000
137893.500,136615.500,192332.100,198645.300,131476.900,141224.900,141468.500,126920.200,0.000
137898.300,136619.100,192334.400,198646.300,131481.400,141226.500,141473.600,126922.900,0.000
137903.200,136623.200,192337.500,198649.200,131487.500,141227.500,141477.900,126927.400,0.000
137903.900,136622.700,192335.500,198645.500,131488.100,141226.200,141478.400,126923.500,0.000
137903.000,136621.200,192331.100,198640.200,131486.400,141221.900,141475.600,126918.800,0.000
137902.600,136621.300,192328.700,198638.800,131488.200,141220.900,141474.300,126918.400,0.000
137902.200,136620.200,192327.700,198640.800,131489.800,141217.900,141471.700,126920.000,0.000
137883.900,136601.200,192308.300,198622.200,131472.100,141197.200,141453.100,126905.200,0.000
137869.000,136584.500,192291.200,198605.700,131458.000,141181.600,141438.300,126889.200,0.000
137863.400,136580.400,192286.500,198600.300,131452.900,141175.700,141433.600,126884.700,0.000
137860.400,136577.100,192282.300,198595.300,131446.600,141173.700,141428.000,126879.100,0.000
137853.900,136569.700,192272.900,198583.700,131435.700,141168.900,141419.800,126869.100,0.000
137841.300,136556.700,192257.400,198567.400,131419.700,141156.500,141407.000,126855.300,0.000
137844.500,136559.200,192257.600,198571.000,131423.600,141159.100,141413.000,126860.500,0.000
137871.300,136587.000,192281.600,198595.600,131450.300,141185.100,141440.100,126884.400,0.000
137878.700,136597.900,192285.600,198597.800,131459.900,141195.200,141451.500,126891.400,0.000
137878.400,136599.500,192282.600,198593.600,131461.400,141198.500,141454.400,126891.100,0.000
137916.500,136637.800,192318.700,198627.300,131498.300,141235.300,141491.700,126928.400,0.000
137927.600,136646.200,192327.500,198637.300,131508.200,141238.900,141498.400,126940.700,0.000
137939.200,136658.200,192338.400,198646.200,131520.200,141252.800,141511.200,126954.500,0.000
137945.200,136664.300,192342.800,198649.500,131525.200,141261.200,141517.700,126961.100,0.000
137937.800,136657.400,192334.800,198641.200,131518.400,141257.700,141511.800,126957.300,0.000
137941.300,136662.500,192338.100,198643.400,131523.800,141261.900,141517.500,126965.200,0.000
137933.300,136657.400,192328.200,198634.900,131518.900,141257.500,141511.000,126959.300,0.000
137918.100,136644.100,192310.800,198617.900,131506.900,141249.700,141500.300,126945.000,0.000
137917.800,136644.600,192307.100,198613.900,131506.100,141251.500,141501.200,126944.300,0.000
137916.200,136641.900,192301.500,198607.400,131501.000,141246.200,141496.300,126938.600,0.000
137922.900,136648.600,192307.100,198612.500,131507.000,141255.400,141503.500,126946.200,0.000
137920.800,136644.700,192304.000,198609.700,131504.300,141250.000,141501.600,126946.900,0.000
137914.700,136634.300,192294.600,198601.000,131493.000,141238.600,141489.000,126936.400,0.000
137901.100,136617.100,192276.200,198586.600,131476.000,141224.200,141473.000,126920.500,0.000
137899.100,136614.000,192271.100,198584.600,131474.200,141220.200,141469.800,126921.000,0.000
137900.000,136617.500,192270.900,198584.100,131479.000,141228.800,141475.600,126923.700,0.000
137924.400,136643.900,192293.300,198606.200,131506.000,141257.300,141503.600,126948.400,0.000
137922.400,136641.200,192288.500,198603.500,131505.000,141252.700,141501.300,126947.500,0.000
137915.300,136631.400,192276.500,198593.600,131496.000,141239.600,141492.500,126935.200,0.000
137916.300,136628.100,192271.400,198587.900,131490.600,141233.400,141490.200,126930.800,0.000
137915.600,136625.900,192268.700,198584.200,131488.700,141229.400,141488.000,126930.000,0.000
137922.400,136632.100,192275.400,198591.400,131497.900,141239.500,141496.000,126935.700,0.000
137932.500,136638.900,192284.200,198600.400,131505.100,141244.800,141502.000,126942.600,0.000
137920.600,136624.200,192268.700,198585.100,131489.700,141229.900,141486.500,126928.700,0.000
137916.300,136615.600,192259.300,198577.600,131482.300,141222.100,141479.000,126925.600,0.000
137911.400,136609.900,192251.500,198569.600,131477.300,141213.500,141474.500,126924.600,0.000
137917.700,136618.200,192256.700,198575.200,131487.800,141222.400,141485.500,126935.400,0.000
137919.900,136622.500,192257.900,198577.000,131491.500,141220.500,141486.800,126938.800,0.000
137923.800,136626.400,192259.300,198580.000,131494.700,141218.700,141486.000,126939.000,0.000
137925.400,136625.000,192257.900,198580.600,131494.800,141220.200,141486.600,126939.500,0.000
137924.400,136618.900,192254.300,198578.500,131490.700,141212.700,141480.400,126938.800,0.000
137930.500,136627.800,192259.600,198581.500,131498.200,141225.300,141489.600,126943.300,0.000
137924.700,136625.800,192253.500,198575.000,131494.300,141232.600,141489.000,126936.300,0.000
137921.800,136624.100,192247.700,198567.900,131490.700,141235.000,141487.000,126930.100,0.000
137917.800,136615.800,192238.800,198558.100,131483.200,141220.500,141476.200,126923.400,0.000
137918.900,136617.100,192238.300,198556.200,131484.900,141218.400,141472.000,126923.000,0.000
137929.000,136628.400,192246.600,198564.800,131497.600,141224.900,141481.900,126934.000,0.000
137927.300,136626.200,192241.100,198559.000,131496.800,141226.000,141485.100,126931.500,0.000
137926.700,136622.500,192236.000,198555.100,131493.400,141216.300,141480.600,126927.600,0.000
137926.300,136622.200,192233.500,198553.800,131496.100,141219.100,141485.000,126930.200,0.000
137925.300,136622.800,192231.700,198550.200,131499.300,141229.300,141492.600,126932.700,0.000
137929.600,136627.100,192234.300,198551.300,131502.200,141217.700,141488.000,126936.700,0.000
137935.600,136633.600,192241.200,198555.500,131511.300,141223.300,141495.000,126943.900,0.000
137931.400,136626.400,192236.900,198550.000,131506.300,141213.100,141487.800,126936.100,0.000
137927.100,136621.300,192229.300,198542.900,131499.700,141205.500,141481.500,126929.600,0.000
137931.700,136627.300,192231.100,198545.400,131504.100,141212.200,141486.400,126933.900,0.000
137931.400,136626.300,192228.700,198544.800,131504.600,141212.300,141487.400,126934.000,0.000
137923.300,136616.900,192219.300,198537.000,131496.500,141203.300,141479.900,126931.500,0.000
137919.000,136614.100,192212.500,198532.000,131493.400,141203.900,141476.500,126932.000,0.000
137928.100,136628.100,192219.600,198539.600,131505.900,141224.800,141490.600,126943.800,0.000
137935.800,136640.500,192227.500,198547.600,131518.200,141246.500,141506.600,126959.200,0.000
137931.100,136639.400,192222.300,198542.400,131517.500,141257.700,141511.000,126959.300,0.000
137918.900,136625.300,192206.900,198526.800,131503.500,141238.300,141493.600,126949.000,0.000
137920.000,136622.900,192204.700,198526.100,131501.500,141226.400,141487.600,126950.200,0.000
137924.000,136628.900,192207.100,198529.500,131508.400,141234.200,141493.900,126955.100,0.000
137922.900,136630.500,192204.200,198527.500,131510.100,141235.800,141494.100,126954.400,0.000
137928.100,136638.300,192207.200,198529.600,131517.100,141246.200,141500.100,126958.600,0.000
137928.800,136638.100,192204.800,198525.000,131517.900,141251.100,141502.500,126958.900,0.000
137933.300,136639.600,192208.100,198525.400,131522.200,141247.900,141504.000,126963.400,0.000
137942.400,136647.600,192214.600,198532.900,131529.800,141258.700,141515.000,126973.000,0.000
137928.900,136626.000,192193.500,198514.300,131509.000,141236.900,141496.100,126954.400,0.000
137926.400,136617.700,192188.000,198508.800,131503.600,141221.600,141487.800,126950.400,0.000
137930.800,136624.200,192195.400,198514.300,131512.300,141229.900,141499.000,126958.500,0.000
137927.800,136619.700,192191.700,198509.900,131507.500,141224.400,141491.700,126954.600,0.000
137929.800,136621.800,192190.400,198507.800,131506.300,141226.000,141490.600,126950.500,0.000
137936.700,136629.600,192194.700,198510.000,131510.500,141234.800,141492.900,126949.000,0.000
137945.200,136637.900,192200.700,198514.000,131515.800,141243.600,141501.400,126953.100,0.000
137930.800,136622.900,192183.500,198499.200,131499.000,141222.000,141483.200,126938.200,0.000
137942.700,136635.200,192192.600,198507.900,131508.500,141236.700,141493.600,126946.200,0.000
137940.500,136634.300,192187.200,198500.800,131504.500,141243.000,141493.300,126941.500,0.000
137940.800,136635.800,192184.400,198497.900,131506.300,141250.800,141497.400,126944.200,0.000
137932.600,136625.200,192173.100,198488.300,131499.900,141231.700,141487.400,126939.400,0.000
137931.300,136625.100,192172.000,198486.500,131502.900,141239.900,141493.800,126940.600,0.000
137922.200,136612.900,192161.200,198476.200,131490.300,141212.000,141471.700,126929.500,0.000
137910.200,136599.700,192147.200,198462.300,131477.200,141197.000,141456.500,126918.700,0.000
137902.800,136591.700,192137.500,198453.200,131472.600,141195.300,141458.800,126916.300,0.000
137913.000,136598.300,192141.700,198458.700,131482.000,141196.100,141462.300,126920.700,0.000
137929.500,136616.200,192156.300,198473.400,131503.100,141214.200,141486.500,126939.900,0.000
137910.500,136597.300,192137.700,198457.600,131485.300,141189.300,141464.300,126921.200,0.000
137898.900,136587.400,192125.500,198444.900,131475.700,141183.900,141461.200,126913.300,0.000
137899.800,136590.400,192124.500,198444.100,131476.800,141188.500,141464.700,126918.100,0.000
137901.400,136592.300,192124.100,198444.500,131478.200,141190.700,141467.600,126921.300,0.000
137913.600,136602.700,192133.500,198454.400,131488.700,141198.800,141478.400,126935.400,0.000
137916.100,136604.300,192134.500,198457.600,131491.800,141199.900,141483.200,126943.400,0.000
137904.000,136590.800,192119.200,198440.900,131475.100,141183.700,141456.400,126920.200,0.000
137896.300,136584.200,192109.500,198428.800,131465.900,141179.500,141448.800,126908.200,0.000
137893.400,136581.500,192105.300,198423.100,131465.700,141178.300,141449.700,126907.100,0.000
137886.200,136573.100,192095.000,198413.600,131457.200,141171.200,141440.000,126898.900,0.000
137887.800,136575.300,192094.800,198413.100,131458.900,141181.600,141444.800,126899.700,0.000
137890.500,136578.200,192097.000,198415.400,131463.000,141191.300,141450.100,126902.100,0.000
137903.400,136595.200,192110.600,198424.000,131477.300,141209.600,141455.600,126905.200,0.000
137908.500,136604.800,192115.600,198427.500,131487.500,141224.200,141468.300,126911.100,0.000
137909.000,136609.700,192114.200,198426.400,131491.700,141230.000,141476.500,126914.000,0.000
137906.800,136608.800,192111.200,198424.800,131492.300,141227.600,141478.000,126915.800,0.000
137906.100,136606.600,192109.100,198423.800,131492.000,141222.100,141477.000,126916.600,0.000
137905.800,136605.000,192106.200,198420.200,131489.300,141219.300,141470.900,126915.400,0.000
137907.600,136602.800,192102.300,198415.800,131486.100,141210.500,141464.200,126908.800,0.000
137897.800,136592.000,192089.300,198404.500,131476.100,141202.300,141457.400,126902.100,0.000
137909.300,136603.200,192099.800,198415.500,131488.100,141208.100,141469.000,126914.500,0.000
137900.300,136594.800,192090.500,198405.800,131482.200,141200.500,141466.100,126911.100,0.000
137896.800,136591.800,192084.000,198400.000,131479.800,141200.400,141468.300,126913.100,0.000
137890.800,136586.800,192074.500,198389.500,131474.100,141195.400,141458.800,126904.200,0.000
137884.000,136579.000,192064.900,198379.000,131466.600,141185.300,141445.400,126893.000,0.000
137877.000,136570.200,192056.500,198371.600,131458.100,141176.000,141435.700,126886.500,0.000
137874.400,136567.700,192051.000,198367.800,131455.300,141173.900,141436.800,126881.600,0.000
137873.200,136568.500,192048.100,198364.000,131453.700,141177.600,141435.700,126878.900,0.000
137875.700,136570.400,192048.200,198362.600,131453.600,141176.000,141434.300,126878.800,0.000
137859.000,136552.600,192030.400,198344.200,131436.000,141157.100,141417.000,126863.300,0.000
137853.000,136547.800,192023.300,198336.800,131430.200,141153.000,141411.500,126857.200,0.000
137859.400,136555.100,192027.900,198341.300,131437.700,141161.600,141420.700,126863.000,0.000
137865.200,136562.800,192032.200,198344.700,131445.100,141172.500,141431.200,126871.500,0.000
137860.000,136558.400,192024.000,198337.000,131440.600,141169.000,141426.900,126868.600,0.000
137866.800,136565.400,192028.700,198341.300,131448.500,141176.200,141433.600,126878.000,0.000
137881.900,136579.300,192040.100,198353.500,131461.900,141187.900,141443.600,126887.600,0.000
137872.400,136568.100,192028.400,198342.300,131452.300,141176.600,141436.400,126879.300,0.000
137865.200,136560.800,192020.200,198335.300,131446.500,141172.700,141432.700,126876.400,0.000
137872.500,136566.700,192025.300,198340.600,131453.100,141178.000,141440.200,126885.900,0.000
137867.900,136561.300,192019.000,198333.600,131448.100,141169.500,141436.200,126886.200,0.000
137872.600,136567.500,192024.100,198338.500,131455.400,141181.100,141445.500,126896.900,0.000
137873.500,136571.200,192025.400,198340.300,131458.300,141180.900,141445.900,126899.600,0.000
137872.500,136572.700,192022.900,198336.500,131458.100,141184.000,141448.000,126898.600,0.000
137875.500,136572.100,192020.900,198334.200,131458.800,141184.900,141448.000,126897.000,0.000
137871.800,136568.400,192015.200,198328.500,131455.600,141183.100,141445.300,126895.200,0.000
137865.000,136563.300,192005.700,198320.900,131448.200,141180.400,141438.700,126890.800,0.000
137863.600,136560.500,192001.200,198315.200,131441.500,141171.800,141429.900,126884.200,0.000
137856.800,136550.800,191991.700,198305.600,131430.800,141158.300,141419.300,126875.000,0.000
137864.800,136560.200,191997.300,198308.200,131437.600,141164.900,141425.100,126879.500,0.000
137865.900,136560.800,191996.800,198306.000,131438.100,141165.000,141425.000,126877.700,0.000
137861.900,136553.200,191990.300,198299.600,131432.600,141156.300,141417.100,126871.800,0.000
137865.900,136558.500,191992.600,198303.500,131438.400,141160.400,141421.600,126877.800,0.000
137857.900,136551.800,191983.000,198294.800,131432.600,141158.800,141418.500,126874.800,0.000
137857.500,136553.200,191978.400,198288.100,131432.600,141162.200,141418.000,126868.300,0.000
137874.600,136568.700,191989.500,198298.100,131444.900,141177.000,141429.600,126876.400,0.000
137869.900,136561.000,191981.200,198289.500,131434.400,141170.100,141422.900,126867.300,0.000
137860.900,136545.500,191966.500,198275.500,131417.200,141151.200,141406.900,126854.700,0.000
137863.700,136546.700,191966.500,198275.200,131418.800,141152.300,141408.600,126856.300,0.000
137869.000,136550.700,191968.100,198276.800,131421.800,141148.400,141407.300,126859.700,0.000
137874.600,136557.500,191971.100,198276.400,131427.400,141166.700,141414.800,126863.800,0.000
137872.100,136551.200,191965.500,198271.100,131421.800,141157.400,141412.800,126862.800,0.000
137861.900,136536.400,191951.600,198258.500,131409.300,141136.300,141397.900,126853.400,0.000
137865.000,136538.600,191951.500,198258.600,131411.800,141144.900,141397.700,126852.500,0.000
137864.800,136535.800,191948.700,198258.100,131409.400,141140.400,141395.100,126851.400,0.000
137857.700,136528.900,191939.900,198250.900,131403.000,141136.200,141389.500,126844.400,0.000
137860.700,136535.200,191942.600,198252.300,131408.300,141144.300,141394.100,126846.700,0.000
137871.000,136549.800,191952.000,198259.000,131420.000,141153.900,141407.500,126856.700,0.000
137862.400,136543.600,191945.000,198251.700,131418.300,141152.900,141408.900,126858.600,0.000
137853.900,136533.200,191934.300,198240.100,131410.500,141143.400,141399.400,126849.600,0.000
137853.100,136532.300,191933.000,198236.600,131410.700,141142.300,141398.800,126849.700,0.000
137865.200,136542.000,191941.300,198245.300,131420.000,141149.000,141406.900,126860.300,0.000
137868.300,136542.300,191941.400,198245.300,131420.000,141155.400,141412.200,126861.200,0.000
137876.600,136549.600,191946.200,198247.200,131425.000,141162.000,141417.400,126863.900,0.000
137878.100,136551.200,191946.900,198248.500,131424.500,141155.800,141413.100,126863.200,0.000
137861.400,136535.800,191927.500,198227.600,131404.500,141134.800,141393.300,126842.900,0.000
137857.600,136535.700,191920.800,198220.500,131401.400,141138.100,141392.000,126838.300,0.000
137850.500,136530.300,191911.100,198211.100,131396.200,141137.100,141389.200,126833.500,0.000
137847.200,136524.800,191906.500,198208.000,131393.700,141128.800,141385.500,126834.100,0.000
137853.200,136531.900,191912.400,198215.200,131402.900,141141.300,141393.500,126840.000,0.000
137866.500,136544.600,191923.800,198225.200,131413.700,141141.600,141399.300,126850.300,0.000
137871.600,136549.700,191927.000,198225.500,131416.100,141142.800,141401.000,126853.500,0.000
137884.300,136561.700,191937.000,198233.900,131428.000,141154.000,141413.600,126862.300,0.000
137880.100,136558.100,191930.100,198228.300,131426.800,141158.300,141414.800,126863.900,0.000
137886.000,136562.700,191931.800,198230.600,131432.300,141165.800,141422.000,126871.500,0.000
137881.600,136559.000,191926.900,198224.600,131428.400,141160.000,141416.000,126866.300,0.000
137858.300,136536.400,191903.100,198203.800,131408.100,141136.000,141394.800,126846.500,0.000
137859.600,136542.400,191904.600,198205.800,131414.700,141145.300,141402.400,126851.900,0.000
137866.300,136551.600,191911.700,198213.500,131425.400,141159.700,141414.800,126861.900,0.000
137879.800,136564.700,191921.900,198224.700,131434.900,141165.300,141422.400,126873.500,0.000
137875.700,136560.000,191915.900,198217.300,131428.900,141162.500,141418.400,126867.900,0.000
137872.100,136555.800,191911.900,198212.200,131424.300,141157.000,141413.100,126861.000,0.000
137865.500,136547.100,191903.900,198205.800,131418.100,141147.500,141404.700,126854.900,0.000
137869.900,136551.200,191906.600,198209.500,131422.500,141153.900,141410.200,126860.500,0.000
137870.100,136553.300,191905.600,198207.200,131424.300,141154.400,141411.700,126862.200,0.000
137871.900,136556.300,191904.800,198206.400,131424.800,141148.700,141410.200,126862.300,0.000
137867.600,136552.500,191898.100,198201.500,131422.500,141148.800,141407.500,126859.400,0.000
137863.200,136548.100,191891.700,198195.900,131419.700,141149.400,141406.800,126856.700,0.000
137859.200,136545.100,191884.900,198190.800,131416.900,141149.100,141403.800,126851.600,0.000
137854.300,136541.000,191879.900,198183.800,131415.800,141146.400,141402.900,126851.400,0.000
137842.000,136529.300,191866.800,198169.400,131404.500,141130.400,141391.300,126841.300,0.000
137857.000,136544.500,191878.700,198182.100,131418.700,141143.200,141404.700,126857.900,0.000
137874.600,136564.600,191894.900,198197.700,131435.200,141166.600,141423.400,126875.500,0.000
137865.800,136554.300,191884.900,198190.100,131425.800,141156.500,141413.600,126868.100,0.000
137877.400,136565.900,191893.200,198200.000,131439.100,141174.000,141435.500,126884.000,0.000
137882.000,136568.100,191892.100,198199.500,131438.400,141165.800,141430.400,126886.300,0.000
137877.100,136564.600,191883.900,198192.800,131432.400,141163.200,141423.200,126881.600,0.000
137870.100,136555.100,191873.300,198183.500,131422.500,141150.500,141411.900,126875.600,0.000
137873.300,136557.500,191872.800,198181.000,131424.700,141152.100,141413.900,126878.900,0.000
137885.600,136570.800,191881.800,198189.200,131438.700,141174.300,141430.100,126889.500,0.000
137879.000,136561.200,191872.800,198182.100,131431.900,141163.100,141424.000,126886.500,0.000
137884.400,136562.800,191876.400,198184.700,131434.600,141157.500,141421.500,126892.100,0.000
137861.100,136542.200,191852.500,198160.500,131413.300,141137.100,141398.900,126872.000,0.000
137854.800,136539.800,191845.100,198153.400,131411.200,141138.600,141398.400,126869.000,0.000
137864.200,136550.900,191851.100,198160.500,131421.200,141145.000,141407.300,126877.300,0.000
137878.200,136568.000,191863.300,198170.800,131435.800,141160.700,141421.300,126885.300,0.000
137876.500,136569.400,191861.600,198171.300,131439.300,141173.000,141429.400,126885.600,0.000
137873.800,136563.400,191856.800,198168.400,131435.600,141162.500,141421.100,126881.400,0.000
137869.700,136553.600,191850.900,198164.200,131429.300,141146.100,141412.000,126875.200,0.000
137864.200,136549.600,191846.200,198155.700,131425.000,141148.500,141411.000,126867.100,0.000
137851.800,136537.400,191834.100,198143.400,131413.200,141133.100,141392.800,126851.800,0.000
137847.500,136534.400,191831.300,198140.100,131409.800,141112.600,141381.600,126850.700,0.000
137861.200,136553.700,191846.200,198154.300,131429.500,141145.400,141406.300,126870.200,0.000
137871.900,136564.700,191853.800,198162.500,131441.100,141161.400,141420.500,126879.700,0.000
137863.400,136553.600,191842.000,198152.300,131431.700,141146.300,141411.200,126872.900,0.000
137860.700,136553.900,191838.600,198148.500,131430.000,141151.400,141413.800,126869.900,0.000
137849.300,136545.300,191827.200,198135.800,131418.600,141146.400,141405.000,126857.100,0.000
137854.200,136551.500,191831.100,198138.000,131423.900,141151.100,141411.700,126865.300,0.000
137867.200,136564.700,191842.200,198146.300,131435.000,141162.900,141421.400,126873.800,0.000
137872.300,136571.200,191846.900,198148.600,131442.200,141171.500,141429.400,126877.800,0.000
137861.800,136562.400,191836.200,198139.400,131436.100,141164.800,141422.400,126870.800,0.000
137857.300,136559.700,191831.200,198135.800,131435.700,141165.200,141424.100,126870.700,0.000
137863.900,136565.400,191834.700,198139.100,131442.000,141171.700,141428.800,126876.900,0.000
137867.000,136569.500,191834.200,198138.600,131444.700,141177.300,141431.400,126878.200,0.000
137859.700,136564.000,191824.700,198128.600,131439.800,141177.200,141428.300,126872.800,0.000
137862.500,136566.200,191825.000,198126.800,131441.100,141179.100,141425.200,126872.900,0.000
137869.200,136570.800,191830.100,198131.200,131447.300,141182.600,141430.300,126880.700,0.000
137860.600,136555.200,191818.000,198122.500,131433.300,141162.800,141414.500,126869.800,0.000
137866.300,136562.700,191819.600,198124.400,131437.900,141176.200,141424.300,126878.400,0.000
