EEG 1, EEG 2, EEG 3, EEG 4, EEG 5, EEG 6, EEG 7, EEG 8, TRIG
750000.100,750000.100,750000.100,750000.100,750000.100,750000.100,750000.100,750000.100,0.000
750000.100,750000.100,453295.200,750000.100,417516.400,569298.100,750000.100,750000.100,0.000
629560.100,750000.100,350492.200,603348.800,-217424.100,245732.500,750000.100,668198.800,0.000
608726.100,750000.100,343513.900,595525.000,-426463.400,240822.100,750000.100,601105.900,0.000
612421.400,750000.100,322591.000,681195.800,-625803.000,343052.900,750000.100,660485.800,0.000
616313.300,621809.400,450878.600,728621.400,-750000.100,459126.400,750000.100,750000.100,0.000
750000.100,545181.500,677054.800,750000.100,-256788.100,584876.600,750000.100,750000.100,0.000
750000.100,750000.100,750000.100,750000.100,750000.100,634405.700,750000.100,750000.100,0.000
750000.100,750000.100,750000.100,750000.100,750000.100,750000.100,750000.100,750000.100,0.000
750000.100,750000.100,750000.100,750000.100,750000.100,750000.100,750000.100,750000.100,0.000
750000.100,750000.100,750000.100,750000.100,750000.100,750000.100,750000.100,750000.100,0.000
750000.100,750000.100,750000.100,750000.100,750000.100,750000.100,750000.100,750000.100,0.000
750000.100,746071.100,750000.100,750000.100,716224.400,750000.100,750000.100,689702.400,0.000
627174.100,622600.400,750000.100,750000.100,597744.100,641624.000,641073.400,575643.800,0.000
532598.300,528629.600,730188.500,750000.100,507656.800,544682.800,544617.200,488911.200,0.000
457255.800,453718.900,626435.200,644571.700,435850.000,467348.300,467730.100,419725.100,0.000
395286.900,391973.900,541179.200,557088.800,376729.400,403762.900,404499.600,362843.000,0.000
343561.600,340482.100,470065.600,484008.500,327415.300,350703.100,351833.900,315470.100,0.000
300350.200,297696.000,410629.800,422969.100,286344.300,306724.200,307629.800,275804.300,0.000
268727.300,266369.200,367237.200,378437.800,256203.500,274499.300,275281.100,246721.500,0.000
255485.300,253202.400,349068.400,359814.200,243616.900,260902.500,261754.000,234575.900,0.000
248079.000,245851.600,338857.000,349373.100,236557.500,253316.400,254168.900,227756.300,0.000
241303.400,239127.100,329549.300,339829.800,230094.900,246398.800,247247.800,221523.600,0.000
235061.100,232937.500,320988.800,331045.600,224145.000,240040.600,240865.500,215793.500,0.000
229302.000,227235.400,313101.400,322916.200,218660.200,234181.600,234975.900,210516.300,0.000
223989.700,221971.400,305824.500,315408.500,213592.400,228764.600,229525.600,205641.300,0.000
219066.100,217094.000,299082.600,308464.300,208899.400,223745.400,224474.900,201123.600,0.000
214511.100,212585.500,292840.300,302030.300,204558.300,219113.200,219809.000,196954.200,0.000
210258.200,208376.700,287018.800,296024.700,200499.100,214785.900,215448.200,193063.100,0.000
206293.800,204450.900,281592.700,290422.800,196717.800,210746.800,211376.800,189433.400,0.000
202612.900,200806.500,276546.700,285211.700,193211.900,207000.300,207600.300,186063.600,0.000
199166.700,197396.200,271825.300,280335.900,189930.700,203486.200,204064.000,182904.700,0.000
195949.400,194209.800,267411.100,275779.300,186861.300,200208.600,200759.400,179951.500,0.000
192943.700,191227.900,263277.000,271514.500,183985.100,197135.600,197665.100,177190.200,0.000
190117.200,188424.500,259390.800,267506.100,181282.200,194253.200,194758.500,174586.000,0.000
187456.900,185786.600,255738.900,263739.000,178741.500,191527.100,192019.500,172137.300,0.000
184958.000,183314.400,252312.500,260201.200,176365.100,188980.500,189460.600,169849.200,0.000
182597.800,180980.600,249077.000,256864.000,174123.100,186581.300,187046.700,167686.300,0.000
180392.300,178798.900,246044.800,253734.600,172026.500,184337.800,184789.400,165667.000,0.000
178292.300,176721.300,243165.700,250763.300,170028.200,182199.200,182639.400,163740.200,0.000
176326.300,174772.700,240461.200,247973.500,168155.500,180188.200,180620.400,161935.100,0.000
174460.900,172924.800,237897.800,245332.400,166380.200,178283.700,178712.100,160227.700,0.000
172711.400,171187.600,235482.400,242844.800,164709.400,176496.200,176917.500,158621.300,0.000
171060.800,169547.500,233203.500,240494.200,163130.900,174808.400,175221.400,157102.600,0.000
169503.600,168003.000,231056.000,238276.100,161644.600,173219.100,173622.500,155670.200,0.000
168004.600,166519.900,228998.800,236154.600,160216.200,171691.500,172088.000,154293.300,0.000
166580.500,165106.200,227037.900,234137.600,158853.900,170230.900,170626.400,152983.000,0.000
165246.400,163780.000,225193.100,232239.700,157575.900,168853.600,169251.100,151755.400,0.000
163985.800,162530.400,223453.400,230444.900,156374.000,167566.600,167958.400,150595.300,0.000
162790.700,161348.600,221806.700,228743.700,155237.400,166347.200,166732.600,149497.300,0.000
161640.800,160210.800,220223.100,227112.700,154143.500,165174.200,165555.000,148441.000,0.000
160548.400,159126.400,218714.100,225562.500,153099.300,164053.000,164432.500,147436.200,0.000
159523.600,158106.900,217291.900,224099.500,152119.000,163001.100,163378.600,146492.500,0.000
158547.900,157133.900,215940.400,222705.500,151182.600,162002.200,162373.300,145591.600,0.000
157620.300,156211.800,214658.100,221381.900,150295.400,161057.800,161422.300,144740.300,0.000
156732.900,155334.500,213433.600,220118.700,149448.800,160150.400,160512.400,143925.200,0.000
155887.400,154496.500,212264.300,218916.000,148640.700,159280.100,159643.200,143149.400,0.000
155085.200,153701.800,211154.600,217774.700,147874.500,158461.600,158819.500,142413.100,0.000
154317.900,152940.700,210096.200,216684.200,147142.300,157679.800,158034.200,141706.800,0.000
153595.700,152227.000,209096.900,215652.900,146454.500,156947.200,157294.700,141044.500,0.000
152888.300,151524.600,208121.400,214648.100,145776.100,156223.300,156568.100,140390.900,0.000
152229.700,150869.600,207204.100,213704.100,145144.500,155549.000,155891.100,139783.400,0.000
151608.800,150249.200,206336.500,212809.100,144547.000,154908.100,155250.600,139206.800,0.000
151010.300,149653.400,205507.800,211953.600,143974.700,154286.800,154632.600,138656.500,0.000
150430.000,149082.000,204709.900,211129.800,143426.500,153701.900,154045.000,138127.200,0.000
149883.700,148542.100,203952.200,210351.300,142907.400,153147.100,153487.400,137627.400,0.000
149358.000,148021.100,203223.200,209603.300,142405.700,152611.500,152951.500,137146.400,0.000
148855.800,147524.300,202528.000,208888.800,141926.300,152098.800,152439.300,136686.800,0.000
148378.700,147053.400,201867.300,208208.200,141473.000,151614.700,151952.400,136248.200,0.000
147926.100,146607.900,201240.400,207561.300,141045.400,151157.200,151491.900,135834.100,0.000
147494.200,146177.500,200637.600,206942.700,140632.200,150717.900,151049.200,135438.000,0.000
147085.900,145768.300,200064.500,206354.800,140240.800,150295.000,150627.300,135065.000,0.000
146692.200,145377.900,199516.000,205788.300,139865.300,149889.100,150223.300,134702.600,0.000
146309.900,145006.100,198991.200,205247.000,139507.300,149505.300,149836.900,134357.100,0.000
145949.100,144653.200,198490.600,204733.000,139168.300,149142.100,149470.500,134031.000,0.000
145606.300,144314.900,198011.700,204241.200,138841.800,148791.800,149119.600,133716.000,0.000
145274.600,143985.100,197549.600,203766.400,138524.300,148450.000,148777.600,133411.600,0.000
144957.200,143672.000,197108.400,203311.500,138222.000,148124.800,148453.500,133119.700,0.000
144654.200,143375.200,196686.100,202876.900,137934.000,147822.200,148147.200,132841.700,0.000
144365.500,143090.000,196281.900,202462.500,137660.300,147534.400,147855.400,132580.600,0.000
144092.700,142818.400,195898.700,202068.100,137401.300,147253.400,147573.600,132329.400,0.000
143846.700,142574.300,195549.000,201704.900,137169.100,146994.600,147317.200,132102.500,0.000
143605.500,142338.800,195207.800,201354.000,136941.800,146749.400,147071.900,131883.400,0.000
143343.000,142080.800,194850.400,200988.500,136692.100,146485.300,146808.000,131645.300,0.000
143109.600,141851.600,194525.700,200653.800,136468.700,146249.800,146567.600,131429.300,0.000
142887.800,141632.500,194214.000,200333.100,136254.700,146023.800,146339.000,131221.800,0.000
142686.700,141433.000,193925.400,200035.100,136061.600,145819.000,146133.600,131033.900,0.000
142491.600,141238.400,193646.300,199748.200,135876.700,145617.900,145933.400,130855.300,0.000
142301.000,141047.700,193375.700,199469.900,135695.000,145423.800,145737.800,130680.700,0.000
142125.000,140873.700,193123.800,199208.400,135526.500,145243.800,145558.000,130517.300,0.000
141945.200,140693.000,192870.900,198947.100,135352.400,145056.300,145370.900,130352.300,0.000
141770.300,140517.300,192626.100,198694.900,135185.000,144870.800,145189.200,130191.700,0.000
141607.800,140356.200,192396.900,198461.400,135034.100,144707.700,145026.300,130042.900,0.000
141461.900,140213.800,192187.500,198246.000,134898.500,144564.200,144880.000,129909.500,0.000
141314.100,140068.600,191977.600,198030.100,134758.100,144414.100,144728.800,129774.000,0.000
141175.500,139932.100,191777.400,197824.800,134625.300,144274.700,144585.600,129645.900,0.000
141046.400,139802.900,191585.500,197630.000,134497.500,144146.000,144450.300,129525.800,0.000
140913.500,139669.400,191394.400,197435.100,134367.600,144011.800,144312.300,129404.400,0.000
140788.000,139544.000,191215.600,197252.600,134247.500,143880.900,144183.400,129292.800,0.000
140657.700,139416.200,191035.000,197068.000,134125.800,143754.900,144055.300,129176.400,0.000
140549.900,139309.800,190877.900,196907.200,134023.300,143646.700,143946.800,129079.400,0.000
140439.000,139195.300,190716.300,196743.600,133914.000,143527.600,143829.500,128974.600,0.000
140327.700,139082.800,190557.900,196581.500,133805.700,143412.500,143714.200,128872.900,0.000
140225.800,138983.800,190413.000,196432.000,133707.800,143308.900,143610.500,128781.600,0.000
140130.300,138892.000,190276.400,196290.400,133618.300,143214.600,143515.900,128696.800,0.000
140045.600,138809.200,190149.100,196159.600,133539.400,143127.400,143430.300,128621.000,0.000
139960.900,138725.200,190022.900,196031.000,133461.000,143038.600,143344.700,128542.200,0.000
139876.200,138639.700,189896.900,195903.900,133379.200,142947.100,143255.600,128463.400,0.000
139794.600,138559.500,189778.300,195782.000,133300.200,142862.300,143171.300,128389.600,0.000
139716.400,138482.400,189664.700,195665.200,133225.700,142783.000,143092.500,128317.700,0.000
139644.900,138409.800,189557.000,195556.700,133157.800,142713.200,143021.100,128252.200,0.000
139578.300,138340.000,189455.500,195453.500,133094.300,142642.500,142951.400,128189.900,0.000
139514.500,138277.300,189360.300,195355.200,133035.600,142576.000,142886.600,128132.400,0.000
139446.800,138212.900,189265.000,195254.800,132975.000,142509.900,142821.500,128073.200,0.000
139387.500,138155.600,189175.400,195161.500,132919.000,142448.900,142760.300,128018.800,0.000
139321.500,138089.200,189078.900,195062.400,132854.900,142378.800,142692.000,127958.800,0.000
139267.600,138034.900,188996.200,194977.500,132804.300,142323.800,142637.500,127909.700,0.000
139215.100,137984.900,188918.600,194897.000,132756.000,142271.900,142584.800,127862.700,0.000
139161.300,137931.900,188837.700,194813.600,132704.000,142215.000,142530.000,127812.900,0.000
139109.800,137881.300,188758.600,194732.600,132653.400,142166.300,142477.700,127767.500,0.000
139067.800,137839.500,188689.000,194661.900,132613.000,142126.600,142433.300,127728.000,0.000
139029.400,137800.000,188624.100,194596.300,132577.000,142087.000,142394.800,127693.600,0.000
138977.600,137747.500,188547.800,194518.400,132527.000,142030.600,142341.300,127645.200,0.000
138933.900,137706.200,188482.300,194451.200,132487.600,141990.300,142299.000,127607.000,0.000
138885.000,137658.000,188410.700,194380.500,132441.500,141944.200,142252.000,127565.700,0.000
138844.000,137618.300,188348.000,194316.800,132403.200,141905.300,142210.500,127528.500,0.000
138813.100,137587.500,188295.700,194263.800,132374.500,141873.200,142178.700,127500.900,0.000
138779.800,137555.700,188242.700,194210.800,132343.400,141841.000,142145.800,127468.700,0.000
138740.100,137515.000,188181.000,194147.600,132301.900,141799.600,142101.200,127428.600,0.000
138717.900,137492.700,188137.000,194101.800,132280.500,141777.200,142078.300,127407.100,0.000
138687.100,137463.100,188087.300,194048.600,132250.300,141741.600,142043.100,127377.100,0.000
138656.200,137434.900,188040.400,193997.100,132224.500,141711.500,142012.800,127350.800,0.000
138625.800,137407.300,187992.900,193947.400,132199.500,141685.000,141986.100,127325.500,0.000
138596.300,137375.300,187941.300,193896.100,132166.900,141652.000,141953.600,127296.300,0.000
138571.500,137345.800,187895.200,193851.800,132138.600,141624.400,141925.900,127272.100,0.000
138536.500,137309.800,187844.600,193803.300,132107.800,141589.600,141893.200,127242.800,0.000
138510.500,137287.600,187806.600,193766.800,132089.300,141567.800,141871.500,127224.700,0.000
138485.700,137265.500,187767.500,193727.000,132066.400,141545.600,141847.000,127199.000,0.000
138458.900,137235.500,187722.200,193679.500,132036.800,141517.800,141817.400,127169.900,0.000
138440.300,137214.200,187685.600,193641.100,132015.600,141495.600,141795.400,127151.800,0.000
138423.500,137197.800,187654.000,193607.200,131997.600,141479.200,141775.900,127134.700,0.000
138404.100,137178.000,187620.000,193573.500,131976.900,141448.500,141751.400,127115.900,0.000
138392.400,137164.500,187590.600,193543.900,131961.800,141428.000,141734.000,127104.100,0.000
138376.800,137147.000,187558.500,193510.100,131941.700,141403.500,141711.700,127084.300,0.000
138350.400,137120.000,187518.500,193468.400,131912.800,141375.300,141683.800,127054.100,0.000
138330.100,137101.500,187486.700,193436.300,131894.800,141356.900,141664.600,127038.400,0.000
138319.400,137093.900,187464.600,193414.700,131890.800,141353.600,141660.500,127037.800,0.000
138309.700,137084.200,187440.300,193390.100,131883.400,141341.200,141651.100,127032.200,0.000
138290.100,137064.300,187408.100,193357.300,131865.700,141323.200,141632.500,127011.900,0.000
138259.800,137035.500,187366.500,193316.200,131837.900,141297.500,141603.600,126984.200,0.000
138249.900,137025.300,187342.200,193292.600,131828.000,141290.100,141592.200,126973.200,0.000
138240.900,137015.700,187316.800,193268.400,131818.000,141283.400,141581.600,126963.800,0.000
138235.600,137009.800,187296.100,193248.800,131811.700,141275.900,141573.800,126956.900,0.000
138222.700,136995.700,187271.200,193222.400,131796.900,141258.200,141556.100,126940.800,0.000
138200.800,136977.100,187242.000,193191.400,131778.800,141240.000,141537.300,126923.900,0.000
138186.200,136966.100,187219.000,193167.300,131767.100,141229.100,141526.000,126915.400,0.000
138172.600,136949.700,187191.400,193140.900,131751.400,141212.100,141511.200,126904.100,0.000
138168.900,136941.500,187173.800,193122.000,131743.800,141200.500,141501.700,126896.000,0.000
138161.600,136934.800,187157.200,193100.200,131735.300,141188.500,141490.000,126883.600,0.000
138158.600,136933.000,187145.300,193086.000,131734.000,141184.900,141486.500,126879.100,0.000
138144.300,136918.500,187120.000,193061.600,131720.900,141173.900,141472.100,126866.800,0.000
138132.200,136902.800,187093.900,193037.400,131706.000,141157.400,141457.700,126853.000,0.000
138130.800,136898.000,187080.000,193023.300,131700.600,141152.700,141452.900,126846.100,0.000
138120.900,136889.200,187061.200,193004.700,131691.000,141147.400,141444.200,126838.000,0.000
138101.200,136872.300,187032.400,192978.400,131673.200,141130.400,141428.500,126822.000,0.000
138090.500,136861.700,187010.700,192958.500,131662.300,141118.200,141416.000,126812.600,0.000
138084.300,136854.200,186993.300,192941.500,131654.800,141105.100,141406.300,126805.300,0.000
138079.800,136852.300,186982.300,192928.700,131654.300,141100.700,141402.300,126802.600,0.000
138072.800,136849.800,186968.700,192913.100,131650.200,141094.900,141396.300,126797.900,0.000
138064.600,136842.200,186949.100,192892.300,131638.700,141083.700,141384.500,126786.500,0.000
138060.000,136835.900,186933.700,192876.300,131631.000,141075.700,141375.300,126780.400,0.000
138061.900,136838.500,186927.400,192867.000,131632.400,141077.600,141375.900,126783.500,0.000
138054.900,136831.700,186913.300,192849.900,131625.200,141066.300,141364.900,126773.600,0.000
138047.800,136826.000,186899.700,192834.800,131620.900,141061.600,141359.100,126764.200,0.000
138053.600,136832.200,186897.500,192830.800,131629.400,141067.200,141365.700,126768.700,0.000
138049.400,136826.000,186884.100,192816.600,131625.700,141060.700,141359.600,126760.800,0.000
138027.900,136804.000,186852.800,192786.500,131603.600,141037.200,141338.000,126737.400,0.000
138024.000,136798.700,186838.500,192774.200,131599.100,141037.800,141334.200,126736.700,0.000
138016.800,136789.000,186821.200,192758.700,131591.100,141034.700,141329.300,126731.400,0.000
138006.500,136775.100,186799.300,192739.500,131577.500,141023.200,141318.500,126722.800,0.000
138001.100,136767.500,186784.300,192726.000,131570.300,141016.700,141313.500,126718.600,0.000
137996.000,136762.100,186772.700,192714.800,131566.000,141008.500,141310.100,126715.500,0.000
137992.100,136757.200,186760.000,192703.700,131561.900,141001.500,141303.800,126713.300,0.000
137984.600,136748.900,186742.000,192686.400,131553.300,140992.400,141295.300,126704.500,0.000
137989.000,136754.500,186738.500,192682.500,131558.200,140998.800,141299.600,126710.800,0.000
137987.100,136753.200,186730.600,192674.800,131558.700,140992.800,141295.900,126712.900,0.000
137980.900,136751.100,186719.200,192663.700,131556.800,140984.600,141290.200,126710.300,0.000
137970.900,136742.100,186699.100,192644.400,131546.300,140977.200,141280.700,126698.100,0.000
137971.700,136741.400,186692.000,192634.600,131544.800,140976.800,141279.000,126696.300,0.000
137977.500,136747.900,186693.000,192632.600,131550.900,140982.000,141284.800,126703.500,0.000
137970.100,136743.300,186682.000,192620.900,131546.300,140976.900,141279.700,126698.000,0.000
137962.500,136736.500,186667.500,192605.800,131540.300,140971.000,141272.100,126691.100,0.000
137962.000,136735.100,186658.400,192596.000,131540.300,140973.300,141271.200,126689.000,0.000
137964.600,136736.200,186653.500,192590.400,131542.500,140973.600,141270.200,126688.000,0.000
137963.700,136738.200,186647.600,192583.600,131545.500,140972.800,141268.900,126686.500,0.000
137950.100,136726.000,186629.400,192565.700,131534.100,140959.000,141256.500,126675.400,0.000
137949.400,136723.200,186619.500,192556.400,131531.400,140956.300,141254.500,126672.600,0.000
137953.500,136726.400,186614.800,192550.200,131534.500,140959.100,141257.100,126674.600,0.000
137954.100,136728.300,186610.300,192543.200,131535.800,140960.500,141256.900,126674.900,0.000
137954.900,136730.500,186606.300,192538.500,131537.000,140958.400,141255.800,126676.100,0.000
137939.900,136715.900,186585.200,192518.400,131523.600,140950.000,141245.200,126662.000,0.000
137937.000,136711.500,186574.000,192508.000,131519.100,140946.600,141241.100,126657.100,0.000
137933.900,136707.900,186563.600,192497.800,131514.800,140941.000,141236.600,126652.500,0.000
137924.000,136701.400,186550.300,192482.800,131506.700,140935.200,141228.700,126645.600,0.000
137916.300,136696.200,186538.800,192472.500,131502.400,140933.900,141225.800,126642.600,0.000
137918.000,136694.900,186530.800,192467.900,131503.700,140934.400,141226.000,126645.000,0.000
137922.400,136696.500,186524.700,192462.300,131506.300,140936.100,141228.800,126648.400,0.000
137921.100,136693.700,186516.800,192453.800,131503.700,140932.800,141226.900,126648.300,0.000
137911.400,136686.600,186504.000,192439.900,131496.900,140926.100,141220.200,126643.500,0.000
137903.400,136679.800,186489.500,192425.400,131490.200,140921.300,141216.200,126637.300,0.000
137897.000,136672.300,186474.400,192411.300,131483.400,140916.000,141209.500,126632.200,0.000
137895.400,136669.800,186465.700,192403.000,131484.000,140915.800,141209.000,126631.400,0.000
137900.200,136675.500,186466.400,192404.100,131489.600,140918.300,141212.800,126637.800,0.000
137889.200,136669.600,186453.200,192390.700,131482.300,140911.200,141205.800,126629.500,0.000
137887.100,136666.400,186441.800,192381.400,131478.400,140904.500,141201.700,126625.900,0.000
137889.900,136667.900,186434.000,192375.000,131478.200,140905.800,141202.100,126627.000,0.000
137882.600,136661.300,186421.100,192363.300,131472.300,140897.700,141194.500,126622.100,0.000
137883.700,136666.500,186420.100,192361.500,131478.200,140902.800,141198.500,126628.100,0.000
137885.900,136671.200,186416.900,192357.600,131482.300,140911.200,141203.500,126630.800,0.000
137883.800,136666.700,186406.700,192346.900,131478.700,140908.900,141199.900,126626.700,0.000
137885.200,136664.000,186401.100,192339.900,131476.500,140903.900,141196.100,126622.700,0.000
137890.600,136668.700,186400.900,192339.200,131481.300,140908.400,141198.600,126624.400,0.000
137884.900,136665.600,186389.900,192331.500,131477.800,140906.200,141195.000,126622.000,0.000
137883.000,136662.900,186379.000,192324.100,131473.600,140902.100,141192.700,126621.100,0.000
137871.900,136649.400,186360.600,192306.500,131460.700,140890.900,141181.000,126609.600,0.000
137870.000,136648.800,186353.600,192297.700,131458.600,140892.900,141179.800,126608.500,0.000
137871.700,136652.900,186350.200,192292.700,131461.800,140896.200,141185.100,126611.700,0.000
137869.700,136649.500,186341.200,192283.400,131459.300,140889.200,141180.800,126610.000,0.000
137867.800,136647.800,186331.800,192275.700,131458.400,140889.100,141179.500,126610.900,0.000
137861.200,136642.600,186320.000,192264.300,131455.400,140884.800,141173.200,126602.800,0.000
137866.300,136649.500,186322.900,192264.300,131463.800,140893.700,141178.600,126606.600,0.000
137867.300,136651.700,186320.000,192262.200,131466.500,140897.100,141180.200,126608.600,0.000
137865.800,136649.000,186312.200,192254.300,131463.400,140890.100,141177.700,126605.000,0.000
137869.700,136652.600,186310.100,192251.500,131466.200,140892.600,141180.200,126608.100,0.000
137868.200,136651.800,186303.900,192246.800,131467.300,140894.600,141181.800,126611.300,0.000
137855.900,136643.500,186288.200,192232.100,131460.800,140892.800,141178.500,126605.700,0.000
137853.100,136641.700,186278.300,192222.700,131459.900,140885.100,141175.200,126605.300,0.000
137848.200,136635.400,186264.500,192208.100,131451.500,140870.500,141165.700,126598.900,0.000
137844.000,136632.200,186254.900,192198.500,131447.100,140870.500,141162.500,126595.600,0.000
137844.000,136634.200,186252.700,192196.700,131451.300,140878.700,141168.100,126597.100,0.000
137844.400,136637.000,186249.700,192194.100,131453.400,140882.200,141169.500,126600.600,0.000
137844.900,136637.500,186242.600,192189.300,131453.700,140883.600,141172.000,126600.700,0.000
137839.500,136627.600,186229.700,192176.900,131444.300,140867.300,141159.600,126593.700,0.000
137834.800,136621.800,186221.600,192167.500,131439.800,140862.200,141153.600,126590.300,0.000
137836.800,136626.100,186220.300,192165.800,131444.300,140869.100,141160.100,126597.900,0.000
137837.900,136629.200,186215.900,192161.100,131445.100,140874.700,141161.900,126599.300,0.000
137829.900,136621.400,186200.900,192146.700,131434.600,140864.400,141151.700,126591.300,0.000
137829.200,136620.000,186194.600,192140.700,131432.400,140864.100,141151.600,126591.800,0.000
137831.500,136622.600,186193.900,192138.800,131435.300,140869.100,141155.600,126595.000,0.000
137844.600,136634.900,186201.000,192147.000,131447.400,140878.800,141166.600,126607.200,0.000
137837.300,136626.300,186186.500,192132.300,131437.700,140871.400,141158.400,126599.300,0.000
137825.000,136614.100,186168.700,192113.300,131425.800,140858.300,141147.300,126588.300,0.000
137826.000,136617.700,186167.200,192109.100,131430.800,140859.500,141148.700,126590.500,0.000
137841.200,136635.000,186180.000,192119.600,131449.800,140878.400,141166.100,126601.700,0.000
137849.700,136645.300,186183.400,192121.800,131459.600,140892.500,141176.000,126607.500,0.000
137824.300,136616.800,186151.400,192089.100,131429.300,140859.600,141143.800,126577.400,0.000
137826.900,136615.800,186146.900,192086.300,131428.900,140853.600,141142.700,126579.900,0.000
137833.700,136620.200,186148.600,192087.900,131434.400,140860.600,141148.900,126586.300,0.000
137835.300,136617.400,186142.600,192083.000,131431.000,140861.200,141148.000,126585.900,0.000
137832.100,136611.900,186130.900,192074.200,131424.900,140856.800,141145.500,126583.000,0.000
137828.700,136607.300,186119.500,192063.800,131420.100,140852.800,141141.800,126580.900,0.000
137824.600,136605.200,186111.200,192055.200,131418.300,140850.900,141140.500,126578.400,0.000
137824.100,136609.000,186108.400,192051.300,131420.700,140854.900,141145.000,126581.500,0.000
137824.800,136609.700,186103.200,192045.400,131419.400,140855.300,141145.700,126583.300,0.000
137830.100,136609.300,186100.900,192043.600,131418.700,140852.300,141143.000,126584.000,0.000
137824.300,136601.900,186090.300,192034.000,131411.200,140843.600,141133.900,126576.100,0.000
137820.000,136599.900,186082.300,192027.300,131409.400,140839.500,141130.700,126574.000,0.000
137822.800,136605.600,186080.900,192024.500,131414.900,140847.900,141138.000,126576.300,0.000
137819.400,136599.400,186069.100,192012.100,131406.600,140841.800,141129.500,126568.000,0.000
137816.900,136594.900,186059.300,192001.100,131399.700,140830.200,141119.600,126559.700,0.000
137822.000,136601.700,186062.700,192003.200,131407.300,140835.800,141126.300,126563.800,0.000
137828.700,136609.000,186065.700,192006.100,131414.900,140841.900,141131.800,126569.000,0.000
137831.000,136610.800,186062.500,192002.800,131417.500,140842.200,141134.100,126570.500,0.000
137831.900,136610.400,186056.100,191996.400,131416.500,140842.200,141134.700,126571.000,0.000
137823.800,136603.900,186044.100,191984.800,131410.700,140837.700,141128.700,126567.200,0.000
137816.700,136597.200,186033.000,191974.800,131404.800,140828.600,141122.300,126563.000,0.000
137820.200,136600.900,186028.600,191971.600,131406.600,140831.700,141125.600,126564.700,0.000
137815.900,136597.600,186019.300,191961.500,131402.000,140828.300,141122.700,126560.100,0.000
137813.000,136595.400,186013.400,191955.500,131399.900,140827.300,141119.900,126557.900,0.000
137803.300,136586.100,186000.900,191942.900,131390.400,140823.000,141111.400,126548.500,0.000
137812.900,136594.100,186005.700,191947.000,131397.900,140835.800,141119.000,126558.200,0.000
137813.700,136592.200,185998.200,191942.000,131396.300,140835.800,141121.400,126557.600,0.000
137814.100,136592.000,185992.800,191938.700,131397.200,140832.800,141121.900,126558.600,0.000
137804.200,136580.200,185978.400,191926.300,131387.400,140819.000,141110.900,126550.300,0.000
137804.800,136581.200,185975.500,191923.700,131389.300,140823.200,141113.900,126554.000,0.000
137803.300,136580.400,185968.500,191916.200,131387.500,140824.400,141112.600,126551.200,0.000
137805.900,136580.100,185962.400,191911.700,131387.100,140819.900,141110.000,126552.800,0.000
137808.400,136580.000,185958.800,191907.400,131388.400,140819.800,141111.200,126554.500,0.000
137812.100,136583.100,185958.300,191905.700,131391.400,140825.100,141115.200,126557.700,0.000
137806.800,136576.400,185948.400,191896.100,131386.000,140820.400,141111.000,126552.400,0.000
137814.300,136582.000,185947.600,191898.000,131392.300,140825.200,141117.600,126558.500,0.000
137813.800,136579.800,185940.200,191891.900,131389.000,140821.300,141113.400,126557.600,0.000
137811.100,136578.600,185934.100,191883.600,131386.100,140818.100,141108.500,126551.100,0.000
137807.400,136577.300,185927.900,191875.700,131382.800,140812.300,141103.700,126544.900,0.000
137808.600,136581.600,185925.000,191871.300,131385.400,140819.800,141107.400,126543.900,0.000
137805.900,136581.000,185919.400,191865.000,131385.300,140823.800,141107.500,126541.200,0.000
137816.800,136592.700,185925.900,191871.800,131397.800,140834.400,141121.000,126552.300,0.000
137809.700,136588.800,185916.300,191863.100,131393.200,140831.600,141116.000,126548.700,0.000
137800.400,136580.200,185903.300,191850.700,131383.700,140821.500,141106.000,126542.300,0.000
137805.800,136584.600,185902.000,191848.500,131388.100,140824.100,141111.300,126547.000,0.000
137800.800,136578.100,185892.700,191837.500,131382.800,140814.000,141104.300,126542.300,0.000
137801.400,136580.700,185890.700,191834.800,131386.400,140816.300,141106.800,126545.400,0.000
137799.800,136582.400,185886.700,191829.600,131386.400,140820.600,141108.600,126542.700,0.000
137801.100,136584.300,185882.800,191824.700,131385.900,140823.700,141109.000,126540.900,0.000
137806.100,136586.900,185879.600,191822.000,131387.000,140823.000,141108.700,126541.300,0.000
137807.100,136587.000,185876.500,191820.800,131387.000,140823.100,141107.800,126543.800,0.000
137810.200,136591.000,185878.300,191825.100,131392.600,140824.700,141111.600,126549.600,0.000
137805.100,136587.000,185869.900,191816.700,131388.000,140815.500,141105.400,126546.100,0.000
137800.400,136581.200,185860.200,191805.300,131381.200,140809.600,141099.800,126541.100,0.000
137795.900,136573.800,185850.100,191794.100,131374.200,140802.700,141093.900,126534.600,0.000
137794.000,136572.200,185844.600,191789.000,131373.200,140802.700,141091.500,126533.100,0.000
137799.400,136580.300,185846.500,191791.800,131384.500,140816.500,141102.700,126541.200,0.000
137805.700,136585.800,185846.800,191793.500,131390.000,140819.000,141106.000,126547.300,0.000
137808.200,136586.700,185844.100,191790.400,131388.700,140817.800,141106.900,126546.700,0.000
137812.800,136590.700,185843.700,191788.000,131392.100,140821.700,141110.800,126547.400,0.000
137807.300,136585.300,185833.600,191777.100,131387.100,140818.600,141106.900,126540.400,0.000
137802.000,136582.100,185823.300,191768.900,131385.300,140819.900,141106.900,126537.100,0.000
137799.800,136580.200,185815.100,191762.700,131385.000,140822.000,141110.700,126538.100,0.000
137796.800,136574.900,185806.800,191755.000,131381.000,140815.600,141106.200,126536.800,0.000
137795.400,136573.100,185801.400,191749.000,131379.500,140814.000,141104.000,126537.800,0.000
137808.200,136586.900,185810.200,191757.300,131390.200,140827.100,141115.900,126551.100,0.000
137803.100,136581.600,185799.100,191747.600,131382.800,140817.800,141108.000,126545.600,0.000
137798.200,136575.400,185788.700,191739.200,131376.900,140809.100,141101.000,126539.400,0.000
137797.100,136573.900,185784.700,191734.400,131378.400,140809.600,141100.700,126537.600,0.000
137799.200,136577.300,185783.800,191732.500,131383.700,140813.100,141103.500,126538.500,0.000
137796.100,136574.900,185776.200,191725.000,131380.200,140811.400,141099.800,126534.900,0.000
137794.500,136573.000,185770.800,191718.800,131378.500,140808.500,141100.000,126535.400,0.000
137794.800,136573.600,185767.700,191716.600,131380.700,140813.500,141104.300,126538.100,0.000
137792.600,136571.400,185761.000,191710.500,131376.400,140809.600,141100.900,126530.900,0.000
137795.700,136575.800,185760.200,191709.000,131380.100,140813.000,141104.200,126534.800,0.000
137795.700,136578.400,185756.300,191704.900,131382.800,140821.700,141109.900,126536.900,0.000
137785.900,136566.200,185740.600,191689.400,131371.800,140807.000,141097.100,126527.800,0.000
137786.700,136565.700,185737.500,191685.900,131371.200,140802.900,141095.500,126530.500,0.000
137789.100,136567.900,185739.100,191685.700,131374.500,140804.900,141097.500,126534.200,0.000
137794.400,136573.900,185740.600,191684.900,131380.800,140812.300,141102.400,126537.800,0.000
137798.300,136577.500,185739.700,191681.500,131385.900,140817.300,141106.000,126537.800,0.000
137801.300,136580.300,185738.300,191680.300,131389.100,140816.700,141106.500,126539.600,0.000
137807.500,136589.100,185743.300,191686.200,131395.900,140823.900,141114.000,126547.700,0.000
137800.800,136582.400,185734.300,191677.500,131387.500,140813.300,141104.600,126541.500,0.000
137796.200,136577.400,185727.200,191671.100,131385.100,140810.000,141100.800,126539.300,0.000
137796.500,136577.100,185722.200,191668.300,131386.100,140812.200,141102.200,126541.800,0.000
137791.900,136571.700,185709.100,191657.900,131377.500,140805.600,141096.600,126535.000,0.000
137790.100,136571.000,185702.800,191652.300,131376.200,140803.400,141096.400,126532.700,0.000
137794.800,136574.900,185703.800,191653.000,131381.000,140811.300,141102.000,126537.300,0.000
137794.800,136573.200,185698.200,191648.800,131378.500,140806.500,141098.600,126534.800,0.000
137793.500,136572.300,185692.300,191642.000,131375.800,140806.100,141097.500,126530.900,0.000
137794.200,136574.000,185690.300,191640.100,131377.500,140807.700,141098.200,126531.500,0.000
137792.300,136573.600,185685.400,191636.400,131378.600,140806.000,141098.200,126531.300,0.000
137791.200,136572.200,185678.600,191629.600,131378.100,140804.800,141096.700,126528.700,0.000
137782.100,136562.500,185665.300,191616.400,131368.900,140795.100,141087.100,126518.800,0.000
137785.500,136565.000,185665.100,191615.200,131372.200,140795.300,141090.300,126525.500,0.000
137790.400,136569.900,185665.600,191614.300,131376.700,140799.000,141095.000,126530.400,0.000
137792.000,136569.000,185660.000,191609.100,131373.500,140793.600,141089.600,126528.900,0.000
137796.100,136571.000,185659.200,191606.400,131372.900,140794.500,141089.500,126531.500,0.000
137797.000,136573.500,185657.600,191604.800,131375.000,140799.400,141091.900,126535.300,0.000
137786.400,136563.000,185645.000,191592.400,131366.000,140794.200,141083.700,126526.400,0.000
137788.000,136563.400,185641.300,191590.200,131367.600,140798.000,141086.500,126525.500,0.000
137789.500,136564.300,185639.100,191588.400,131370.200,140798.500,141088.000,126528.600,0.000
137787.300,136563.200,185633.400,191582.100,131369.600,140797.000,141084.900,126526.400,0.000
137788.300,136567.600,185631.400,191580.700,131372.400,140802.000,141088.300,126529.500,0.000
137780.700,136560.500,185620.100,191568.700,131363.900,140797.800,141083.000,126522.600,0.000
137781.300,136560.300,185616.100,191564.300,131364.200,140804.200,141087.200,126523.800,0.000
137783.200,136564.500,185615.800,191563.900,131366.300,140808.900,141091.500,126526.900,0.000
137778.700,136559.600,185607.800,191556.300,131360.200,140799.200,141083.200,126521.900,0.000
137774.000,136556.100,185601.600,191550.600,131358.200,140799.100,141082.100,126519.600,0.000
137780.800,136562.700,185605.000,191554.300,131367.500,140806.700,141090.600,126525.000,0.000
137780.100,136559.700,185597.600,191548.000,131367.700,140804.200,141088.500,126524.800,0.000
137785.400,136565.200,185599.500,191549.900,131374.100,140806.900,141094.000,126531.700,0.000
137784.800,136566.000,185596.600,191547.200,131374.100,140803.800,141091.900,126533.200,0.000
137778.500,136562.700,185587.000,191539.100,131369.200,140802.200,141089.300,126532.600,0.000
137781.200,136564.600,185584.000,191537.600,131370.400,140803.100,141090.500,126534.800,0.000
137774.300,136556.100,185572.000,191527.500,131362.900,140795.300,141083.700,126528.000,0.000
137778.000,136559.700,185571.700,191527.500,131368.600,140804.000,141091.000,126534.500,0.000
137774.600,136555.700,185564.200,191522.600,131367.200,140793.200,141086.500,126534.700,0.000
137772.000,136554.200,185557.500,191515.800,131366.000,140795.300,141086.000,126535.300,0.000
137773.200,136555.100,185554.600,191511.200,131367.200,140798.200,141088.200,126536.300,0.000
137775.100,136557.800,185552.700,191508.100,131369.700,140802.200,141092.000,126542.300,0.000
137779.400,136564.300,185555.000,191509.000,131376.400,140810.500,141098.900,126551.500,0.000
137773.800,136558.700,185546.400,191500.400,131370.900,140809.500,141094.900,126547.400,0.000
137775.800,136557.800,185543.500,191496.700,131368.400,140807.400,141090.800,126546.700,0.000
137781.400,136562.800,185545.700,191497.700,131371.600,140809.800,141090.800,126547.600,0.000
137777.900,136560.400,185540.000,191491.800,131370.100,140806.300,141086.700,126544.000,0.000
137778.900,136561.500,185538.200,191490.100,131374.300,140806.200,141088.800,126546.300,0.000
137775.400,136559.200,185532.400,191481.900,131372.700,140803.400,141086.800,126542.700,0.000
137781.300,136568.000,185536.900,191484.500,131381.000,140807.600,141091.500,126549.000,0.000
137785.200,136576.800,185541.200,191488.700,131389.300,140815.700,141098.000,126556.600,0.000
137778.800,136572.200,185531.500,191479.200,131382.600,140808.800,141092.100,126550.100,0.000
137776.400,136568.500,185523.600,191472.100,131377.100,140801.500,141087.900,126548.100,0.000
137769.100,136559.900,185511.500,191461.000,131369.800,140795.800,141082.800,126543.200,0.000
137770.800,136560.600,185510.800,191461.400,131373.500,140799.200,141085.800,126545.800,0.000
137768.000,136559.400,185508.000,191457.800,131373.700,140798.700,141085.500,126543.000,0.000
137764.500,136556.300,185500.500,191453.500,131373.000,140795.900,141084.000,126541.600,0.000
137761.300,136556.500,185493.800,191447.300,131373.600,140797.000,141085.000,126539.800,0.000
137766.300,136561.900,185494.300,191446.100,131378.500,140805.300,141090.300,126544.000,0.000
137767.600,136564.200,185492.200,191444.100,131378.900,140806.600,141089.700,126544.700,0.000
137759.700,136558.800,185482.000,191435.800,131372.700,140804.800,141084.700,126538.700,0.000
137755.100,136554.300,185473.700,191430.000,131368.000,140802.400,141082.600,126538.800,0.000
137762.600,136560.900,185478.300,191434.900,131374.400,140806.500,141089.000,126547.800,0.000
137768.500,136564.800,185479.800,191437.000,131377.200,140806.400,141089.800,126550.300,0.000
137762.300,136557.900,185467.500,191424.000,131369.500,140799.300,141082.400,126541.400,0.000
137759.500,136554.700,185460.100,191417.300,131366.900,140799.100,141082.700,126539.800,0.000
137756.000,136552.100,185453.000,191411.800,131364.700,140797.000,141081.600,126539.600,0.000
137760.400,136557.800,185453.700,191412.100,131368.900,140802.700,141085.800,126544.300,0.000
137763.300,136560.300,185452.700,191410.100,131371.500,140811.800,141089.700,126547.800,0.000
137759.900,136555.800,185445.100,191403.000,131368.200,140804.500,141084.800,126544.000,0.000
137760.800,136557.900,185442.700,191402.000,131371.800,140811.600,141090.700,126547.300,0.000
137757.500,136553.600,185434.400,191395.400,131367.300,140804.200,141086.300,126546.600,0.000
137762.200,136558.700,185436.300,191397.500,131372.200,140813.000,141091.700,126550.800,0.000
137760.700,136558.000,185433.800,191393.200,131371.900,140816.400,141093.500,126549.200,0.000
137755.900,136551.700,185426.100,191384.000,131366.200,140802.300,141084.000,126545.800,0.000
137754.800,136550.500,185420.800,191377.300,131362.900,140800.300,141080.500,126541.400,0.000
137758.300,136552.700,185419.000,191375.700,131364.900,140802.200,141081.000,126539.800,0.000
137764.400,136557.800,185421.200,191377.500,131368.000,140805.200,141082.300,126544.000,0.000
137764.600,136556.800,185417.600,191373.800,131365.500,140803.300,141081.100,126541.300,0.000
137760.200,136553.600,185409.400,191367.100,131363.100,140802.500,141080.500,126540.300,0.000
137763.000,136557.400,185409.000,191367.000,131364.400,140807.800,141084.000,126544.900,0.000
137774.700,136567.300,185416.700,191374.400,131371.700,140813.600,141091.500,126553.900,0.000
137762.700,136554.200,185401.400,191359.300,131358.700,140801.300,141080.800,126542.200,0.000
137756.300,136548.100,185390.700,191347.800,131351.600,140799.900,141075.700,126533.400,0.000
137761.900,136551.600,185391.500,191346.000,131355.000,140795.300,141075.500,126532.600,0.000
137766.100,136556.800,185393.400,191345.300,131360.500,140798.200,141078.000,126532.500,0.000
137762.200,136552.400,185385.300,191336.700,131355.300,140792.200,141072.200,126524.600,0.000
137769.800,136559.700,185389.700,191340.900,131361.800,140801.300,141078.200,126532.100,0.000
137764.400,136555.500,185383.200,191334.800,131359.000,140801.400,141076.600,126532.200,0.000
137760.500,136550.000,185375.900,191328.300,131357.100,140795.700,141073.000,126532.000,0.000
137759.500,136548.100,185368.800,191321.200,131354.400,140794.700,141071.900,126529.100,0.000
137761.900,136553.200,185365.900,191318.500,131357.500,140801.300,141076.400,126528.700,0.000
137757.500,136549.800,185359.300,191312.500,131354.200,140797.500,141073.300,126526.200,0.000
137757.000,136547.300,185354.400,191307.300,131349.400,140792.900,141069.300,126521.700,0.000
137756.800,136546.400,185350.300,191303.600,131347.300,140787.700,141063.800,126518.900,0.000
137764.600,136555.000,185356.000,191309.300,131357.900,140796.700,141071.300,126527.300,0.000
137757.800,136548.800,185344.400,191298.900,131352.500,140793.600,141068.000,126520.800,0.000
137753.500,136542.900,185336.500,191291.700,131347.700,140789.300,141065.300,126518.200,0.000
137751.700,136539.100,185332.000,191287.700,131346.300,140786.000,141064.600,126517.900,0.000
137757.200,136547.200,185337.200,191293.000,131355.800,140795.700,141074.500,126528.000,0.000
137753.200,136543.800,185330.900,191285.900,131353.500,140790.700,141069.600,126524.700,0.000
137744.000,136534.100,185317.400,191272.000,131343.600,140777.900,141059.900,126513.800,0.000
137752.100,136542.300,185322.400,191277.700,131352.100,140789.000,141069.700,126525.000,0.000
137753.300,136545.300,185321.800,191275.800,131353.400,140791.200,141071.300,126529.400,0.000
137746.600,136540.300,185310.500,191262.600,131345.800,140785.800,141064.600,126521.000,0.000
137748.500,136540.900,185306.600,191257.800,131346.900,140788.500,141065.600,126519.900,0.000
137750.500,136543.600,185305.400,191255.000,131348.000,140787.500,141065.600,126520.200,0.000
137746.500,136540.900,185298.900,191245.500,131342.400,140783.500,141061.000,126513.600,0.000
137751.200,136544.800,185299.800,191243.200,131346.700,140786.800,141063.800,126515.100,0.000
137753.200,136547.000,185298.900,191241.000,131350.600,140788.600,141066.600,126517.000,0.000
137753.500,136546.600,185295.100,191237.700,131350.000,140791.300,141067.400,126514.800,0.000
137757.200,136549.200,185295.200,191239.100,131352.600,140791.000,141068.400,126515.600,0.000
137761.800,136551.200,185295.500,191242.000,131355.500,140787.200,141069.700,126520.600,0.000
137766.000,136554.000,185296.100,191243.600,131358.100,140791.000,141074.200,126525.300,0.000
137760.600,136547.300,185287.200,191236.200,131351.900,140787.700,141069.500,126520.600,0.000
137750.000,136538.600,185273.700,191222.500,131342.100,140783.900,141061.200,126512.900,0.000
137757.300,136548.900,185279.500,191227.700,131350.100,140792.200,141067.700,126519.600,0.000
137751.200,136545.800,185272.500,191221.600,131347.300,140785.200,141063.500,126514.400,0.000
137754.300,136549.100,185274.200,191223.200,131352.600,140787.300,141067.100,126518.200,0.000
137755.000,136549.900,185273.000,191223.700,131353.900,140790.300,141069.000,126520.200,0.000
137753.500,136550.400,185270.300,191221.500,131353.700,140791.700,141069.600,126520.700,0.000
137747.000,136544.800,185260.000,191213.500,131349.500,140787.600,141066.200,126517.900,0.000
137757.900,136555.200,185265.700,191217.200,131360.200,140799.500,141077.400,126528.000,0.000
137756.100,136552.600,185260.800,191212.200,131359.500,140796.700,141075.700,126528.400,0.000
137746.000,136544.700,185250.600,191203.100,131353.100,140790.200,141068.500,126522.100,0.000
137751.900,136552.900,185255.500,191207.400,131362.900,140799.500,141077.000,126531.100,0.000
137746.600,136549.000,185246.600,191199.900,131358.900,140794.300,141073.500,126529.300,0.000
137744.100,136546.800,185240.500,191193.000,131352.800,140789.400,141068.900,126524.200,0.000
137743.700,136544.800,185237.900,191191.300,131351.200,140787.000,141066.700,126525.400,0.000
137747.900,136549.600,185240.400,191192.300,131356.700,140793.700,141073.000,126525.800,0.000
137749.000,136550.600,185237.000,191188.900,131355.800,140793.800,141069.800,126527.500,0.000
137748.200,136547.900,185228.700,191179.200,131351.200,140789.400,141065.700,126522.100,0.000
137751.300,136548.300,185225.900,191173.700,131351.200,140790.200,141065.000,126518.900,0.000
137751.900,136546.500,185221.100,191168.900,131350.100,140787.300,141063.600,126514.900,0.000
137754.800,136549.100,185220.100,191168.700,131352.800,140792.100,141065.700,126517.700,0.000
137757.700,136551.900,185220.500,191169.000,131355.100,140795.700,141069.400,126523.000,0.000
137767.100,136559.400,185226.600,191172.500,131362.000,140803.000,141078.000,126532.300,0.000
137759.000,136552.100,185217.600,191162.700,131354.300,140791.700,141069.800,126527.200,0.000
137748.400,136543.400,185204.400,191151.300,131345.200,140786.000,141063.600,126519.800,0.000
137740.300,136535.500,185191.500,191140.800,131339.000,140782.600,141059.100,126516.100,0.000
137744.000,136540.000,185191.600,191140.400,131344.700,140784.300,141062.800,126521.500,0.000
137747.800,136542.700,185193.100,191139.800,131349.000,140785.400,141065.700,126523.000,0.000
137751.600,136545.800,185193.800,191139.000,131352.100,140786.800,141068.800,126523.300,0.000
137755.700,136549.400,185194.300,191140.500,131355.000,140790.300,141071.900,126525.900,0.000
137752.800,136544.800,185186.500,191131.500,131349.500,140786.500,141065.400,126518.800,0.000
137750.200,136543.100,185179.700,191123.800,131347.600,140786.100,141063.900,126513.100,0.000
137749.200,136545.300,185175.800,191122.100,131351.200,140789.000,141068.000,126514.800,0.000
137750.500,136546.600,185174.200,191122.100,131353.500,140787.900,141069.600,126520.400,0.000
137748.000,136543.300,185168.800,191117.200,131348.400,140785.000,141066.300,126520.000,0.000
137748.900,136545.400,185167.600,191115.700,131349.100,140785.100,141066.900,126517.900,0.000
137748.100,136546.300,185166.000,191114.700,131349.900,140784.800,141067.900,126515.700,0.000
137734.500,136535.800,185151.200,191101.900,131340.900,140774.100,141058.600,126509.800,0.000
137727.800,136530.500,185141.400,191092.300,131335.600,140769.300,141054.900,126506.500,0.000
137735.800,136537.600,185146.100,191096.200,131343.100,140776.800,141062.300,126514.400,0.000
137739.100,136540.700,185147.200,191096.900,131347.800,140781.200,141064.900,126515.400,0.000
137734.200,136538.500,185141.800,191091.000,131347.100,140781.700,141062.800,126511.000,0.000
137733.000,136537.300,185138.600,191086.400,131344.900,140777.000,141059.700,126507.500,0.000
137736.900,136541.500,185139.300,191085.400,131346.700,140782.300,141064.900,126509.800,0.000
137732.400,136536.600,185129.300,191077.400,131339.000,140780.100,141058.600,126504.300,0.000
137729.400,136531.400,185119.700,191069.400,131331.800,140773.500,141052.800,126499.700,0.000
137732.000,136534.300,185119.500,191068.200,131333.400,140774.800,141055.800,126502.300,0.000
137728.200,136531.300,185113.500,191062.200,131330.200,140770.000,141052.500,126500.400,0.000
137729.500,136530.600,185111.200,191059.700,131330.100,140770.000,141053.600,126499.800,0.000
137727.800,136528.100,185106.600,191055.400,131328.500,140770.000,141052.700,126499.200,0.000
137721.900,136524.400,185099.900,191048.300,131324.000,140767.000,141048.500,126495.500,0.000
137716.400,136522.100,185093.100,191041.400,131322.400,140766.400,141047.700,126492.800,0.000
137719.000,136523.800,185092.800,191041.100,131327.100,140769.900,141051.500,126495.500,0.000
137717.900,136523.200,185089.300,191038.900,131325.600,140768.300,141052.400,126498.000,0.000
137712.000,136518.500,185081.400,191030.800,131320.500,140765.000,141048.700,126494.300,0.000
137706.300,136513.100,185072.000,191021.500,131316.300,140762.600,141044.600,126489.700,0.000
137708.100,136514.500,185069.800,191018.800,131318.700,140763.900,141046.700,126491.200,0.000
137717.500,136522.800,185075.600,191024.200,131328.300,140766.500,141054.400,126500.100,0.000
137719.900,136524.900,185075.000,191023.300,131328.600,140764.000,141053.800,126501.400,0.000
137718.800,136523.200,185072.000,191021.200,131326.400,140763.700,141051.600,126499.800,0.000
137722.300,136527.700,185073.300,191023.100,131330.800,140768.900,141056.500,126501.500,0.000
137719.800,136524.300,185066.600,191017.000,131328.700,140767.200,141053.100,126501.000,0.000
137718.400,136523.300,185062.500,191014.500,131328.700,140769.000,141055.000,126502.700,0.000
137717.400,136526.200,185060.700,191012.500,131332.400,140775.400,141058.600,126503.500,0.000
137719.500,136530.400,185063.200,191012.400,131339.000,140781.000,141064.500,126508.000,0.000
137727.600,136539.100,185067.600,191015.700,131346.900,140791.900,141074.200,126516.200,0.000
137719.000,136530.400,185055.200,191003.300,131337.700,140780.900,141065.500,126507.700,0.000
137709.900,136520.300,185042.000,190990.100,131329.100,140767.000,141056.000,126499.300,0.000
137711.100,136520.000,185038.300,190986.800,131329.700,140770.700,141058.600,126499.200,0.000
137714.200,136521.700,185038.300,190985.000,131330.500,140773.600,141059.700,126500.300,0.000
137719.600,136523.800,185040.000,190983.700,131332.700,140776.800,141061.200,126503.400,0.000
137722.200,136524.000,185038.800,190982.600,131333.900,140776.800,141060.600,126504.100,0.000
137719.600,136523.000,185033.800,190978.400,131335.300,140775.300,141060.200,126503.000,0.000
137732.300,136537.300,185043.300,190987.500,131348.700,140789.700,141073.300,126511.900,0.000
137725.900,136529.500,185033.000,190976.100,131339.700,140782.400,141063.100,126505.300,0.000
137720.500,136522.700,185024.400,190968.700,131333.600,140778.700,141058.700,126504.100,0.000
137718.800,136523.200,185022.000,190966.500,131333.400,140781.800,141059.000,126506.100,0.000
137723.700,136528.800,185024.500,190970.400,131337.900,140784.200,141061.600,126511.500,0.000
137729.000,136530.800,185023.100,190970.500,131338.000,140786.600,141063.100,126514.300,0.000
137728.900,136529.200,185018.700,190965.000,131333.200,140785.000,141061.200,126513.200,0.000
137723.600,136524.700,185011.800,190955.300,131325.900,140782.200,141056.800,126506.200,0.000
137733.200,136535.300,185018.600,190961.200,131335.200,140792.800,141065.800,126515.400,0.000
137730.700,136531.500,185011.800,190955.000,131328.900,140783.500,141059.300,126507.800,0.000
137731.100,136531.100,185007.900,190952.700,131328.400,140783.300,141059.700,126509.000,0.000
137731.700,136530.600,185005.300,190947.800,131329.600,140785.900,141061.600,126508.700,0.000
137729.500,136528.100,185000.100,190942.300,131327.300,140778.700,141058.100,126506.100,0.000
137720.100,136519.600,184988.700,190932.300,131320.400,140772.900,141051.500,126500.600,0.000
137722.600,136525.300,184990.200,190934.400,131327.300,140782.300,141060.200,126505.500,0.000
137714.000,136518.600,184980.200,190924.700,131322.400,140775.700,141053.600,126499.100,0.000
137712.100,136516.900,184976.500,190922.400,131322.700,140771.400,141052.500,126500.000,0.000
137707.900,136513.300,184971.400,190919.200,131322.700,140771.200,141051.700,126501.100,0.000
137711.800,136517.200,184972.600,190922.400,131328.800,140778.900,141058.200,126506.500,0.000
137714.800,136518.700,184971.500,190923.400,131330.300,140777.200,141058.600,126509.400,0.000
137712.100,136516.100,184967.100,190917.800,131325.400,140771.300,141052.200,126502.900,0.000
137711.900,136517.900,184966.100,190913.400,131326.300,140773.300,141052.800,126501.800,0.000
137712.000,136517.400,184962.900,190910.200,131328.000,140771.300,141053.900,126504.500,0.000
137708.300,136512.700,184954.300,190902.600,131323.800,140767.600,141050.900,126500.200,0.000
137711.300,136515.500,184952.600,190900.700,131326.300,140770.000,141054.100,126501.300,0.000
137717.200,136522.300,184956.000,190904.200,131333.300,140776.800,141060.700,126508.600,0.000
137714.100,136519.200,184950.100,190898.600,131330.700,140776.500,141058.600,126507.300,0.000
137713.400,136516.500,184943.100,190894.000,131326.300,140774.700,141056.000,126505.200,0.000
137718.100,136519.700,184943.200,190894.000,131329.100,140775.700,141058.200,126506.700,0.000
137724.800,136525.300,184946.300,190897.200,131336.600,140779.400,141064.400,126513.100,0.000
137707.500,136508.400,184927.200,190878.300,131320.400,140764.500,141050.200,126497.800,0.000
137718.000,136519.100,184936.000,190886.900,131330.000,140773.300,141060.300,126508.000,0.000
137714.100,136517.000,184931.000,190881.600,131328.500,140772.500,141058.800,126504.700,0.000
137711.000,136514.900,184925.400,190876.700,131327.100,140767.400,141053.500,126501.700,0.000
137717.400,136521.100,184929.000,190879.600,131333.400,140771.700,141058.400,126506.300,0.000
137724.200,136526.800,184933.600,190884.600,131339.400,140777.000,141064.500,126512.700,0.000
137720.900,136524.100,184928.400,190878.800,131334.100,140775.400,141059.500,126511.700,0.000
137724.300,136527.600,184929.800,190876.400,131335.600,140782.500,141061.500,126510.300,0.000
137717.000,136519.600,184921.100,190867.500,131330.000,140779.300,141056.200,126501.800,0.000
137722.800,136528.100,184926.200,190872.100,131338.200,140784.300,141063.700,126510.100,0.000
137722.000,136529.500,184925.400,190871.600,131340.000,140784.300,141064.500,126514.400,0.000
137714.800,136521.700,184914.100,190861.400,131330.700,140778.700,141057.800,126508.600,0.000
137710.000,136515.800,184904.900,190850.900,131323.800,140771.000,141052.200,126504.300,0.000
137712.300,136520.100,184906.100,190851.500,131328.200,140774.200,141055.900,126509.200,0.000
137717.000,136522.600,184908.300,190854.000,131332.300,140779.700,141060.600,126512.800,0.000
137716.500,136522.300,184905.800,190850.300,131330.500,140777.600,141059.600,126511.200,0.000
137721.100,136527.400,184906.700,190850.500,131335.000,140782.000,141063.300,126513.400,0.000
137713.400,136518.700,184893.300,190837.200,131325.300,140770.200,141051.000,126500.900,0.000
137702.000,136508.100,184877.600,190823.900,131313.700,140761.100,141041.300,126488.800,0.000
137708.800,136516.100,184879.600,190827.900,131320.900,140769.000,141049.800,126494.000,0.000
137716.300,136525.000,184884.500,190834.200,131328.800,140773.200,141056.300,126503.100,0.000
137718.300,136527.300,184887.300,190836.000,131331.600,140771.000,141057.300,126505.300,0.000
137717.700,136529.400,184887.400,190835.800,131334.800,140772.600,141058.100,126506.300,0.000
137712.200,136525.700,184880.600,190829.500,131332.200,140772.500,141055.900,126505.000,0.000
137714.700,136524.700,184876.100,190827.300,131331.000,140769.000,141055.300,126506.100,0.000
137722.900,136532.800,184881.000,190832.000,131339.400,140781.700,141068.100,126513.000,0.000
137724.000,136532.900,184880.200,190830.500,131339.000,140777.300,141063.100,126514.400,0.000
137720.900,136529.500,184875.600,190825.600,131337.200,140774.300,141060.200,126511.000,0.000
137716.600,136524.700,184868.300,190816.800,131332.000,140775.300,141056.600,126505.500,0.000
137713.000,136520.600,184860.600,190809.700,131328.200,140772.100,141053.400,126501.100,0.000
137714.900,136525.400,184861.500,190810.400,131330.900,140773.500,141055.000,126501.000,0.000
137712.900,136525.100,184858.600,190806.800,131328.600,140771.800,141055.400,126502.000,0.000
137717.400,136528.400,184858.700,190806.400,131331.100,140776.300,141060.800,126508.600,0.000
137718.700,136527.000,184854.800,190801.700,131329.700,140773.800,141060.400,126508.700,0.000
137721.300,136527.000,184852.700,190799.500,131329.000,140769.900,141058.400,126505.300,0.000
137725.800,136528.800,184853.800,190799.800,131330.700,140770.500,141058.600,126504.800,0.000
137720.800,136520.600,184844.500,190791.500,131323.400,140766.500,141052.600,126498.700,0.000
137723.600,136522.200,184841.900,190790.200,131323.800,140769.100,141054.400,126498.700,0.000
137729.100,136528.200,184844.500,190791.800,131328.400,140773.200,141057.900,126500.400,0.000
137729.500,136530.400,184844.600,190790.900,131330.000,140774.900,141059.500,126500.900,0.000
137730.400,136532.700,184845.000,190790.800,131335.900,140781.700,141066.200,126506.300,0.000
137728.000,136530.000,184839.000,190785.700,131336.300,140785.200,141066.600,126506.200,0.000
137732.700,136531.600,184838.700,190785.900,131338.200,140783.600,141066.400,126509.200,0.000
137728.200,136527.700,184832.700,190780.500,131335.400,140775.700,141060.100,126505.300,0.000
137724.300,136525.400,184827.900,190777.100,131334.300,140772.000,141059.900,126504.100,0.000
137727.500,136527.500,184828.400,190779.100,131336.500,140775.900,141062.400,126510.800,0.000
137727.300,136525.400,184822.600,190774.500,131333.300,140774.300,141059.500,126509.500,0.000
137733.600,136530.300,184826.000,190776.100,131339.500,140781.300,141064.200,126514.100,0.000
137735.700,136534.400,184828.400,190776.600,131342.000,140783.900,141065.400,126514.700,0.000
137742.500,136543.300,184833.800,190781.800,131349.000,140790.600,141073.300,126521.500,0.000
137732.800,136534.600,184821.900,190770.900,131340.500,140785.400,141065.400,126515.200,0.000
137726.000,136527.700,184813.100,190761.500,131334.100,140778.300,141057.900,126509.000,0.000
137723.000,136524.600,184808.800,190758.600,131333.000,140776.800,141056.600,126509.000,0.000
137721.600,136524.100,184805.200,190755.500,131332.100,140775.600,141054.700,126507.600,0.000
137724.900,136528.300,184804.600,190755.500,131335.100,140781.200,141059.900,126510.700,0.000
137723.300,136526.600,184800.000,190750.500,131333.200,140778.700,141057.300,126510.400,0.000
137718.100,136522.900,184793.100,190742.400,131328.800,140775.600,141054.500,126508.900,0.000
137710.100,136517.700,184784.000,190732.100,131323.000,140772.200,141050.800,126503.600,0.000
137713.100,136520.400,184784.700,190731.000,131325.600,140774.300,141052.800,126502.700,0.000
137720.500,136528.800,184789.700,190732.900,131333.900,140780.300,141059.800,126505.500,0.000
137721.800,136531.400,184788.300,190730.500,131337.000,140783.700,141062.400,126505.400,0.000
137722.400,136529.200,184782.600,190728.300,131333.100,140780.000,141057.000,126501.300,0.000
137721.200,136523.900,184775.300,190721.600,131326.300,140773.000,141050.500,126494.900,0.000
137719.500,136521.100,184770.100,190716.500,131323.100,140768.600,141047.700,126493.800,0.000
137722.400,136524.400,184770.300,190716.100,131326.200,140770.900,141051.200,126495.300,0.000
137717.600,136520.000,184762.500,190708.000,131321.300,140767.600,141047.200,126490.000,0.000
137720.400,136521.900,184762.000,190708.800,131324.800,140771.700,141050.600,126493.400,0.000
137721.800,136522.200,184760.300,190706.800,131324.200,140771.200,141050.500,126492.900,0.000
137726.400,136526.600,184762.600,190710.300,131328.800,140772.600,141052.500,126498.000,0.000
137727.800,136529.500,184762.400,190711.300,131332.200,140773.800,141054.400,126501.200,0.000
137726.100,136528.000,184759.200,190708.300,131330.300,140773.200,141053.700,126499.000,0.000
137727.100,136527.800,184758.500,190707.400,131330.200,140772.900,141052.700,126500.800,0.000
137729.400,136528.900,184757.400,190706.100,131332.100,140777.000,141055.800,126501.100,0.000
137722.400,136521.300,184748.700,190697.600,131326.600,140770.800,141048.600,126494.700,0.000
137723.200,136523.200,184748.700,190697.600,131330.000,140773.300,141051.200,126499.300,0.000
137723.400,136523.800,184747.300,190696.700,131331.500,140773.600,141052.700,126504.000,0.000
137717.100,136516.000,184737.400,190689.100,131324.000,140766.700,141048.300,126500.500,0.000
137716.300,136513.800,184731.900,190687.000,131322.900,140767.000,141048.300,126501.100,0.000
137715.900,136514.300,184729.800,190685.000,131324.200,140771.000,141048.800,126500.000,0.000
137721.400,136521.600,184733.700,190686.600,131332.100,140778.900,141055.500,126505.600,0.000
137724.000,136526.300,184735.200,190685.500,131335.100,140783.600,141059.000,126508.600,0.000
137720.300,136521.200,184727.700,190678.800,131328.900,140777.900,141054.400,126503.800,0.000
137724.700,136524.100,184727.300,190679.400,131329.600,140777.500,141054.600,126504.400,0.000
137726.800,136526.500,184727.300,190678.900,131329.600,140775.200,141054.000,126503.800,0.000
137723.600,136523.100,184721.400,190673.400,131324.900,140768.400,141053.600,126500.900,0.000
137712.500,136511.200,184707.300,190661.500,131313.300,140760.000,141043.300,126493.100,0.000
137716.900,136513.100,184707.600,190662.500,131317.700,140766.500,141047.100,126496.900,0.000
137713.400,136508.900,184701.100,190656.300,131315.400,140761.400,141041.900,126491.900,0.000
137713.500,136512.500,184699.400,190652.900,131318.400,140764.400,141046.000,126492.200,0.000
137717.100,136518.600,184701.200,190652.600,131325.100,140769.800,141051.900,126496.400,0.000
137728.000,136527.700,184710.300,190658.700,131333.800,140775.400,141057.900,126503.700,0.000
137738.400,136536.400,184719.600,190664.700,131341.800,140783.300,141063.600,126510.500,0.000
137739.100,136536.400,184719.800,190664.300,131342.800,140780.300,141062.500,126509.200,0.000
137731.100,136528.600,184710.800,190656.000,131336.700,140771.500,141055.100,126500.800,0.000
137726.200,136524.900,184704.600,190651.100,131334.700,140766.200,141052.600,126498.900,0.000
137721.900,136519.800,184697.900,190645.600,131332.100,140763.700,141050.100,126496.000,0.000
137726.000,136522.600,184699.500,190646.200,131335.700,140768.700,141053.200,126502.200,0.000
137727.700,136523.700,184697.300,190645.900,131337.300,140769.900,141053.900,126505.200,0.000
137732.300,136529.200,184699.300,190652.600,131343.600,140775.700,141058.400,126515.300,0.000
137726.800,136525.700,184691.600,190648.000,131340.100,140775.100,141056.600,126517.700,0.000
137731.300,136530.600,184693.300,190650.000,131344.400,140780.500,141062.600,126528.000,0.000
137721.300,136520.500,184681.200,190638.000,131333.100,140771.100,141051.900,126519.500,0.000
137718.300,136516.800,184676.200,190633.000,131328.500,140769.500,141047.700,126518.000,0.000
137722.900,136522.600,184678.600,190636.200,131332.300,140778.100,141052.900,126522.100,0.000
137721.100,136522.300,184674.200,190630.900,131330.500,140777.000,141050.300,126519.700,0.000
137720.400,136521.900,184671.700,190627.000,131328.900,140774.300,141047.700,126517.400,0.000
137718.100,136519.700,184667.700,190620.900,131324.900,140772.500,141044.100,126513.600,0.000
137722.700,136525.200,184670.200,190621.300,131326.300,140774.200,141044.300,126511.400,0.000
137727.300,136531.200,184672.600,190624.500,131330.600,140774.100,141046.700,126513.300,0.000
137731.300,136534.100,184672.900,190626.300,131333.800,140774.100,141048.000,126515.000,0.000
137732.600,136534.700,184671.900,190626.900,131335.200,140776.800,141050.400,126515.000,0.000
137729.200,136532.700,184668.800,190622.900,131332.500,140776.400,141049.500,126511.900,0.000
137713.000,136516.500,184651.000,190606.400,131317.000,140759.800,141032.700,126498.900,0.000
137714.700,136515.400,184649.000,190604.300,131317.800,140758.100,141031.800,126498.500,0.000
137725.600,136526.300,184655.100,190608.200,131328.300,140771.600,141044.000,126509.400,0.000
137729.800,136529.900,184657.300,190608.400,131333.300,140774.300,141048.500,126516.300,0.000
137726.000,136524.300,184651.800,190602.000,131328.100,140770.700,141043.300,126512.900,0.000
137726.900,136523.800,184648.500,190598.500,131326.000,140769.900,141041.700,126511.600,0.000
137728.100,136523.500,184644.600,190597.500,131326.000,140774.300,141043.300,126511.700,0.000
137732.700,136527.700,184645.500,190599.000,131330.200,140779.300,141047.700,126513.800,0.000
137737.000,136532.400,184649.400,190600.400,131335.700,140784.600,141051.700,126517.000,0.000
137737.100,136533.800,184648.300,190598.400,131338.500,140787.900,141054.200,126519.700,0.000
137732.400,136528.400,184639.200,190591.800,131332.100,140781.500,141048.700,126514.300,0.000
137728.400,136524.700,184631.600,190584.600,131327.500,140778.800,141045.900,126509.400,0.000
137727.200,136523.500,184627.500,190582.100,131328.000,140776.600,141046.000,126509.600,0.000
137726.900,136521.900,184624.300,190578.800,131326.200,140774.700,141045.000,126510.300,0.000
137733.800,136527.600,184628.200,190582.100,131333.400,140784.300,141052.200,126516.400,0.000
137732.100,136525.500,184623.300,190578.000,131332.000,140782.400,141049.600,126514.100,0.000
137729.600,136521.600,184617.500,190573.700,131329.600,140780.200,141047.200,126511.900,0.000
137733.200,136523.000,184619.700,190575.500,131333.100,140779.600,141050.200,126512.800,0.000
137732.300,136521.000,184617.200,190571.300,131331.300,140776.100,141046.800,126510.700,0.000
137731.400,136519.800,184613.100,190565.900,131330.200,140779.000,141045.900,126509.000,0.000
137722.200,136512.900,184603.000,190554.800,131323.400,140773.200,141040.000,126498.700,0.000
137724.400,136519.000,184604.800,190556.700,131327.500,140777.600,141044.400,126503.800,0.000
137725.000,136522.300,184603.200,190556.400,131328.800,140779.100,141046.800,126506.800,0.000
137719.800,136517.400,184596.700,190550.300,131325.300,140775.400,141045.100,126506.400,0.000
137716.500,136514.100,184592.400,190546.300,131323.800,140771.700,141043.000,126506.300,0.000
137723.000,136518.300,184596.200,190550.000,131330.300,140779.200,141050.000,126513.500,0.000
137716.100,136510.000,184585.800,190542.300,131323.800,140774.500,141045.100,126509.600,0.000
137718.800,136512.800,184585.700,190543.200,131328.800,140777.800,141050.400,126517.000,0.000
137726.200,136521.700,184591.700,190546.300,131336.300,140781.900,141055.400,126523.600,0.000
137724.400,136521.300,184588.300,190539.200,131332.500,140776.500,141051.400,126518.100,0.000
137721.500,136519.200,184583.700,190534.000,131330.700,140773.800,141048.700,126514.900,0.000
137723.000,136520.200,184582.400,190531.700,131330.600,140771.600,141047.000,126514.500,0.000
137731.400,136527.200,184587.300,190534.900,131334.900,140775.000,141051.600,126520.300,0.000
137740.700,136532.800,184593.700,190540.300,131341.000,140782.900,141058.600,126525.900,0.000
137739.100,136526.800,184589.700,190533.300,131335.800,140775.500,141053.700,126518.800,0.000
137741.200,136529.600,184590.400,190531.300,131338.500,140776.900,141057.000,126520.100,0.000
137741.800,136531.900,184589.700,190529.900,131343.100,140780.200,141062.600,126519.500,0.000
137740.900,136533.800,184587.300,190528.300,131346.500,140782.400,141061.600,126521.500,0.000
137742.000,136537.700,184587.800,190530.100,131351.900,140786.400,141065.400,126525.100,0.000
137746.600,136544.000,184591.600,190535.100,131360.900,140796.700,141074.000,126531.200,0.000
137744.300,136544.000,184588.000,190531.900,131360.000,140797.900,141070.500,126526.700,0.000
137747.600,136548.700,184588.000,190533.200,131366.000,140800.700,141075.800,126530.900,0.000
137743.900,136544.300,184580.500,190527.500,131365.600,140795.800,141074.800,126532.700,0.000
137740.800,136539.100,184574.800,190522.100,131361.800,140791.900,141069.200,126530.800,0.000
137736.700,136534.400,184569.500,190516.500,131357.500,140787.800,141064.500,126529.200,0.000
137733.600,136529.600,184562.300,190509.800,131352.700,140787.200,141062.600,126526.500,0.000
137731.700,136526.800,184555.900,190503.800,131347.600,140786.900,141058.200,126522.200,0.000
137734.400,136531.800,184557.800,190504.500,131348.600,140791.100,141059.500,126525.500,0.000
137733.300,136535.300,184556.500,190502.000,131346.700,140792.800,141057.800,126524.600,0.000
137728.300,136532.700,184549.600,190497.100,131343.900,140795.400,141057.500,126523.300,0.000
137732.400,136534.400,184548.800,190499.800,131345.900,140794.800,141058.300,126527.200,0.000
137730.000,136530.800,184543.400,190495.700,131343.700,140792.800,141056.000,126525.500,0.000
137730.500,136531.900,184542.600,190494.500,131347.200,140797.000,141057.600,126525.200,0.000
137726.200,136527.700,184535.800,190487.000,131341.500,140792.000,141051.200,126518.800,0.000
137724.100,136525.900,184530.000,190481.800,131335.800,140786.800,141047.400,126514.800,0.000
137734.200,136536.600,184537.000,190487.900,131344.200,140797.400,141056.100,126521.900,0.000
137743.000,136544.700,184542.600,190495.100,131350.700,140804.400,141063.600,126529.800,0.000
137732.900,136534.400,184530.700,190485.100,131340.100,140790.900,141053.500,126519.700,0.000
137731.100,136532.400,184528.000,190480.800,131340.000,140790.000,141053.900,126517.900,0.000
137725.900,136525.700,184521.900,190470.400,131334.000,140781.800,141046.300,126510.100,0.000
137721.500,136519.200,184515.500,190462.400,131330.100,140776.700,141042.300,126503.500,0.000
137723.000,136519.500,184514.200,190460.200,131333.000,140781.000,141046.100,126505.800,0.000
137724.700,136519.000,184510.800,190459.100,131333.600,140778.900,141046.900,126506.900,0.000
137731.400,136525.900,184516.200,190465.100,131340.400,140783.200,141053.000,126515.900,0.000
137725.400,136523.000,184511.200,190460.700,131337.400,140783.100,141050.300,126513.400,0.000
137723.500,136522.000,184506.300,190458.300,131335.200,140782.100,141050.400,126513.200,0.000
137718.000,136511.900,184491.500,190447.800,131323.000,140771.100,141041.000,126503.500,0.000
137717.500,136508.000,184483.600,190442.100,131316.600,140764.000,141035.800,126499.700,0.000
137723.000,136514.700,184488.500,190444.800,131322.300,140769.100,141041.100,126502.900,0.000
137729.100,136522.600,184496.800,190448.800,131331.200,140775.600,141047.300,126509.400,0.000
137727.100,136517.100,184491.200,190441.000,131326.500,140768.000,141041.100,126504.500,0.000
137733.100,136519.600,184491.800,190441.400,131329.400,140768.300,141044.600,126507.000,0.000
137740.000,136526.100,184495.200,190445.100,131334.000,140772.900,141050.300,126512.500,0.000
137733.200,136522.000,184488.500,190437.200,131326.600,140771.000,141043.900,126505.800,0.000
137732.300,136521.400,184486.700,190432.300,131326.500,140776.300,141045.100,126506.900,0.000
137731.900,136521.100,184484.700,190428.700,131329.500,140778.500,141048.700,126510.800,0.000
137724.700,136515.700,184476.800,190420.100,131326.200,140774.000,141044.100,126505.300,0.000
137723.500,136517.800,184475.300,190420.200,131330.900,140779.500,141047.700,126505.300,0.000
137728.500,136525.900,184481.100,190426.800,131340.200,140789.400,141056.300,126512.300,0.000
137722.600,136521.100,184474.000,190420.600,131335.500,140787.300,141053.400,126508.200,0.000
137722.500,136520.500,184470.500,190419.100,131332.600,140786.600,141051.700,126509.400,0.000
137725.000,136521.200,184468.800,190419.100,131330.300,140781.800,141050.500,126509.200,0.000
137726.500,136518.500,184465.600,190416.400,131326.000,140776.500,141046.700,126507.200,0.000
137732.500,136523.600,184468.900,190417.600,131332.000,140784.600,141053.500,126513.300,0.000
137733.800,136521.400,184466.000,190414.600,131331.200,140783.300,141051.900,126514.700,0.000
137732.500,136516.100,184460.500,190407.000,131325.000,140774.900,141046.600,126510.200,0.000
137730.900,136514.000,184456.800,190400.600,131320.400,140771.400,141043.400,126506.300,0.000
137737.400,136521.200,184461.600,190403.400,131326.700,140773.800,141048.300,126511.200,0.000
137735.800,136519.400,184458.000,190399.200,131325.300,140773.100,141047.400,126508.900,0.000
137740.000,136524.500,184462.500,190403.000,131330.800,140779.800,141051.400,126513.400,0.000
137740.800,136526.900,184463.400,190403.600,131333.200,140779.600,141051.700,126515.000,0.000
137738.200,136527.200,184459.300,190400.800,131334.900,140782.200,141050.600,126514.400,0.000
137731.500,136520.700,184448.600,190394.700,131331.100,140778.000,141048.300,126513.000,0.000
137731.600,136521.300,184446.000,190392.700,131332.800,140780.300,141050.500,126516.400,0.000
137732.300,136522.600,184445.500,190391.300,131334.600,140783.900,141052.700,126520.600,0.000
137734.400,136525.400,184446.400,190393.400,131338.700,140790.600,141056.800,126525.900,0.000
137742.000,136532.200,184448.800,190396.900,131344.000,140797.500,141062.200,126531.700,0.000
137733.300,136524.500,184436.400,190385.700,131334.200,140788.100,141052.800,126522.000,0.000
137731.900,136527.700,184436.000,190385.500,131337.200,140792.700,141053.900,126526.000,0.000
137730.000,136529.400,184436.000,190383.500,131337.900,140794.900,141054.800,126529.000,0.000
137726.800,136530.400,184433.100,190381.000,131338.200,140798.000,141055.700,126534.100,0.000
137726.400,136530.100,184430.000,190380.200,131338.800,140794.300,141058.000,126537.600,0.000
137727.500,136530.900,184429.700,190381.300,131341.100,140792.000,141058.800,126539.800,0.000
137715.900,136520.300,184419.000,190369.500,131331.500,140781.900,141048.800,126526.500,0.000
137718.000,136521.200,184419.000,190369.000,131332.200,140782.700,141050.400,126525.500,0.000
137720.100,136522.000,184417.300,190368.800,131332.000,140782.700,141049.900,126522.900,0.000
137723.200,136523.700,184419.300,190371.600,131335.500,140779.600,141051.700,126523.200,0.000
137724.500,136523.800,184418.400,190371.400,131336.400,140772.300,141048.700,126520.400,0.000
137720.100,136520.300,184412.500,190365.500,131332.700,140770.600,141046.500,126515.200,0.000
137727.500,136526.900,184417.600,190368.600,131339.800,140778.700,141053.900,126521.400,0.000
137729.200,136530.100,184418.400,190369.200,131344.900,140782.900,141058.600,126526.400,0.000
137722.900,136525.200,184410.800,190361.400,131339.700,140771.600,141051.300,126518.100,0.000
137723.700,136526.600,184409.900,190357.500,131338.000,140768.300,141047.700,126512.800,0.000
137728.000,136530.600,184411.600,190356.000,131340.400,140773.300,141049.400,126513.400,0.000
137730.400,136532.600,184410.200,190354.500,131341.200,140778.000,141051.100,126514.300,0.000
137726.100,136532.200,184405.800,190350.400,131340.000,140779.600,141051.300,126513.100,0.000
137728.900,136539.500,184410.200,190354.000,131348.200,140789.300,141059.300,126523.500,0.000
137729.900,136542.300,184408.900,190354.000,131354.000,140797.300,141067.200,126531.100,0.000
137730.100,136542.000,184406.200,190352.100,131355.700,140803.600,141072.200,126536.800,0.000
137713.000,136523.300,184387.200,190333.300,131338.000,140786.800,141057.000,126521.300,0.000
137717.700,136528.200,184389.800,190336.500,131343.000,140792.700,141061.300,126527.400,0.000
137721.100,136529.200,184389.700,190338.000,131343.800,140788.500,141059.700,126527.400,0.000
137730.700,136537.200,184395.000,190344.300,131349.000,140793.800,141063.700,126534.000,0.000
137726.200,136532.600,184388.300,190335.900,131343.700,140791.200,141057.900,126528.700,0.000
137732.400,136535.300,184391.500,190335.500,131345.600,140793.700,141058.100,126527.500,0.000
137734.000,136535.100,184389.500,190333.000,131343.600,140795.500,141057.000,126524.200,0.000
137734.000,136535.300,184385.500,190329.000,131343.400,140794.800,141058.200,126522.300,0.000
137728.700,136528.900,184376.500,190321.200,131338.800,140787.300,141052.800,126518.100,0.000
137731.100,136529.100,184376.200,190321.500,131339.600,140785.600,141054.400,126522.600,0.000
137728.600,136524.800,184371.500,190317.600,131335.300,140782.100,141052.100,126520.500,0.000
137724.200,136521.700,184366.100,190314.100,131332.400,140784.200,141048.700,126518.700,0.000
137720.600,136519.400,184358.600,190311.100,131329.200,140779.700,141046.500,126518.300,0.000
137716.600,136514.500,184350.400,190305.600,131324.500,140772.500,141041.300,126513.900,0.000
137723.600,136521.600,184356.300,190310.500,131333.000,140780.800,141049.400,126518.600,0.000
137725.400,136523.800,184356.600,190308.700,131334.800,140784.900,141053.400,126520.100,0.000
137728.400,136527.400,184357.600,190308.400,131337.000,140788.800,141057.000,126523.500,0.000
137721.600,136521.200,184348.200,190297.300,131329.900,140781.800,141050.600,126513.900,0.000
137720.500,136521.900,184345.000,190293.700,131330.100,140782.100,141050.700,126511.100,0.000
137714.400,136515.600,184337.200,190285.600,131322.700,140774.600,141043.500,126506.300,0.000
137718.300,136519.300,184340.700,190287.000,131325.900,140778.700,141047.700,126510.300,0.000
137716.800,136519.500,184338.900,190286.600,131326.400,140780.200,141048.000,126512.000,0.000
137711.900,136514.500,184330.900,190283.800,131322.900,140775.900,141043.800,126509.400,0.000
137710.600,136512.500,184327.100,190282.500,131323.600,140774.100,141044.600,126511.900,0.000
137722.200,136521.400,184335.800,190288.400,131333.600,140785.800,141054.800,126522.400,0.000
137719.000,136515.400,184330.200,190278.600,131328.000,140782.600,141051.900,126517.500,0.000
137720.500,136516.200,184329.100,190275.200,131326.800,140777.200,141049.100,126515.000,0.000
137714.400,136512.700,184322.200,190267.100,131323.100,140772.100,141044.800,126509.000,0.000
137711.900,136511.400,184317.500,190262.000,131320.400,140769.900,141043.500,126505.600,0.000
137716.800,136517.000,184319.600,190265.100,131324.400,140779.300,141048.500,126508.900,0.000
137716.800,136514.000,184313.800,190261.500,131319.000,140777.600,141045.000,126504.400,0.000
137716.100,136510.700,184308.400,190256.200,131313.500,140774.000,141040.600,126502.000,0.000
137718.600,136513.500,184307.800,190254.600,131316.000,140777.600,141042.200,126501.600,0.000
137723.100,136516.500,184309.600,190257.300,131322.000,140780.200,141047.400,126506.100,0.000
137713.200,136507.600,184299.500,190247.200,131314.000,140771.700,141039.300,126498.200,0.000
137713.700,136508.600,184299.400,190245.900,131313.800,140770.400,141039.400,126497.400,0.000
137723.800,136518.600,184309.300,190254.400,131322.000,140779.000,141047.300,126504.200,0.000
137724.700,136519.400,184308.500,190253.400,131320.300,140776.500,141044.700,126501.000,0.000
137729.100,136523.700,184308.700,190254.300,131323.800,140780.300,141049.600,126505.200,0.000
137730.800,136522.900,184305.300,190250.700,131322.000,140781.000,141048.100,126506.500,0.000
137739.800,136527.700,184309.600,190255.200,131324.600,140780.800,141051.100,126512.200,0.000
137738.900,136526.200,184305.200,190251.400,131320.400,140778.400,141048.400,126508.300,0.000
137732.100,136522.600,184296.800,190242.600,131315.300,140773.100,141044.800,126501.200,0.000
137730.200,136523.200,184295.200,190240.500,131319.900,140773.300,141047.000,126504.700,0.000
137731.500,136526.300,184298.100,190241.700,131326.000,140778.500,141050.200,126506.600,0.000
137731.600,136527.700,184298.900,190240.500,131328.000,140781.400,141049.600,126504.700,0.000
137732.200,136526.600,184297.500,190237.900,131327.800,140780.800,141048.400,126503.700,0.000
137739.900,136535.100,184301.600,190243.300,131334.300,140785.200,141055.000,126510.800,0.000
137743.100,136538.700,184303.400,190245.400,131337.300,140787.600,141057.800,126514.800,0.000
137739.100,136532.900,184295.600,190238.500,131329.900,140783.000,141053.300,126509.400,0.000
137730.500,136522.900,184282.600,190226.900,131318.300,140774.500,141044.100,126497.700,0.000
137729.400,136521.700,184279.600,190222.400,131316.900,140771.900,141041.600,126495.300,0.000
137733.200,136527.000,184282.800,190225.300,131322.900,140775.600,141047.500,126500.000,0.000
137736.200,136532.900,184286.400,190229.300,131328.900,140779.300,141053.900,126506.800,0.000
137731.400,136528.800,184279.100,190225.200,131324.900,140775.000,141050.200,126506.700,0.000
137727.900,136525.700,184274.000,190221.200,131321.500,140773.200,141048.400,126504.500,0.000
137728.400,136527.800,184272.700,190219.600,131323.300,140776.000,141049.400,126505.700,0.000
137732.000,136533.100,184275.100,190220.600,131329.600,140780.400,141054.200,126507.800,0.000
137732.300,136534.900,184276.400,190219.600,131334.100,140783.600,141056.900,126508.100,0.000
137731.700,136534.700,184275.300,190216.200,131334.200,140786.800,141056.100,126506.300,0.000
137738.900,136541.500,184280.500,190222.100,131343.100,140797.500,141063.800,126514.700,0.000
137736.600,136541.300,184276.800,190220.900,131344.800,140798.000,141066.000,126516.100,0.000
137723.800,136531.300,184262.800,190209.200,131335.100,140785.200,141054.300,126507.200,0.000
137720.800,136528.100,184256.500,190204.900,131331.300,140784.100,141052.300,126505.200,0.000
137723.000,136527.100,184255.100,190202.600,131329.300,140787.000,141052.000,126504.000,0.000
137728.100,136529.000,184255.800,190202.300,131328.700,140784.100,141050.700,126505.000,0.000
137726.500,136523.200,184249.800,190195.300,131322.000,140773.800,141044.100,126499.100,0.000
137726.800,136521.000,184247.800,190190.000,131322.200,140773.400,141045.000,126497.600,0.000
137728.400,136521.200,184249.100,190189.200,131326.200,140772.600,141047.900,126500.700,0.000
137725.300,136518.900,184246.300,190187.200,131326.600,140771.600,141048.100,126501.100,0.000
137730.000,136524.100,184248.700,190191.800,131331.800,140780.100,141054.800,126507.800,0.000
137722.000,136515.300,184237.700,190183.200,131321.800,140770.100,141045.100,126502.000,0.000
137720.300,136516.300,184233.800,190181.100,131321.500,140769.300,141047.700,126504.100,0.000
137718.900,136519.700,184231.000,190181.100,131325.100,140774.500,141052.300,126510.100,0.000
137719.800,136523.000,184230.800,190180.800,131330.000,140777.900,141057.900,126512.500,0.000
137714.300,136517.600,184223.200,190171.900,131326.700,140771.800,141054.500,126504.500,0.000
137722.900,136527.200,184230.500,190179.200,131338.100,140781.400,141064.300,126512.700,0.000
137717.000,136522.300,184224.300,190173.400,131335.600,140773.900,141059.000,126507.700,0.000
137719.900,136523.800,184224.300,190175.600,131338.400,140775.900,141060.400,126512.300,0.000
137723.800,136526.900,184225.300,190179.200,131341.100,140780.100,141063.300,126522.800,0.000
137722.800,136525.200,184223.200,190178.000,131340.700,140781.700,141064.200,126530.000,0.000
137725.900,136529.700,184224.100,190179.900,131346.100,140789.900,141070.000,126539.400,0.000
137725.500,136530.400,184220.200,190175.500,131345.700,140792.700,141068.900,126540.600,0.000
137726.000,136530.100,184216.700,190170.300,131344.500,140789.400,141066.200,126539.200,0.000
137730.500,136532.500,184218.600,190170.100,131346.100,140790.300,141065.600,126539.000,0.000
137725.700,136525.200,184211.700,190163.200,131338.500,140782.800,141057.200,126530.500,0.000
137729.000,136526.500,184212.900,190167.000,131342.100,140789.100,141060.200,126530.700,0.000
137733.500,136532.200,184215.800,190170.700,131347.400,140796.800,141065.200,126534.500,0.000
137734.000,136534.100,184214.100,190167.900,131344.800,140793.700,141062.400,126534.200,0.000
137734.000,136535.400,184212.500,190164.500,131343.100,140795.100,141061.300,126532.000,0.000
137734.700,136535.500,184212.200,190161.000,131341.400,140796.400,141059.900,126528.000,0.000
137730.900,136529.300,184204.700,190152.700,131332.700,140785.500,141051.000,126517.300,0.000
137731.500,136527.900,184202.000,190152.000,131331.800,140777.100,141047.000,126515.700,0.000
137727.500,136524.500,184196.400,190145.500,131331.000,140776.600,141046.300,126512.100,0.000
137726.500,136523.000,184193.600,190142.600,131329.800,140773.400,141043.000,126510.100,0.000
137728.000,136524.700,184193.000,190143.000,131330.100,140774.300,141042.900,126510.700,0.000
137738.400,136535.000,184200.800,190150.500,131338.900,140783.300,141052.400,126519.500,0.000
137740.700,136537.800,184198.600,190150.100,131341.600,140787.500,141056.100,126521.600,0.000
137734.400,136532.000,184189.300,190141.900,131336.700,140781.700,141051.700,126516.500,0.000
137726.500,136527.000,184182.000,190131.800,131330.900,140778.300,141044.900,126508.100,0.000
137723.700,136526.400,184180.300,190127.700,131330.900,140779.500,141044.300,126505.900,0.000
137731.000,136533.500,184185.600,190131.100,131338.700,140787.000,141051.500,126512.600,0.000
137732.900,136532.000,184183.200,190129.000,131336.700,140779.700,141047.000,126511.000,0.000
137738.700,136534.800,184186.700,190132.200,131339.800,140777.900,141048.800,126514.000,0.000
137749.000,136545.100,184195.300,190140.700,131349.100,140790.300,141059.500,126524.200,0.000
137748.400,136546.000,184193.600,190138.600,131347.900,140796.900,141060.900,126524.600,0.000
137739.800,136536.600,184180.900,190125.600,131337.300,140786.200,141051.100,126514.800,0.000
137738.300,136533.500,184175.400,190120.300,131337.000,140782.600,141049.300,126512.600,0.000
137741.200,136533.800,184174.400,190118.700,131337.900,140783.600,141051.000,126514.600,0.000
137746.500,136540.000,184178.200,190121.500,131344.800,140795.800,141060.300,126519.500,0.000
137749.000,136541.800,184179.400,190123.500,131348.900,140797.300,141062.500,126526.400,0.000
137745.300,136534.800,184172.700,190116.500,131343.200,140787.200,141054.400,126522.100,0.000
137747.400,136536.100,184172.900,190116.700,131344.900,140788.600,141057.500,126522.600,0.000
137746.900,136538.000,184170.700,190115.400,131344.400,140787.900,141058.200,126523.000,0.000
137745.200,136538.400,184167.200,190113.700,131344.000,140790.400,141059.900,126524.900,0.000
137747.600,136540.500,184167.800,190114.000,131346.500,140795.700,141063.000,126528.500,0.000
137742.500,136534.500,184160.100,190106.600,131340.100,140789.700,141055.800,126519.600,0.000
137748.300,136538.900,184162.400,190108.800,131345.000,140793.400,141060.900,126525.700,0.000
137742.500,136535.000,184153.600,190100.700,131340.500,140790.900,141057.100,126521.800,0.000
137739.700,136530.100,184147.700,190097.000,131336.000,140785.600,141052.700,126517.800,0.000
137744.000,136531.700,184150.600,190100.600,131339.600,140786.800,141056.000,126523.400,0.000
137740.100,136530.200,184147.500,190095.700,131337.800,140783.900,141053.500,126522.500,0.000
137737.000,136531.300,184145.900,190094.400,131337.900,140784.000,141054.400,126522.700,0.000
137737.200,136532.500,184143.300,190092.000,131337.300,140781.800,141053.500,126522.300,0.000
137749.700,136543.900,184153.400,190100.000,131348.800,140789.300,141062.400,126534.200,0.000
137749.500,136542.400,184151.100,190095.100,131346.800,140788.800,141060.000,126530.800,0.000
137742.500,136534.600,184142.000,190086.900,131339.900,140783.700,141053.200,126521.400,0.000
137740.400,136533.700,184137.400,190084.400,131339.100,140784.800,141054.100,126521.700,0.000
137743.600,136536.500,184137.400,190084.900,131339.800,140783.200,141054.800,126522.600,0.000
137747.000,136542.300,184140.400,190086.700,131343.100,140787.700,141056.800,126527.400,0.000
137741.600,136541.300,184135.900,190079.800,131340.000,140788.400,141054.600,126522.200,0.000
137737.000,136540.600,184130.100,190074.900,131337.400,140790.200,141054.300,126519.800,0.000
137731.100,136533.800,184119.600,190065.700,131330.900,140785.500,141048.100,126511.200,0.000
137734.400,136535.700,184120.100,190065.900,131333.600,140788.800,141051.000,126514.900,0.000
137733.300,136531.800,184119.500,190064.100,131332.400,140786.800,141051.200,126517.000,0.000
137739.400,136536.400,184124.700,190070.500,131338.500,140789.800,141058.600,126524.700,0.000
137739.400,136536.300,184122.300,190070.000,131339.000,140788.100,141056.500,126524.900,0.000
137735.800,136529.900,184115.900,190064.900,131334.000,140781.400,141050.300,126519.000,0.000
137736.000,136529.000,184115.700,190065.500,131337.500,140781.700,141052.600,126520.600,0.000
137734.000,136532.000,184117.000,190064.800,131339.800,140784.900,141054.500,126522.100,0.000
137735.200,136535.400,184115.200,190060.600,131337.800,140788.100,141053.500,126517.900,0.000
137735.300,136532.900,184110.000,190054.100,131333.600,140787.200,141049.600,126512.200,0.000
137735.600,136531.900,184107.600,190049.900,131332.300,140785.100,141048.700,126510.800,0.000
137734.200,136530.900,184104.600,190046.400,131330.900,140780.600,141048.100,126512.200,0.000
137732.000,136528.200,184101.200,190042.900,131329.900,140777.600,141048.900,126514.200,0.000
137741.100,136536.400,184108.100,190048.400,131338.800,140786.900,141057.200,126524.000,0.000
137748.000,136539.800,184110.300,190051.000,131342.200,140789.500,141059.500,126526.700,0.000
137746.600,136538.900,184104.000,190047.900,131340.200,140789.500,141058.600,126523.300,0.000
137738.000,136533.100,184093.200,190038.400,131333.600,140783.900,141053.100,126516.700,0.000
137742.400,136538.000,184096.500,190039.700,131337.400,140787.900,141057.600,126521.300,0.000
137740.100,136534.100,184090.500,190031.200,131330.200,140783.600,141051.900,126515.200,0.000
137739.800,136532.500,184087.500,190027.800,131326.400,140778.400,141047.600,126512.500,0.000
137732.900,136526.000,184079.400,190022.300,131320.400,140769.300,141041.800,126509.400,0.000
137744.300,136538.700,184088.300,190031.600,131333.600,140782.700,141054.800,126519.900,0.000
137747.400,136543.100,184090.000,190032.000,131336.900,140789.200,141059.000,126523.200,0.000
137743.800,136541.400,184084.500,190026.100,131333.400,140789.300,141055.700,126521.100,0.000
137746.500,136545.900,184085.900,190025.500,131338.700,140795.700,141060.300,126522.000,0.000
137751.800,136553.800,184090.600,190028.500,131348.500,140806.500,141068.600,126528.300,0.000
137749.500,136548.800,184085.000,190024.400,131345.400,140798.000,141063.900,126526.600,0.000
137748.500,136544.200,184081.200,190020.200,131341.800,140791.300,141059.300,126522.600,0.000
137756.000,136548.300,184085.400,190024.200,131345.800,140794.100,141062.600,126523.400,0.000
137754.300,136544.000,184079.000,190021.000,131339.700,140789.400,141057.000,126518.300,0.000
137756.900,136546.500,184076.900,190020.100,131340.600,140793.700,141061.100,126521.500,0.000
137767.000,136554.900,184083.300,190027.500,131347.900,140793.200,141066.400,126529.300,0.000
137761.200,136549.000,184075.200,190018.800,131339.000,140787.900,141061.100,126522.000,0.000
137749.900,136537.700,184062.300,190004.500,131327.800,140779.000,141051.000,126512.000,0.000
137753.500,136540.300,184064.200,190005.800,131332.500,140783.800,141056.400,126519.500,0.000
137753.800,136540.400,184061.300,190000.800,131330.900,140781.700,141057.200,126517.000,0.000
137760.400,136546.200,184065.200,190003.300,131334.900,140785.000,141061.200,126519.600,0.000
137762.900,136550.600,184069.100,190005.500,131339.400,140789.300,141064.900,126521.800,0.000
137759.900,136548.700,184065.500,190001.100,131338.300,140787.300,141063.900,126520.500,0.000
137758.700,136549.000,184061.500,189993.800,131338.100,140789.400,141063.000,126515.400,0.000
137757.900,136548.300,184059.200,189988.800,131337.300,140787.000,141060.400,126513.500,0.000
137759.700,136550.700,184058.800,189987.900,131340.600,140789.200,141063.900,126515.600,0.000
137759.700,136554.700,184060.100,189988.100,131343.900,140793.700,141067.600,126519.300,0.000
137761.900,136558.700,184063.300,189990.800,131347.600,140801.500,141071.400,126521.700,0.000
137759.500,136554.200,184056.700,189985.200,131342.600,140796.600,141066.200,126517.500,0.000
137754.300,136546.300,184047.600,189978.000,131334.500,140786.100,141058.500,126510.100,0.000
137768.200,136556.200,184059.000,189991.500,131345.400,140792.800,141067.800,126520.600,0.000
137765.600,136553.100,184056.300,189989.200,131342.900,140787.200,141063.000,126517.900,0.000
137755.100,136542.700,184044.100,189978.300,131334.100,140777.500,141054.200,126508.000,0.000
137761.100,136551.300,184049.500,189984.100,131344.900,140787.900,141063.500,126515.200,0.000
137756.200,136549.800,184046.000,189977.900,131347.300,140789.300,141063.100,126512.000,0.000
137750.000,136543.200,184040.000,189972.800,131344.800,140777.800,141057.400,126509.500,0.000
137753.700,136548.000,184042.300,189976.100,131350.700,140788.600,141063.900,126516.200,0.000
137749.400,136544.400,184037.900,189971.200,131347.000,140787.800,141057.900,126512.600,0.000
137758.000,136552.500,184043.900,189976.700,131352.800,140796.700,141063.000,126518.000,0.000
137761.800,136557.500,184045.700,189978.800,131354.100,140801.100,141063.300,126518.200,0.000
137754.900,136554.700,184037.700,189973.700,131349.400,140800.300,141061.300,126514.700,0.000
137749.000,136550.900,184030.600,189965.500,131341.800,140796.100,141054.400,126506.000,0.000
137758.400,136559.700,184038.900,189971.000,131347.200,140798.700,141058.600,126506.200,0.000
137763.700,136564.000,184043.000,189974.100,131350.100,140792.300,141059.600,126507.300,0.000
137760.800,136558.700,184037.800,189968.900,131348.000,140781.900,141056.900,126504.500,0.000
137760.400,136554.500,184034.100,189965.500,131348.200,140773.200,141055.900,126505.200,0.000
137758.400,136550.700,184030.900,189963.400,131348.600,140769.000,141055.200,126507.700,0.000
137763.500,136557.500,184037.300,189969.200,131357.700,140775.800,141062.700,126516.500,0.000
137766.900,136565.200,184041.000,189972.400,131366.400,140792.000,141070.500,126522.600,0.000
137759.900,136563.300,184033.500,189962.600,131362.900,140798.900,141068.700,126517.500,0.000
137755.200,136560.700,184027.100,189953.500,131357.300,140796.300,141063.000,126509.700,0.000
137762.200,136569.400,184032.300,189955.700,131361.900,140806.800,141068.900,126512.000,0.000
137767.000,136574.300,184034.300,189956.600,131363.200,140814.000,141071.500,126514.300,0.000
137767.200,136571.700,184029.600,189953.500,131360.700,140810.300,141069.600,126512.800,0.000
137764.500,136564.700,184020.900,189947.300,131353.400,140800.300,141063.900,126506.100,0.000
137770.000,136566.300,184023.000,189950.900,131356.700,140803.000,141067.300,126511.900,0.000
137763.200,136559.200,184014.100,189942.200,131348.000,140794.200,141060.300,126507.400,0.000
137753.300,136552.600,184003.100,189931.600,131340.300,140789.000,141053.800,126504.300,0.000
137760.300,136561.700,184006.200,189936.000,131350.900,140803.400,141066.700,126514.400,0.000
137765.700,136566.000,184007.100,189937.400,131354.600,140809.900,141072.600,126521.100,0.000
137765.500,136564.800,184004.800,189935.200,131351.700,140806.200,141071.300,126523.900,0.000
137764.500,136564.800,184002.800,189933.700,131351.200,140805.900,141071.300,126526.000,0.000
137749.800,136547.400,183987.300,189918.200,131334.000,140787.800,141053.500,126509.000,0.000
137750.000,136546.500,183986.500,189917.100,131334.200,140792.100,141052.100,126507.800,0.000
137755.400,136550.600,183990.300,189921.600,131341.900,140795.300,141058.600,126516.100,0.000
137756.000,136551.100,183988.000,189920.500,131341.400,140795.300,141061.100,126518.700,0.000
137760.300,136557.100,183990.000,189922.700,131344.600,140799.900,141065.400,126522.000,0.000
137758.600,136554.800,183986.400,189919.800,131340.600,140798.800,141060.400,126515.700,0.000
137752.900,136548.200,183979.700,189912.200,131335.200,140797.000,141054.800,126506.700,0.000
137747.100,136541.300,183972.700,189906.200,131329.400,140784.800,141047.900,126500.400,0.000
137749.400,136544.000,183974.200,189908.700,131331.800,140786.300,141050.100,126502.700,0.000
137751.000,136545.900,183975.900,189908.800,131332.500,140789.100,141052.000,126505.700,0.000
137750.300,136544.000,183973.500,189905.400,131331.300,140792.200,141051.700,126505.400,0.000
137752.600,136546.700,183973.500,189904.300,131335.500,140798.500,141056.500,126508.600,0.000
137751.700,136546.300,183970.800,189900.800,131335.200,140792.200,141053.800,126507.200,0.000
137752.900,136549.600,183971.000,189900.700,131339.700,140795.700,141057.800,126512.400,0.000
137753.300,136552.200,183970.400,189900.300,131342.300,140799.400,141060.300,126514.100,0.000
137756.100,136554.200,183971.500,189899.000,131342.700,140801.700,141059.700,126513.900,0.000
137758.500,136557.600,183973.400,189900.200,131348.100,140806.600,141065.100,126518.800,0.000
137747.500,136549.300,183961.000,189890.200,131341.400,140798.800,141059.100,126513.400,0.000
137742.200,136545.100,183952.000,189884.600,131337.400,140793.900,141056.000,126510.400,0.000
137740.900,136544.200,183950.200,189880.700,131338.000,140793.900,141056.400,126510.300,0.000
137746.800,136552.000,183957.000,189884.300,131345.600,140804.500,141064.800,126515.700,0.000
137744.700,136551.600,183953.300,189881.600,131344.100,140799.700,141061.500,126514.700,0.000
137741.600,136546.700,183946.600,189875.000,131339.800,140789.000,141054.600,126510.800,0.000
137749.200,136552.200,183950.000,189875.800,131345.000,140795.800,141058.500,126511.300,0.000
137745.100,136547.600,183944.400,189868.600,131337.900,140794.100,141054.200,126504.200,0.000
137743.800,136547.300,183944.500,189869.900,131338.200,140798.000,141056.900,126508.600,0.000
137739.900,136543.100,183940.700,189868.300,131337.600,140795.100,141056.500,126512.800,0.000
137740.700,136539.800,183939.000,189867.200,131338.500,140790.900,141057.000,126515.300,0.000
137745.200,136542.700,183942.000,189870.300,131344.100,140791.800,141061.200,126520.100,0.000
137745.700,136542.700,183940.700,189868.800,131344.700,140791.700,141060.400,126518.100,0.000
137746.800,136546.900,183943.100,189869.800,131347.400,140798.700,141064.400,126520.300,0.000
137745.000,136548.500,183943.200,189869.400,131350.500,140806.600,141066.900,126521.400,0.000
137746.800,136552.600,183942.300,189868.600,131352.800,140809.100,141068.400,126521.400,0.000
137742.700,136548.000,183934.900,189862.100,131346.400,140802.200,141064.000,126515.700,0.000
137736.300,136540.600,183926.700,189854.900,131338.200,140795.500,141057.500,126509.400,0.000
137734.000,136537.400,183922.900,189852.000,131337.200,140794.500,141057.000,126509.400,0.000
137740.500,136543.800,183925.300,189854.800,131344.600,140799.300,141064.500,126518.800,0.000
137748.900,136550.500,183929.500,189858.000,131350.700,140802.900,141068.000,126524.800,0.000
137744.000,136547.100,183921.600,189849.400,131344.000,140800.300,141064.600,126518.800,0.000
137742.600,136548.800,183919.500,189846.100,131342.500,140801.800,141064.800,126515.900,0.000
137743.200,136550.300,183918.300,189844.800,131344.100,140805.600,141067.700,126518.800,0.000
137738.700,136544.800,183912.000,189838.200,131338.000,140792.200,141059.500,126515.900,0.000
137741.200,136546.700,183912.000,189838.400,131340.100,140796.900,141062.000,126517.700,0.000
137744.200,136547.300,183913.400,189839.000,131341.800,140797.600,141064.400,126516.500,0.000
137749.100,136547.600,183914.700,189838.300,131342.300,140793.000,141062.700,126513.400,0.000
137749.400,136546.100,183909.700,189832.800,131338.500,140790.900,141058.700,126510.800,0.000
137753.900,136551.500,183909.700,189832.600,131340.900,140799.600,141064.600,126514.900,0.000
137761.600,136560.000,183915.400,189835.400,131347.900,140812.200,141074.200,126523.100,0.000
137753.400,136550.500,183904.300,189824.500,131337.300,140801.400,141064.400,126511.100,0.000
137754.700,136551.000,183903.400,189824.800,131337.300,140801.500,141064.200,126507.800,0.000
137759.500,136555.600,183906.900,189829.400,131339.800,140807.000,141065.700,126513.500,0.000
137764.500,136559.000,183911.100,189832.800,131342.300,140804.200,141065.900,126515.300,0.000
137761.100,136553.900,183905.800,189827.600,131338.700,140798.200,141062.100,126509.200,0.000
137762.200,136554.700,183902.400,189825.400,131338.800,140799.500,141062.600,126507.800,0.000
137757.300,136550.900,183894.700,189817.300,131333.100,140797.300,141057.500,126503.400,0.000
137756.800,136550.900,183893.700,189814.300,131332.400,140794.500,141055.500,126503.200,0.000
137748.000,136546.200,183885.900,189805.900,131330.200,140796.200,141054.600,126500.200,0.000
137755.700,136556.300,183893.700,189813.300,131342.700,140803.800,141067.000,126514.000,0.000
137757.500,136556.700,183893.100,189813.900,131340.600,140799.500,141064.100,126513.200,0.000
137751.000,136547.500,183883.900,189806.500,131327.300,140790.300,141052.800,126501.000,0.000
137756.800,136550.900,183887.300,189810.900,131331.000,140795.800,141059.100,126505.500,0.000
137753.000,136549.100,183883.000,189808.200,131331.400,140795.300,141060.900,126505.400,0.000
137751.200,136548.700,183880.900,189806.300,131334.500,140798.600,141064.800,126511.700,0.000
137746.900,136543.800,183874.500,189800.000,131330.600,140786.000,141058.400,126510.400,0.000
137753.500,136551.500,183880.300,189804.700,131338.400,140796.100,141066.500,126517.200,0.000
137748.000,136548.600,183876.300,189801.000,131337.200,140799.500,141066.700,126515.600,0.000
137746.600,136546.300,183873.900,189800.200,131336.900,140800.700,141068.800,126518.000,0.000
137743.000,136542.300,183866.400,189795.700,131332.700,140798.700,141066.600,126519.000,0.000
137734.700,136533.200,183855.300,189786.900,131323.500,140786.800,141057.800,126514.800,0.000
137734.000,136534.800,183855.300,189787.400,131328.100,140791.300,141064.300,126520.500,0.000
137740.800,136543.300,183862.500,189796.400,131339.600,140805.400,141074.700,126533.600,0.000
137738.700,136540.700,183857.800,189790.700,131335.700,140800.300,141070.500,126529.300,0.000
137745.800,136546.000,183861.300,189792.500,131338.900,140799.600,141069.700,126528.400,0.000
137741.200,136541.700,183854.500,189783.700,131329.600,140791.000,141059.200,126515.900,0.000
137737.900,136536.400,183847.900,189776.600,131319.900,140785.200,141051.000,126508.000,0.000
137740.200,136536.400,183846.300,189774.300,131317.000,140787.700,141049.600,126504.500,0.000
137743.600,136540.700,183848.700,189775.200,131320.900,140791.800,141053.500,126506.400,0.000
137743.000,136541.300,183847.000,189772.300,131323.300,140791.000,141052.400,126508.500,0.000
137746.400,136547.200,183849.500,189775.400,131331.600,140801.600,141062.400,126515.400,0.000
137744.900,136547.500,183848.700,189772.700,131332.100,140802.900,141063.300,126514.100,0.000
137741.100,136543.000,183843.600,189766.600,131326.600,140794.800,141055.300,126507.100,0.000
137740.900,136540.400,183840.500,189764.000,131325.400,140792.400,141052.600,126505.600,0.000
137751.400,136548.700,183847.900,189771.800,131333.800,140797.700,141060.300,126515.400,0.000
137751.200,136546.200,183844.400,189769.500,131331.800,140793.100,141060.600,126515.400,0.000
137757.000,136550.200,183848.500,189774.200,131337.600,140799.700,141066.700,126522.000,0.000
137755.300,136548.300,183844.200,189770.500,131335.500,140797.900,141063.300,126521.300,0.000
137751.800,136543.600,183838.600,189764.400,131331.900,140789.300,141057.700,126517.000,0.000
137760.000,136552.300,183845.200,189770.400,131342.700,140797.200,141067.100,126524.200,0.000
137765.300,136558.300,183849.700,189774.000,131350.800,140805.500,141074.500,126529.200,0.000
137752.800,136549.400,183840.300,189762.700,131342.300,140798.800,141065.100,126518.200,0.000
137750.300,136545.800,183836.800,189758.400,131336.400,140793.900,141058.800,126510.900,0.000
137755.100,136549.600,183838.500,189760.000,131336.700,140792.600,141058.600,126509.200,0.000
137758.500,136553.200,183841.100,189763.500,131342.100,140797.800,141065.000,126515.400,0.000
137749.800,136544.900,183832.700,189754.400,131334.800,140794.800,141060.800,126510.000,0.000
137746.400,136542.500,183827.500,189750.000,131331.000,140795.300,141057.500,126510.300,0.000
137743.900,136542.300,183824.700,189747.000,131331.300,140797.300,141058.500,126511.400,0.000
137746.000,136544.900,183824.600,189747.800,131333.900,140801.700,141063.000,126517.500,0.000
137751.000,136550.200,183827.800,189753.300,131339.900,140806.500,141069.100,126524.100,0.000
137757.700,136555.000,183833.100,189759.400,131346.400,140811.400,141073.100,126528.100,0.000
137751.000,136547.300,183823.000,189749.100,131334.300,140802.000,141063.500,126517.400,0.000
137751.400,136548.400,183820.200,189746.400,131330.800,140804.000,141064.700,126517.000,0.000
137748.300,136545.600,183815.900,189743.800,131327.400,140796.500,141060.600,126515.400,0.000
137745.700,136540.900,183811.600,189739.900,131326.300,140791.100,141057.900,126512.500,0.000
137749.300,136541.200,183812.400,189739.700,131328.000,140789.300,141059.700,126512.600,0.000
137746.500,136537.800,183806.000,189732.300,131321.900,140783.200,141055.200,126509.100,0.000
137752.300,136542.700,183810.000,189734.600,131327.100,140792.600,141060.400,126515.000,0.000
137757.200,136545.000,183813.100,189737.500,131331.300,140797.300,141065.000,126519.400,0.000
137757.800,136544.000,183811.700,189735.700,131331.200,140795.600,141062.900,126518.800,0.000
137764.700,136549.500,183815.200,189738.300,131336.100,140799.800,141067.300,126520.000,0.000
137771.300,136556.100,183820.600,189743.500,131341.500,140805.500,141071.400,126526.800,0.000
137764.500,136552.600,183814.600,189737.400,131336.900,140804.400,141069.500,126522.900,0.000
137758.500,136543.100,183804.300,189728.900,131328.600,140788.400,141059.300,126514.700,0.000
137765.200,136549.000,183807.500,189732.300,131333.800,140792.800,141061.700,126517.700,0.000
137779.200,136563.500,183819.700,189743.600,131347.900,140804.500,141075.100,126528.900,0.000
137777.300,136563.200,183820.000,189744.500,131349.900,140804.600,141075.500,126530.600,0.000
137771.300,136559.400,183815.100,189739.700,131348.300,140803.200,141073.000,126526.300,0.000
137771.400,136558.300,183813.700,189737.400,131349.600,140801.900,141071.800,126525.700,0.000
137771.400,136556.600,183812.300,189735.200,131349.900,140800.500,141070.400,126523.400,0.000
137774.700,136560.800,183814.700,189736.200,131353.400,140807.100,141074.000,126523.500,0.000
137769.900,136555.700,183809.500,189729.000,131349.900,140804.000,141070.200,126520.000,0.000
137774.600,136562.200,183813.700,189729.800,131357.300,140812.100,141076.900,126525.500,0.000
137774.100,136564.500,183812.000,189728.200,131362.700,140817.400,141080.700,126529.200,0.000
137770.900,136566.000,183809.400,189726.400,131364.900,140819.700,141081.500,126532.200,0.000
137776.400,136575.800,183815.200,189733.100,131372.600,140828.900,141088.600,126543.600,0.000
137774.600,136576.000,183812.600,189731.600,131369.300,140829.300,141086.400,126543.700,0.000
137773.100,136575.500,183808.200,189728.700,131364.500,140827.400,141081.000,126540.900,0.000
137776.500,136577.300,183807.900,189728.200,131365.000,140829.600,141083.100,126545.100,0.000
137778.400,136575.300,183806.000,189727.500,131364.800,140826.200,141084.300,126549.300,0.000
137774.500,136569.000,183798.600,189722.000,131360.000,140818.900,141080.300,126547.000,0.000
137774.500,136567.200,183796.300,189720.200,131360.000,140817.700,141079.700,126549.100,0.000
137774.700,136566.200,183795.600,189718.000,131362.500,140821.900,141082.500,126550.800,0.000
137770.500,136562.200,183790.700,189713.000,131358.800,140819.900,141078.500,126543.600,0.000
137772.400,136565.400,183792.300,189714.500,131362.500,140824.600,141080.900,126542.700,0.000
137774.000,136565.400,183790.700,189714.300,131361.800,140818.000,141077.900,126539.700,0.000
137776.900,136568.500,183791.200,189713.900,131361.600,140819.700,141078.100,126538.100,0.000
137780.100,136570.700,183792.400,189712.700,131361.600,140822.500,141078.200,126539.100,0.000
137785.600,136573.400,183793.100,189713.700,131364.200,140824.100,141081.200,126540.500,0.000
137779.600,136566.900,183784.200,189705.300,131358.200,140815.400,141073.400,126535.300,0.000
137779.000,136568.100,183782.100,189704.500,131360.000,140817.800,141075.000,126537.100,0.000
137781.300,136573.000,183785.700,189707.300,131366.000,140825.600,141081.400,126542.100,0.000
137775.500,136568.000,183779.400,189698.900,131359.600,140814.800,141073.000,126532.400,0.000
137775.500,136569.300,183778.000,189698.800,131359.300,140813.700,141072.600,126531.400,0.000
137781.300,136574.100,183780.800,189704.700,131365.300,140817.400,141078.700,126538.500,0.000
137787.600,136578.800,183784.900,189712.300,131372.700,140824.800,141085.900,126545.700,0.000
137788.100,136580.800,183784.400,189712.100,131374.700,140826.600,141088.700,126550.000,0.000
137779.200,136570.600,183774.100,189701.300,131368.000,140819.900,141083.800,126543.600,0.000
137770.300,136558.100,183761.000,189689.700,131358.100,140805.100,141071.800,126534.800,0.000
137772.000,136557.400,183757.300,189687.600,131356.600,140802.900,141070.200,126533.000,0.000
137781.300,136563.700,183762.000,189693.600,131361.500,140808.200,141074.400,126535.400,0.000
137781.300,136563.000,183760.300,189693.300,131359.700,140805.600,141073.200,126536.000,0.000
137777.700,136559.200,183755.000,189687.500,131355.200,140804.500,141069.800,126534.800,0.000
137773.900,136556.200,183749.300,189683.300,131352.600,140805.900,141068.700,126533.900,0.000
137778.100,136562.100,183752.500,189687.000,131359.900,140815.000,141079.600,126541.600,0.000
137774.600,136559.200,183749.000,189682.500,131358.400,140812.300,141077.000,126543.200,0.000
137769.100,136556.800,183744.700,189676.900,131355.800,140809.700,141072.700,126540.300,0.000
137774.000,136561.300,183746.800,189677.600,131355.900,140813.800,141074.800,126540.200,0.000
137780.500,136563.000,183748.300,189677.900,131353.700,140811.800,141074.300,126540.300,0.000
137776.500,136558.600,183742.200,189670.900,131347.300,140808.300,141070.300,126533.900,0.000
137774.400,136555.700,183738.000,189667.900,131342.700,140810.900,141068.900,126530.200,0.000
137763.700,136547.100,183727.100,189656.700,131333.100,140805.600,141063.000,126522.100,0.000
137760.400,136543.400,183721.800,189651.300,131330.000,140793.500,141056.000,126519.600,0.000
137766.700,136548.000,183724.000,189655.100,131335.800,140802.000,141062.000,126526.400,0.000
137760.800,136541.700,183715.800,189650.400,131332.700,140794.600,141058.800,126525.500,0.000
137760.300,136544.000,183717.400,189650.800,131338.100,140796.800,141061.900,126527.200,0.000
137763.900,136550.500,183723.200,189654.900,131346.300,140806.900,141070.600,126534.400,0.000
137762.400,136549.800,183722.000,189653.400,131345.600,140807.600,141069.100,126532.700,0.000
137765.000,136551.200,183723.100,189654.000,131346.200,140804.100,141066.600,126532.300,0.000
137763.900,136549.800,183720.000,189649.700,131345.800,140801.800,141066.400,126532.600,0.000
137765.400,136549.700,183717.100,189648.600,131347.900,140803.600,141068.800,126537.900,0.000
137763.500,136546.600,183712.000,189645.300,131345.800,140803.200,141066.800,126540.900,0.000
137767.600,136552.500,183715.200,189648.300,131351.400,140810.900,141073.800,126546.800,0.000
137768.000,136554.300,183716.200,189647.300,131353.300,140812.100,141073.900,126547.200,0.000
137763.500,136550.800,183711.700,189642.000,131350.400,140809.500,141070.300,126541.400,0.000
137764.400,136553.400,183711.600,189641.900,131353.500,140814.000,141075.100,126541.600,0.000
137764.700,136554.400,183711.500,189641.400,131355.300,140817.600,141076.300,126543.700,0.000
137762.800,136551.800,183709.000,189639.300,131354.400,140813.700,141074.200,126542.900,0.000
137762.600,136551.800,183708.900,189639.800,131357.400,140811.600,141075.500,126544.000,0.000
137757.800,136549.000,183703.900,189633.100,131354.800,140807.300,141071.100,126537.200,0.000
137756.500,136549.100,183701.900,189631.900,131356.400,140809.700,141073.400,126534.500,0.000
137760.400,136552.900,183703.900,189634.700,131360.600,140812.100,141077.800,126537.400,0.000
137768.100,136560.800,183709.900,189639.700,131368.200,140818.100,141083.400,126540.200,0.000
137766.700,136560.100,183707.000,189635.800,131364.300,140813.700,141077.000,126534.100,0.000
137755.700,136551.100,183694.200,189622.700,131351.500,140801.600,141066.300,126520.800,0.000
137756.300,136552.200,183691.800,189621.400,131350.600,140799.000,141064.900,126521.300,0.000
137761.200,136556.500,183694.100,189622.900,131353.500,140801.100,141067.300,126524.400,0.000
137763.000,136561.000,183696.200,189620.600,131355.200,140806.500,141068.700,126525.200,0.000
137755.300,136556.700,183688.900,189610.800,131349.900,140804.600,141064.200,126516.700,0.000
137759.000,136559.700,183690.800,189613.300,131353.900,140808.200,141069.100,126519.700,0.000
137763.900,136562.400,183694.600,189617.600,131358.600,140810.300,141073.800,126527.600,0.000
137764.700,136562.600,183693.200,189617.000,131358.400,140811.200,141075.800,126531.300,0.000
137760.400,136556.000,183684.100,189609.300,131349.200,140802.200,141068.800,126524.200,0.000
137765.300,136559.700,183686.300,189611.100,131350.200,140805.300,141070.300,126525.900,0.000
137758.500,136552.700,183676.600,189603.100,131340.500,140796.200,141061.700,126519.200,0.000
137759.700,136553.600,183676.300,189603.500,131340.600,140796.600,141064.200,126523.800,0.000
137771.600,136564.600,183686.100,189613.500,131353.300,140807.400,141075.400,126536.300,0.000
137765.700,136558.300,183678.100,189605.600,131349.200,140802.500,141070.700,126530.900,0.000
137763.500,136554.800,183673.100,189600.400,131347.800,140803.100,141069.900,126528.300,0.000
137769.200,136558.400,183675.900,189604.100,131352.000,140804.700,141073.600,126533.800,0.000
137768.600,136556.700,183671.500,189601.200,131349.900,140804.100,141071.900,126529.900,0.000
137768.800,136556.400,183667.300,189598.600,131348.600,140801.600,141070.500,126529.900,0.000
137757.100,136546.700,183653.700,189585.100,131336.800,140794.500,141062.100,126521.200,0.000
137758.600,136548.800,183653.500,189583.900,131337.600,140795.600,141063.600,126522.300,0.000
137758.100,136550.600,183653.400,189583.400,131340.200,140799.500,141065.400,126524.600,0.000
137765.900,136560.100,183662.700,189591.600,131352.400,140810.500,141076.600,126535.300,0.000
137754.600,136549.000,183652.800,189581.100,131343.900,140796.900,141065.300,126525.700,0.000
137752.300,136546.900,183650.300,189579.400,131344.700,140796.300,141064.300,126525.200,0.000
137752.400,136547.300,183650.600,189580.300,131347.400,140798.400,141066.300,126527.800,0.000
137754.300,136551.800,183653.700,189584.000,131353.400,140802.100,141070.600,126533.300,0.000
137747.400,136547.200,183646.600,189579.400,131351.200,140796.700,141067.600,126532.100,0.000
137745.000,136546.000,183642.900,189574.200,131349.400,140797.900,141064.400,126529.000,0.000
137750.000,136551.000,183646.600,189577.700,131355.000,140805.500,141072.000,126534.200,0.000
137749.700,136550.300,183645.200,189575.400,131355.500,140804.600,141072.800,126535.100,0.000
137749.400,136551.100,183644.000,189572.800,131356.400,140808.600,141073.300,126534.500,0.000
137757.100,136559.200,183650.500,189580.300,131366.000,140818.100,141082.500,126542.700,0.000
137755.000,136557.700,183647.200,189577.600,131363.300,140816.900,141080.700,126541.600,0.000
137759.200,136561.500,183649.300,189579.900,131365.700,140818.100,141082.100,126542.700,0.000
137750.300,136553.800,183638.200,189569.500,131356.500,140809.600,141071.200,126533.900,0.000
137743.300,136548.400,183629.000,189560.100,131350.100,140804.700,141064.500,126528.000,0.000
137755.500,136562.100,183639.600,189567.300,131360.400,140818.700,141075.700,126537.300,0.000
137755.400,136561.800,183637.600,189562.000,131355.900,140816.700,141071.900,126529.900,0.000
137756.200,136561.700,183636.700,189560.100,131352.500,140813.400,141068.900,126527.700,0.000
137763.900,136566.200,183641.000,189564.400,131357.800,140818.400,141072.400,126529.400,0.000
137767.800,136566.400,183641.300,189566.800,131359.800,140818.400,141074.700,126531.400,0.000
137773.500,136566.800,183643.100,189571.800,131364.300,140817.000,141079.400,126539.800,0.000
137765.300,136555.400,183632.600,189562.200,131355.000,140803.800,141071.200,126534.400,0.000
137755.100,136546.300,183621.600,189550.200,131345.100,140794.300,141061.300,126525.700,0.000
137759.100,136551.300,183623.500,189551.200,131347.900,140799.400,141063.900,126527.000,0.000
137756.100,136549.000,183617.800,189545.800,131343.100,140795.700,141057.900,126522.300,0.000
137767.300,136560.000,183628.000,189555.000,131352.400,140806.400,141069.500,126533.700,0.000
137771.900,136562.700,183632.200,189556.600,131354.500,140807.600,141070.900,126534.000,0.000
137777.000,136566.300,183636.000,189558.400,131359.400,140813.800,141074.900,126533.900,0.000
137771.300,136561.000,183629.700,189550.900,131354.100,140810.000,141068.700,126525.000,0.000
137766.500,136555.600,183623.200,189544.800,131348.400,140802.400,141062.000,126519.600,0.000
137766.000,136553.000,183620.100,189541.900,131346.600,140798.300,141059.600,126520.600,0.000
137775.000,136563.300,183627.500,189547.500,131353.800,140808.200,141068.700,126528.200,0.000
137771.500,136560.900,183622.500,189541.500,131348.100,140803.900,141063.100,126522.100,0.000
137771.400,136561.900,183620.300,189541.500,131348.800,140804.500,141063.700,126524.100,0.000
137770.500,136560.500,183616.800,189538.200,131346.700,140804.500,141064.100,126521.300,0.000
137772.000,136560.000,183615.000,189537.100,131346.100,140805.700,141062.800,126523.000,0.000
137779.100,136565.200,183620.800,189543.300,131351.700,140810.100,141068.200,126526.900,0.000
137777.200,136563.700,183618.200,189542.900,131351.700,140809.800,141067.500,126526.600,0.000
137768.200,136556.600,183607.000,189532.400,131343.500,140802.800,141059.600,126518.100,0.000
137764.900,136554.300,183603.100,189528.400,131341.600,140798.900,141056.800,126514.700,0.000
137764.400,136552.400,183600.800,189526.900,131341.400,140795.500,141054.800,126514.500,0.000
137764.200,136552.100,183599.300,189525.600,131343.700,140799.300,141058.100,126516.300,0.000
137768.700,136557.900,183602.700,189529.200,131350.900,140805.600,141064.500,126520.000,0.000
137767.500,136558.300,183602.800,189530.200,131352.600,140805.200,141065.500,126521.700,0.000
137768.600,136559.800,183605.200,189534.000,131356.100,140803.300,141066.500,126526.500,0.000
137772.800,136567.400,183611.900,189539.800,131365.500,140812.700,141074.900,126534.400,0.000
137762.300,136557.800,183599.800,189526.500,131353.900,140801.300,141062.000,126521.400,0.000
137761.600,136557.000,183595.300,189520.400,131349.000,140798.200,141057.500,126514.200,0.000
137765.300,136559.700,183595.400,189520.400,131350.100,140798.500,141059.000,126516.700,0.000
137769.700,136566.500,183597.800,189519.500,131355.000,140805.500,141065.400,126520.400,0.000
137771.800,136566.700,183596.600,189515.700,131354.700,140805.800,141064.800,126520.700,0.000
137775.000,136566.400,183596.900,189514.300,131354.300,140806.000,141065.500,126522.800,0.000
137788.500,136577.000,183608.800,189524.400,131366.000,140813.900,141075.400,126532.200,0.000
137789.800,136576.900,183607.200,189522.300,131367.700,140813.500,141074.400,126529.700,0.000
137789.200,136574.400,183602.000,189517.600,131364.500,140811.800,141071.100,126526.500,0.000
137792.600,136577.900,183602.300,189518.300,131366.800,140814.200,141073.900,126528.900,0.000
137783.800,136571.300,183592.600,189510.500,131359.900,140808.900,141069.000,126525.000,0.000
137776.400,136568.500,183587.000,189505.500,131357.900,140809.000,141067.300,126526.300,0.000
137774.600,136572.600,183586.400,189506.300,131361.300,140815.100,141073.000,126530.900,0.000
137776.700,136575.700,183586.100,189509.300,131364.300,140819.900,141076.700,126534.900,0.000
137772.000,136570.600,183578.200,189504.100,131359.800,140814.700,141072.100,126528.500,0.000
137781.600,136578.400,183585.100,189510.500,131367.800,140826.300,141082.300,126536.300,0.000
137787.000,136580.400,183587.400,189513.800,131369.800,140829.800,141085.600,126540.600,0.000
137779.300,136570.600,183577.000,189504.200,131359.800,140817.800,141075.100,126531.400,0.000
137780.700,136573.300,183576.600,189503.700,131361.900,140821.900,141078.300,126532.000,0.000
137782.000,136573.700,183575.700,189502.800,131363.200,140816.800,141076.400,126530.500,0.000
137781.300,136571.700,183573.700,189498.600,131362.500,140816.200,141074.700,126528.900,0.000
137785.100,136577.500,183579.500,189501.000,131368.500,140822.400,141081.300,126532.700,0.000
137790.100,136583.500,183584.500,189505.800,131375.600,140825.700,141085.000,126536.000,0.000
137784.200,136577.900,183577.800,189500.200,131373.100,140821.200,141080.300,126534.800,0.000
137778.500,136571.600,183572.100,189494.000,131369.500,140811.900,141074.700,126531.500,0.000
137780.000,136572.000,183571.800,189493.500,131372.500,140813.100,141077.600,126532.200,0.000
137780.300,136569.500,183569.000,189490.400,131374.300,140815.100,141080.500,126532.900,0.000
137781.400,136567.900,183567.900,189488.200,131376.800,140819.800,141081.000,126535.400,0.000
137789.000,136577.600,183574.300,189493.500,131387.400,140831.100,141092.900,126543.500,0.000
137783.100,136573.900,183567.800,189486.500,131384.800,140823.000,141089.900,126542.100,0.000
137783.500,136576.000,183567.300,189485.900,131385.900,140827.500,141094.200,126547.200,0.000
137776.300,136566.600,183556.600,189476.700,131374.200,140821.500,141087.600,126537.100,0.000
137779.100,136565.900,183557.100,189477.800,131370.600,140819.600,141086.000,126534.800,0.000
