EEG 1, EEG 2, EEG 3, EEG 4, EEG 5, EEG 6, EEG 7, EEG 8, ACC X, ACC Y, ACC Z, GYR X, GYR Y, GYR Z, BAT, CNT, VALID, DT, TRIG
34112.760,33180.780,38258.270,35648.900,34079.800,35564.820,36666.390,34831.750,-0.180,0.942,-0.116,0.000,0.000,0.000,66.667,1.000,1.000,0.000,0.000
116296.300,113120.400,130407.900,121520.700,116184.400,121247.300,124995.900,118745.700,-0.177,0.968,-0.134,0.000,0.000,0.000,66.667,2.000,1.000,28.027,0.000
178548.100,173676.400,200158.500,186536.300,178377.800,186150.900,191887.800,182307.200,-0.177,0.978,-0.143,-3.540,4.089,-4.150,66.667,3.000,1.000,4.970,0.000
191649.300,186426.800,214764.500,200175.000,191468.600,199809.700,205941.800,195685.700,-0.177,0.976,-0.147,-6.470,9.064,-6.683,66.667,4.000,1.000,4.991,0.000
190534.200,185348.800,213439.300,198963.200,190355.100,198643.100,204717.100,194546.900,-0.178,0.976,-0.146,-3.662,5.951,-2.686,66.667,5.000,1.000,10.049,0.000
182284.000,177329.500,204127.500,190302.400,182110.900,190037.400,195825.800,186117.300,-0.177,0.977,-0.149,-2.563,4.822,-1.343,66.667,6.000,1.000,6.232,0.000
162170.100,157769.300,181526.300,169252.700,162014.400,169063.900,174187.400,165576.300,-0.177,0.978,-0.150,-2.258,4.333,-0.885,66.667,7.000,1.000,6.292,0.000
150415.100,146338.800,168319.700,156951.900,150270.900,156805.600,161544.200,153576.200,-0.181,0.978,-0.147,-2.258,4.059,-0.610,66.667,8.000,1.000,2.456,0.000
155867.700,151645.100,174421.400,162639.800,155719.500,162488.700,167405.100,159145.800,-0.183,0.978,-0.148,-2.472,3.723,-0.488,66.667,9.000,1.000,2.482,0.000
165997.100,161499.900,185766.500,173212.000,165841.600,173051.000,178294.400,169488.300,-0.185,0.979,-0.148,-2.655,3.387,-0.427,66.667,10.000,1.000,5.031,0.000
165071.800,160601.900,184709.500,172228.700,164920.600,172091.000,177299.300,168542.500,-0.186,0.978,-0.148,-2.777,3.204,-0.549,66.667,11.000,1.000,2.536,0.000
149363.400,145324.900,167075.600,155799.400,149229.800,155718.400,160413.700,152501.900,-0.186,0.977,-0.148,-2.991,2.838,-0.458,66.667,12.000,1.000,6.339,0.000
139252.700,135491.100,155730.300,145226.600,139128.200,145178.900,149545.500,142175.000,-0.184,0.974,-0.147,-2.991,2.533,-0.427,66.667,13.000,1.000,4.929,0.000
143390.700,139515.200,160369.800,149547.900,143259.300,149493.300,153991.300,146394.800,-0.185,0.972,-0.146,-3.143,2.197,-0.336,66.667,14.000,1.000,3.068,0.000
151651.500,147550.200,169626.500,158176.300,151509.600,158106.200,162868.100,154826.400,-0.185,0.971,-0.146,-3.082,1.801,-0.214,66.667,15.000,1.000,0.015,0.000
151298.100,147207.500,169214.700,157800.400,151156.200,157739.100,162489.100,154468.900,-0.184,0.969,-0.149,-3.235,1.434,-0.214,66.667,16.000,1.000,1.924,0.000
139323.300,135559.800,155771.000,145281.000,139194.400,145254.700,149621.500,142249.400,-0.184,0.965,-0.149,-3.143,1.221,-0.275,66.667,17.000,1.000,2.505,0.000
131503.200,127952.400,146997.500,137109.000,131384.000,137102.300,141221.300,134271.700,-0.179,0.960,-0.151,-2.991,1.038,-0.275,66.667,18.000,1.000,2.485,0.000
134561.700,130927.200,150429.600,140307.700,134442.000,140294.000,144514.500,137398.700,-0.180,0.955,-0.153,-2.869,0.854,-0.183,66.667,19.000,1.000,3.035,0.000
140799.900,136994.900,157425.000,146827.000,140676.100,146797.900,151220.500,143771.600,-0.176,0.957,-0.152,-2.716,0.885,-0.122,66.667,20.000,1.000,0.012,0.000
140582.900,136783.100,157177.400,146598.600,140459.500,146565.700,150981.600,143551.500,-0.174,0.959,-0.148,-2.319,0.732,-0.092,66.667,21.000,1.000,1.952,0.000
131658.500,128102.100,147164.500,137270.000,131542.200,137256.100,141383.200,134434.900,-0.171,0.963,-0.152,-2.136,0.671,0.000,66.667,22.000,1.000,4.987,0.000
125714.100,122319.300,140496.900,131055.500,125600.500,131056.500,134990.900,128357.500,-0.173,0.968,-0.149,-2.014,0.732,-0.061,66.667,23.000,1.000,6.810,0.000
127734.400,124281.800,142762.400,133164.500,127615.400,133161.000,137161.300,130414.300,-0.170,0.969,-0.152,-2.014,0.702,-0.061,66.667,24.000,1.000,0.013,0.000
132127.600,128551.900,147687.100,137753.300,132003.000,137741.100,141884.200,134898.900,-0.170,0.968,-0.153,-2.106,0.610,0.092,66.667,25.000,1.000,1.891,0.000
131943.700,128372.300,147477.500,137558.900,131820.500,137551.800,141688.900,134714.300,-0.168,0.968,-0.147,-2.136,0.671,0.031,66.667,26.000,1.000,2.442,0.000
125564.500,122168.500,140321.100,130891.900,125449.400,130903.900,134834.800,128203.300,-0.169,0.969,-0.146,-2.045,0.732,0.031,66.667,27.000,1.000,8.885,0.000
121175.300,117900.900,135400.000,126307.500,121066.200,126329.400,130121.000,123721.900,-0.173,0.970,-0.149,-2.075,0.793,-0.153,66.667,28.000,1.000,2.993,0.000
122274.300,118971.400,136635.200,127459.000,122164.700,127475.100,131305.600,124843.900,-0.175,0.975,-0.151,-2.167,0.793,-0.244,66.667,29.000,1.000,0.009,0.000
125049.600,121671.100,139747.500,130360.100,124935.400,130365.900,134287.000,127678.100,-0.174,0.978,-0.150,-2.136,0.763,-0.549,66.667,30.000,1.000,1.948,0.000
124815.000,121442.400,139480.700,130113.100,124697.800,130118.500,134030.200,127439.400,-0.173,0.985,-0.149,-2.228,0.641,-0.549,66.667,31.000,1.000,14.271,0.000
120491.900,117237.500,134628.300,125592.200,120377.700,125613.900,129383.700,123025.400,-0.169,0.987,-0.145,-2.380,0.854,-0.763,66.667,32.000,1.000,0.010,0.000
117374.400,114203.800,131130.100,122331.800,117263.200,122368.600,126039.200,119840.800,-0.167,0.988,-0.145,-2.502,0.824,-0.916,66.667,33.000,1.000,6.943,0.000
117727.600,114543.400,131525.300,122699.600,117614.900,122738.700,126426.000,120199.300,-0.167,0.988,-0.145,-2.808,1.038,-0.793,66.667,34.000,1.000,6.242,0.000
119185.500,115957.000,133157.300,124221.600,119067.600,124256.000,127993.200,121683.400,-0.164,0.985,-0.144,-2.991,1.190,-0.732,66.667,35.000,1.000,2.469,0.000
118887.400,115663.200,132818.000,123908.200,118764.400,123937.700,127664.800,121373.100,-0.164,0.977,-0.144,-3.052,1.404,-0.671,66.667,36.000,1.000,2.520,0.000
116180.500,113027.800,129779.700,121079.800,116056.800,121106.500,124747.700,118607.400,-0.165,0.974,-0.141,-3.052,1.648,-0.610,66.667,37.000,1.000,2.513,0.000
114061.000,110965.900,127404.800,118868.000,113939.000,118890.300,122465.500,116445.500,-0.165,0.969,-0.144,-3.052,1.953,-0.610,66.667,38.000,1.000,2.563,0.000
113822.100,110734.800,127140.900,118622.100,113701.700,118640.000,122207.000,116203.100,-0.169,0.966,-0.146,-2.960,2.167,-0.610,66.667,39.000,1.000,9.290,0.000
114228.300,111131.800,127599.900,119049.000,114110.600,119068.500,122647.500,116618.200,-0.171,0.965,-0.148,-2.808,2.319,-0.488,66.667,40.000,1.000,0.013,0.000
113849.500,110765.800,127178.200,118654.600,113737.100,118681.500,122249.700,116233.400,-0.174,0.966,-0.147,-2.625,2.441,-0.580,66.667,41.000,1.000,13.705,0.000
112377.100,109336.500,125531.100,117117.800,112271.200,117152.000,120675.500,114733.800,-0.173,0.966,-0.147,-2.380,2.655,-0.580,66.667,42.000,1.000,0.016,0.000
111042.400,108040.600,124038.100,115724.900,110941.000,115762.000,119244.400,113373.700,-0.175,0.969,-0.143,-2.167,2.716,-0.366,66.667,43.000,1.000,2.468,0.000
110380.300,107397.400,123296.100,115031.400,110278.300,115069.300,118529.700,112695.800,-0.177,0.972,-0.142,-2.106,2.777,-0.366,66.667,44.000,1.000,0.011,0.000
110001.100,107027.300,122867.900,114628.900,109894.100,114669.500,118116.700,112302.900,-0.177,0.974,-0.146,-2.075,2.716,-0.366,66.667,45.000,1.000,11.230,0.000
109562.900,106597.800,122372.000,114163.900,109450.000,114209.100,117643.300,111847.700,-0.181,0.972,-0.146,-2.045,2.594,-0.336,66.667,46.000,1.000,0.012,0.000
109018.600,106062.900,121756.200,113590.000,108899.900,113636.400,117055.600,111284.000,-0.181,0.971,-0.144,-1.923,2.411,-0.305,66.667,47.000,1.000,6.858,0.000
108278.400,105337.200,120921.700,112815.500,108155.400,112857.300,116256.700,110524.900,-0.185,0.975,-0.144,-1.862,2.228,-0.214,66.667,48.000,1.000,0.012,0.000
107308.700,104391.200,119833.300,111805.300,107185.300,111842.800,115214.600,109537.300,-0.183,0.972,-0.145,-1.892,2.167,-0.214,66.667,49.000,1.000,0.010,0.000
106345.900,103455.300,118756.300,110805.000,106226.800,110842.800,114184.700,108559.800,-0.184,0.972,-0.144,-1.740,1.984,-0.336,66.667,50.000,1.000,2.506,0.000
105843.100,102967.800,118196.000,110285.500,105730.200,110324.500,113651.300,108052.500,-0.183,0.969,-0.145,-1.770,1.709,-0.305,66.667,51.000,1.000,2.520,0.000
105933.100,103057.500,118300.300,110382.600,105824.800,110422.900,113752.500,108147.100,-0.184,0.968,-0.146,-1.770,1.343,-0.366,66.667,52.000,1.000,11.312,0.000
105610.300,102746.700,117941.400,110045.400,105504.800,110090.200,113406.300,107817.400,-0.184,0.964,-0.148,-1.770,1.007,-0.366,66.667,53.000,1.000,4.250,0.000
104461.100,101631.700,116655.600,108844.700,104357.800,108893.100,112170.600,106644.600,-0.185,0.964,-0.149,-1.709,0.763,-0.397,66.667,54.000,1.000,0.008,0.000
103137.200,100345.300,115173.700,107463.200,103035.500,107510.600,110747.400,105293.700,-0.184,0.963,-0.147,-1.678,0.488,-0.397,66.667,55.000,1.000,2.501,0.000
102604.300,99826.230,114577.100,106906.900,102502.000,106952.500,110174.900,104748.000,-0.184,0.964,-0.148,-1.648,0.183,-0.549,66.667,56.000,1.000,0.004,0.000
103112.800,100318.200,115146.200,107435.400,103006.700,107480.300,110720.800,105263.700,-0.184,0.964,-0.148,-1.587,-0.244,-0.610,66.667,57.000,1.000,8.148,0.000
103079.400,100282.900,115106.100,107395.800,102970.200,107443.100,110683.500,105227.100,-0.181,0.966,-0.150,-1.556,-0.580,-0.641,66.667,58.000,1.000,11.805,0.000
101837.300,99074.020,113711.600,106094.500,101729.000,106147.800,109349.100,103959.700,-0.181,0.965,-0.149,-1.556,-0.916,-0.580,66.667,59.000,1.000,0.063,0.000
100279.000,97558.250,111963.900,104466.700,100172.900,104523.800,107676.200,102369.800,-0.181,0.967,-0.147,-1.709,-1.251,-0.702,66.667,60.000,1.000,2.411,0.000
99700.060,96994.050,111315.100,103866.300,99594.010,103920.500,107055.400,101778.900,-0.180,0.971,-0.151,-1.770,-1.587,-0.702,66.667,61.000,1.000,0.013,0.000
100441.300,97714.130,112147.800,104646.200,100334.300,104694.400,107853.600,102537.400,-0.181,0.972,-0.151,-1.923,-1.801,-0.702,66.667,62.000,1.000,8.134,0.000
100590.500,97859.750,112316.400,104804.800,100483.600,104852.000,108015.000,102692.500,-0.180,0.975,-0.151,-2.167,-2.075,-0.671,66.667,63.000,1.000,20.138,0.000
99332.850,96638.120,110907.000,103491.200,99226.840,103542.200,106663.500,101409.700,-0.180,0.980,-0.153,-2.411,-2.258,-0.732,66.667,64.000,1.000,0.012,0.000
97681.030,95034.960,109058.200,101766.500,97578.220,101823.900,104891.200,99724.340,-0.182,0.981,-0.155,-2.808,-2.533,-0.793,66.667,65.000,1.000,0.003,0.000
97088.300,94463.800,108400.600,101151.000,96990.870,101214.900,104261.800,99122.330,-0.179,0.983,-0.155,-3.021,-2.838,-0.854,66.667,66.000,1.000,6.123,0.000
97932.890,95290.620,109355.200,102038.700,97841.270,102107.800,105181.000,99989.800,-0.180,0.985,-0.157,-3.418,-2.930,-0.977,66.667,67.000,1.000,2.616,0.000
98179.690,95533.970,109636.200,102299.800,98094.340,102375.200,105457.000,100246.600,-0.178,0.986,-0.155,-3.601,-3.143,-1.038,66.667,68.000,1.000,4.950,0.000
96961.190,94348.640,108270.500,101027.900,96879.920,101104.000,104147.800,99005.440,-0.177,0.982,-0.154,-3.845,-3.113,-1.282,66.667,69.000,1.000,4.967,0.000
95313.920,92743.090,106423.300,99308.220,95232.120,99373.370,102366.500,97324.090,-0.173,0.978,-0.152,-4.211,-3.052,-1.343,66.667,70.000,1.000,4.917,0.000
94720.420,92160.980,105758.200,98688.520,94633.590,98737.980,101715.200,96713.770,-0.171,0.971,-0.151,-4.425,-3.143,-1.404,66.667,71.000,1.000,2.529,0.000
95567.330,92980.280,106707.900,99571.910,95473.080,99610.520,102616.400,97571.440,-0.170,0.965,-0.152,-4.303,-2.899,-1.282,66.667,72.000,1.000,2.530,0.000
95843.730,93245.840,107016.200,99858.980,95743.790,99895.120,102908.600,97848.380,-0.173,0.961,-0.150,-4.089,-2.655,-1.129,66.667,73.000,1.000,2.473,0.000
94689.320,92120.090,105719.600,98651.370,94586.550,98687.900,101663.600,96665.900,-0.171,0.957,-0.151,-3.937,-2.686,-1.038,66.667,74.000,1.000,2.572,0.000
93103.910,90576.460,103941.400,96993.850,93001.680,97031.460,99958.240,95046.150,-0.169,0.953,-0.144,-3.693,-2.441,-0.854,66.667,75.000,1.000,2.381,0.000
92523.970,90013.380,103293.300,96388.470,92424.770,96427.020,99338.170,94457.460,-0.168,0.952,-0.145,-3.204,-2.136,-0.671,66.667,76.000,1.000,7.586,0.000
93316.730,90786.360,104185.300,97218.370,93219.050,97254.400,100192.300,95269.890,-0.166,0.956,-0.149,-2.716,-1.770,-0.397,66.667,77.000,1.000,9.262,0.000
93581.300,91044.380,104484.300,97496.190,93483.860,97530.360,100476.100,95539.110,-0.166,0.960,-0.146,-2.350,-1.434,-0.092,66.667,78.000,1.000,0.009,0.000
92513.150,90004.770,103288.100,96381.010,92417.330,96419.210,99329.800,94446.500,-0.165,0.965,-0.143,-2.136,-1.007,0.305,66.667,79.000,1.000,1.905,0.000
91035.780,88566.560,101631.600,94836.700,90942.160,94883.710,97746.590,92936.640,-0.169,0.968,-0.143,-1.953,-0.793,0.702,66.667,80.000,1.000,2.534,0.000
90470.160,88014.630,100996.400,94243.730,90376.880,94297.630,97143.410,92358.040,-0.170,0.966,-0.142,-1.740,-0.397,0.977,66.667,81.000,1.000,5.011,0.000
91153.590,88676.810,101761.000,94956.520,91058.190,95010.340,97881.090,93055.590,-0.171,0.969,-0.142,-1.404,-0.122,1.099,66.667,82.000,1.000,5.023,0.000
91375.480,88890.470,102007.900,95189.150,91278.790,95239.770,98121.170,93284.030,-0.171,0.970,-0.143,-1.038,0.214,1.312,66.667,83.000,1.000,2.412,0.000
90405.880,87947.670,100920.900,94178.550,90312.340,94230.520,97083.320,92298.450,-0.171,0.972,-0.142,-0.916,0.458,1.495,66.667,84.000,1.000,5.638,0.000
89050.680,86632.480,99404.550,92765.380,88963.690,92824.590,95634.230,90919.420,-0.171,0.973,-0.138,-0.732,0.641,1.740,66.667,85.000,1.000,0.060,0.000
88494.590,86094.870,98785.090,92186.800,88412.510,92250.800,95041.630,90353.780,-0.172,0.974,-0.142,-0.549,0.824,1.587,66.667,86.000,1.000,1.753,0.000
89050.480,86637.160,99410.730,92768.640,88968.640,92829.020,95637.450,90920.900,-0.174,0.977,-0.145,-0.580,1.068,1.434,66.667,87.000,1.000,10.024,0.000
89219.020,86801.650,99600.080,92944.050,89135.550,93000.450,95812.520,91092.140,-0.174,0.978,-0.145,-0.580,1.160,1.495,66.667,88.000,1.000,2.489,0.000
88351.950,85959.090,98628.770,92037.440,88268.510,92098.320,94877.570,90207.040,-0.173,0.980,-0.148,-0.641,1.190,1.373,66.667,89.000,1.000,7.558,0.000
87137.270,84778.480,97269.070,90768.180,87054.670,90837.810,93573.360,88966.700,-0.174,0.980,-0.147,-0.580,1.343,1.221,66.667,90.000,1.000,2.496,0.000
86599.730,84255.810,96668.280,90206.270,86515.960,90279.300,92996.160,88415.590,-0.172,0.981,-0.146,-0.702,1.465,1.129,66.667,91.000,1.000,2.444,0.000
87010.410,84654.060,97128.630,90634.590,86922.840,90702.900,93433.790,88830.630,-0.172,0.981,-0.148,-0.824,1.495,1.190,66.667,92.000,1.000,2.595,0.000
87104.730,84743.950,97232.840,90732.380,87013.550,90794.560,93529.980,88922.200,-0.171,0.982,-0.151,-0.946,1.526,0.977,66.667,93.000,1.000,2.486,0.000
86334.690,83994.420,96369.160,89928.290,86243.050,89989.480,92702.690,88133.390,-0.171,0.983,-0.147,-1.129,1.556,0.763,66.667,94.000,1.000,9.955,0.000
85267.290,82957.800,95174.250,88814.910,85177.910,88879.320,91560.730,87043.810,-0.170,0.984,-0.152,-1.221,1.495,0.702,66.667,95.000,1.000,2.492,0.000
84758.440,82465.800,94606.610,88285.470,84671.590,88351.870,91017.970,86525.250,-0.168,0.982,-0.153,-1.465,1.556,0.549,66.667,96.000,1.000,3.021,0.000
85029.800,82731.600,94913.400,88571.170,84944.380,88635.400,91310.840,86803.420,-0.167,0.984,-0.152,-1.617,1.587,0.244,66.667,97.000,1.000,0.007,0.000
85046.770,82747.060,94934.210,88591.750,84962.970,88653.230,91330.340,86824.230,-0.165,0.983,-0.154,-1.831,1.587,0.031,66.667,98.000,1.000,4.493,0.000
84367.630,82083.910,94174.230,87884.750,84286.850,87947.650,90604.510,86136.050,-0.163,0.981,-0.153,-2.197,1.556,0.000,66.667,99.000,1.000,2.434,0.000
83438.380,81177.730,93133.350,86913.280,83359.800,86980.870,89609.890,85188.300,-0.163,0.980,-0.153,-2.472,1.648,-0.214,66.667,100.000,1.000,2.493,0.000
82946.050,80696.730,92582.050,86396.020,82866.690,86465.880,89080.730,84681.630,-0.163,0.980,-0.154,-2.686,1.617,-0.153,66.667,101.000,1.000,5.052,0.000
83081.780,80827.110,92735.000,86536.230,83000.340,86604.950,89223.070,84816.270,-0.166,0.979,-0.153,-2.899,1.648,-0.244,66.667,102.000,1.000,2.984,0.000
83033.910,80780.170,92681.450,86486.000,82951.260,86554.350,89167.550,84764.510,-0.168,0.978,-0.155,-3.296,1.556,-0.427,66.667,103.000,1.000,0.009,0.000
82446.980,80210.230,92022.480,85872.500,82364.280,85943.180,88535.030,84162.500,-0.169,0.976,-0.155,-3.632,1.404,-0.458,66.667,104.000,1.000,8.248,0.000
81658.160,79444.910,91137.920,85049.440,81577.610,85124.630,87691.240,83358.130,-0.172,0.976,-0.154,-3.876,1.221,-0.519,66.667,105.000,1.000,3.003,0.000
81199.460,79000.680,90626.220,84574.330,81122.850,84650.910,87206.090,82897.810,-0.174,0.978,-0.152,-4.272,1.251,-0.824,66.667,106.000,1.000,0.009,0.000
81211.570,79013.210,90644.240,84592.190,81137.670,84663.900,87225.290,82919.130,-0.177,0.976,-0.150,-4.517,1.038,-0.977,66.667,107.000,1.000,1.941,0.000
81076.300,78880.730,90495.820,84453.160,81001.070,84520.080,87078.160,82779.750,-0.177,0.972,-0.149,-4.761,0.885,-1.221,66.667,108.000,1.000,8.813,0.000
80532.590,78348.970,89886.320,83883.560,80450.970,83946.200,86478.200,82213.560,-0.177,0.970,-0.147,-5.005,0.854,-1.404,66.667,109.000,1.000,4.314,0.000
79838.000,77669.950,89105.980,83156.220,79748.990,83210.840,85711.880,81496.280,-0.176,0.963,-0.144,-5.035,0.702,-1.556,66.667,110.000,1.000,0.009,0.000
79398.230,77241.620,88612.300,82697.710,79306.950,82747.200,85233.050,81049.510,-0.177,0.960,-0.144,-4.944,0.702,-1.648,66.667,111.000,1.000,1.882,0.000
79316.910,77165.300,88522.110,82615.230,79229.160,82668.180,85153.500,80974.410,-0.177,0.958,-0.145,-4.791,0.641,-1.770,66.667,112.000,1.000,11.252,0.000
79140.090,76997.300,88325.580,82432.950,79057.950,82492.250,84974.230,80800.650,-0.177,0.958,-0.146,-4.486,0.397,-1.801,66.667,113.000,1.000,13.119,0.000
78671.840,76545.250,87802.660,81945.090,78595.040,82008.860,84480.980,80326.380,-0.175,0.957,-0.150,-4.120,0.427,-1.862,66.667,114.000,1.000,0.012,0.000
78083.960,75974.740,87145.880,81331.200,78011.040,81397.040,83856.340,79727.440,-0.174,0.957,-0.148,-3.815,0.427,-1.801,66.667,115.000,1.000,1.898,0.000
77665.520,75567.120,86679.620,80894.840,77593.550,80960.130,83406.630,79298.880,-0.172,0.957,-0.147,-3.448,0.488,-1.709,66.667,116.000,1.000,2.489,0.000
77491.490,75397.550,86488.950,80715.480,77419.390,80779.960,83216.580,79119.470,-0.171,0.958,-0.146,-3.082,0.610,-1.617,66.667,117.000,1.000,2.436,0.000
77258.200,75171.350,86231.970,80474.290,77187.810,80540.850,82967.470,78882.780,-0.171,0.961,-0.144,-2.716,0.793,-1.465,66.667,118.000,1.000,2.571,0.000
76840.130,74764.880,85764.220,80037.230,76771.710,80109.090,82523.530,78458.960,-0.172,0.963,-0.146,-2.472,0.946,-1.190,66.667,119.000,1.000,27.509,0.000
76339.700,74275.990,85199.920,79512.020,76270.130,79588.500,81987.710,77947.860,-0.172,0.962,-0.144,-2.136,1.129,-0.977,66.667,120.000,1.000,2.448,0.000
75940.270,73883.770,84748.590,79093.220,75866.950,79170.190,81554.880,77536.170,-0.175,0.965,-0.144,-1.923,1.282,-0.732,66.667,121.000,1.000,2.496,0.000
75696.790,73644.190,84474.270,78837.820,75619.260,78912.700,81287.230,77282.130,-0.174,0.968,-0.143,-1.801,1.404,-0.549,66.667,122.000,1.000,2.464,0.000
75427.610,73381.410,84171.820,78554.370,75345.810,78626.620,80991.340,77000.780,-0.173,0.970,-0.143,-1.617,1.587,-0.305,66.667,123.000,1.000,5.006,0.000
75049.280,73014.340,83747.340,78156.820,74964.380,78227.270,80579.350,76607.570,-0.173,0.971,-0.143,-1.434,1.678,-0.122,66.667,124.000,1.000,2.560,0.000
74611.400,72590.480,83257.300,77698.520,74525.490,77768.020,80105.540,76155.990,-0.174,0.973,-0.144,-1.404,1.770,-0.031,66.667,125.000,1.000,2.515,0.000
74231.150,72221.470,82831.600,77300.910,74144.820,77369.350,79694.320,75766.860,-0.172,0.976,-0.143,-1.404,1.892,0.153,66.667,126.000,1.000,4.919,0.000
73942.680,71939.520,82506.720,76997.580,73854.940,77065.730,79382.280,75472.040,-0.174,0.976,-0.147,-1.251,2.014,0.244,66.667,127.000,1.000,2.508,0.000
73640.550,71642.540,82165.730,76678.780,73550.090,76745.760,79056.870,75162.250,-0.178,0.979,-0.147,-1.221,2.075,0.305,66.667,128.000,1.000,2.528,0.000
73282.590,71290.270,81763.870,76304.160,73189.470,76366.450,78672.730,74796.610,-0.179,0.979,-0.148,-1.251,2.228,0.427,66.667,129.000,1.000,12.561,0.000
72894.630,70909.380,81329.810,75900.840,72800.140,75958.450,78256.260,74400.770,-0.180,0.980,-0.147,-1.282,2.228,0.519,66.667,130.000,1.000,2.501,0.000
72529.910,70552.440,80921.350,75520.780,72434.690,75576.680,77862.960,74026.380,-0.177,0.978,-0.146,-1.465,2.197,0.488,66.667,131.000,1.000,2.396,0.000
72201.080,70231.450,80553.090,75176.950,72105.700,75231.840,77507.590,73688.670,-0.178,0.977,-0.147,-1.648,2.075,0.488,66.667,132.000,1.000,5.073,0.000
71880.950,69920.070,80195.520,74842.580,71786.680,74895.990,77163.010,73362.910,-0.178,0.975,-0.151,-1.770,2.045,0.427,66.667,133.000,1.000,5.522,0.000
71553.400,69601.910,79829.950,74501.850,71460.820,74554.080,76812.080,73031.660,-0.179,0.975,-0.148,-1.923,2.014,0.336,66.667,134.000,1.000,0.010,0.000
71201.440,69259.930,79437.530,74137.380,71110.840,74190.010,76436.670,72676.200,-0.177,0.975,-0.147,-1.953,1.892,0.244,66.667,135.000,1.000,1.881,0.000
70837.540,68907.170,79032.250,73760.350,70749.460,73815.710,76049.820,72306.950,-0.177,0.975,-0.149,-2.045,1.801,0.275,66.667,136.000,1.000,2.487,0.000
70472.840,68554.570,78625.830,73381.990,70387.380,73440.380,75662.130,71934.870,-0.178,0.975,-0.151,-2.197,1.617,0.122,66.667,137.000,1.000,3.170,0.000
70127.950,68221.280,78241.180,73024.980,70044.860,73084.660,75295.570,71584.840,-0.179,0.976,-0.146,-2.258,1.526,-0.031,66.667,138.000,1.000,0.009,0.000
69812.780,67916.810,77889.080,72698.240,69731.150,72757.940,74958.730,71266.100,-0.176,0.974,-0.149,-2.380,1.343,-0.092,66.667,139.000,1.000,1.888,0.000
69501.740,67615.760,77540.740,72373.310,69420.270,72432.760,74621.540,70949.200,-0.175,0.973,-0.148,-2.563,1.129,-0.092,66.667,140.000,1.000,2.511,0.000
69162.680,67285.370,77161.310,72018.200,69080.550,72076.740,74252.010,70600.450,-0.175,0.972,-0.148,-2.594,0.916,-0.153,66.667,141.000,1.000,2.534,0.000
68783.260,66914.000,76737.750,71622.220,68699.890,71678.420,73840.340,70207.430,-0.174,0.971,-0.151,-2.716,0.763,-0.214,66.667,142.000,1.000,3.028,0.000
68423.400,66562.340,76337.350,71247.790,68339.340,71300.880,73452.360,69836.470,-0.173,0.972,-0.153,-2.808,0.641,-0.305,66.667,143.000,1.000,0.006,0.000
68113.310,66260.380,75993.200,70925.590,68030.150,70976.220,73120.470,69521.280,-0.173,0.972,-0.149,-2.991,0.427,-0.366,66.667,144.000,1.000,1.928,0.000
67815.580,65971.050,75662.010,70616.360,67734.390,70665.790,72802.520,69219.770,-0.173,0.970,-0.151,-3.204,0.244,-0.397,66.667,145.000,1.000,6.225,0.000
67482.430,65648.750,75290.470,70270.520,67404.550,70320.680,72447.860,68882.780,-0.173,0.970,-0.149,-3.265,0.031,-0.458,66.667,146.000,1.000,3.046,0.000
67104.220,65284.570,74868.430,69878.010,67031.660,69931.830,72048.660,68503.130,-0.174,0.970,-0.152,-3.296,-0.183,-0.488,66.667,147.000,1.000,0.008,0.000
66752.270,64946.970,74476.840,69513.090,66686.660,69574.050,71681.360,68151.420,-0.174,0.972,-0.150,-3.418,-0.305,-0.641,66.667,148.000,1.000,11.932,0.000
66450.440,64658.430,74143.360,69201.130,66392.360,69270.430,71369.490,67849.510,-0.175,0.973,-0.149,-3.571,-0.488,-0.824,66.667,149.000,1.000,2.574,0.000
66159.830,64379.910,73823.020,68901.450,66107.410,68974.390,71066.260,67556.960,-0.177,0.973,-0.148,-3.632,-0.854,-0.946,66.667,150.000,1.000,2.444,0.000
65827.720,64057.400,73454.520,68557.690,65776.070,68625.950,70707.620,67218.270,-0.176,0.972,-0.146,-3.723,-0.977,-1.190,66.667,151.000,1.000,2.489,0.000
65436.290,63672.740,73017.430,68150.120,65380.380,68206.010,70271.690,66816.140,-0.176,0.967,-0.146,-3.845,-1.160,-1.221,66.667,152.000,1.000,3.774,0.000
65071.220,63312.840,72609.300,67769.290,65010.340,67810.770,69861.000,66440.880,-0.176,0.960,-0.149,-3.845,-1.312,-1.343,66.667,153.000,1.000,11.789,0.000
64771.630,63019.170,72275.150,67457.550,64709.340,67491.630,69530.730,66133.000,-0.176,0.955,-0.151,-3.510,-1.434,-1.343,66.667,154.000,1.000,0.016,0.000
64493.430,62747.750,71964.900,67168.340,64432.530,67203.280,69232.800,65846.800,-0.175,0.954,-0.152,-3.174,-1.587,-1.190,66.667,155.000,1.000,2.488,0.000
64172.290,62434.620,71605.520,66832.910,64113.020,66872.800,68892.680,65517.740,-0.174,0.953,-0.150,-2.777,-1.617,-1.129,66.667,156.000,1.000,0.014,0.000
63790.380,62062.960,71177.070,66432.330,63732.300,66480.020,68488.590,65128.650,-0.174,0.957,-0.147,-2.350,-1.678,-1.038,66.667,157.000,1.000,1.894,0.000
63434.650,61716.430,70777.850,66059.650,63376.630,66112.710,68109.880,64766.670,-0.175,0.961,-0.147,-1.984,-1.617,-0.916,66.667,158.000,1.000,8.784,0.000
63142.560,61430.040,70450.350,65755.170,63082.710,65805.300,67794.900,64469.000,-0.175,0.961,-0.145,-1.678,-1.648,-0.641,66.667,159.000,1.000,11.826,0.000
62873.040,61164.850,70148.100,65473.990,62810.500,65517.590,67502.520,64194.060,-0.176,0.962,-0.146,-1.404,-1.526,-0.458,66.667,160.000,1.000,0.010,0.000
62560.140,60858.840,69797.340,65146.680,62496.270,65186.620,67165.520,63875.490,-0.177,0.966,-0.144,-1.129,-1.434,-0.183,66.667,161.000,1.000,2.480,0.000
62183.710,60493.870,69377.180,64754.860,62121.730,64794.200,66764.650,63494.380,-0.177,0.969,-0.141,-0.885,-1.526,0.092,66.667,162.000,1.000,0.009,0.000
61831.780,60154.150,68985.700,64390.250,61772.780,64430.220,66390.870,63138.030,-0.177,0.971,-0.139,-0.641,-1.404,0.336,66.667,163.000,1.000,6.944,0.000
61541.850,59872.680,68661.450,64088.080,61481.840,64126.450,66075.870,62839.840,-0.176,0.973,-0.142,-0.488,-1.343,0.427,66.667,164.000,1.000,2.958,0.000
61271.520,59608.310,68357.390,63804.290,61207.310,63837.390,65775.120,62557.930,-0.173,0.979,-0.142,-0.336,-1.282,0.580,66.667,165.000,1.000,0.007,0.000
60960.540,59305.090,68009.130,63479.570,60894.500,63506.970,65433.320,62236.520,-0.172,0.981,-0.144,-0.366,-1.282,0.732,66.667,166.000,1.000,10.721,0.000
60594.270,58949.950,67600.780,63098.640,60530.410,63124.950,65039.670,61861.720,-0.173,0.984,-0.144,-0.427,-1.251,0.763,66.667,167.000,1.000,3.098,0.000
60248.750,58616.940,67217.200,62739.610,60188.740,62770.840,64673.660,61508.870,-0.168,0.986,-0.142,-0.427,-1.038,0.885,66.667,168.000,1.000,0.010,0.000
59955.270,58335.540,66892.630,62435.500,59898.100,62473.080,64362.950,61208.930,-0.166,0.986,-0.146,-0.580,-0.916,0.824,66.667,169.000,1.000,4.388,0.000
59680.340,58071.610,66587.490,62150.470,59623.550,62191.390,64069.010,60927.020,-0.160,0.986,-0.143,-0.793,-0.793,0.763,66.667,170.000,1.000,2.552,0.000
59367.010,57768.990,66237.670,61824.110,59309.610,61866.350,63734.910,60606.480,-0.159,0.985,-0.146,-0.854,-0.427,0.793,66.667,171.000,1.000,6.269,0.000
58998.110,57411.010,65825.380,61439.370,58941.100,61485.140,63346.280,60231.270,-0.156,0.982,-0.145,-1.038,-0.092,0.732,66.667,172.000,1.000,6.169,0.000
58650.210,57072.160,65436.960,61077.440,58594.670,61128.590,62982.130,59879.200,-0.154,0.978,-0.149,-0.977,0.214,0.580,66.667,173.000,1.000,21.901,0.000
58357.520,56786.240,65111.110,60774.500,58304.470,60828.670,62674.820,59585.670,-0.151,0.977,-0.151,-0.946,0.610,0.458,66.667,174.000,1.000,0.015,0.000
58085.730,56520.280,64809.440,60494.410,58035.200,60547.290,62387.480,59314.730,-0.148,0.976,-0.147,-0.977,1.129,0.214,66.667,175.000,1.000,1.871,0.000
57782.250,56223.860,64472.520,60181.610,57733.230,60230.230,62064.400,59011.070,-0.149,0.979,-0.146,-1.099,1.556,-0.061,66.667,176.000,1.000,5.014,0.000
57434.110,55885.000,64085.630,59821.590,57386.390,59866.380,61691.930,58660.680,-0.151,0.979,-0.146,-1.099,2.106,-0.305,66.667,177.000,1.000,9.919,0.000
57104.840,55564.430,63719.070,59479.810,57058.370,59522.110,61338.570,58328.600,-0.154,0.981,-0.148,-1.282,2.563,-0.549,66.667,178.000,1.000,2.590,0.000
56820.770,55287.080,63401.830,59183.260,56774.700,59220.820,61031.830,58041.890,-0.154,0.979,-0.149,-1.495,3.021,-0.702,66.667,179.000,1.000,2.509,0.000
56551.060,55024.490,63101.010,58899.350,56504.920,58930.890,60739.070,57765.840,-0.156,0.975,-0.153,-1.617,3.326,-1.007,66.667,180.000,1.000,2.496,0.000
56248.680,54731.350,62764.860,58580.380,56202.470,58609.200,60410.050,57449.530,-0.158,0.969,-0.152,-1.740,3.693,-1.251,66.667,181.000,1.000,4.981,0.000
55906.150,54399.230,62383.900,58221.410,55860.790,58250.530,60039.030,57091.070,-0.161,0.965,-0.152,-1.831,3.967,-1.404,66.667,182.000,1.000,2.403,0.000
55578.590,54081.340,62018.710,57879.850,55535.750,57910.960,59688.100,56753.330,-0.166,0.964,-0.152,-1.831,4.303,-1.678,66.667,183.000,1.000,5.015,0.000
55285.090,53795.280,61690.390,57573.550,55243.310,57604.230,59370.050,56451.050,-0.166,0.960,-0.154,-1.770,4.608,-1.770,66.667,184.000,1.000,8.775,0.000
55005.380,53521.320,61376.680,57281.050,54961.390,57307.500,59059.960,56159.610,-0.167,0.955,-0.156,-1.801,4.791,-1.923,66.667,185.000,1.000,2.569,0.000
54706.910,53229.830,61042.110,56968.160,54661.020,56995.530,58734.270,55850.450,-0.169,0.951,-0.156,-1.709,4.913,-1.953,66.667,186.000,1.000,4.945,0.000
54377.780,52909.000,60673.960,56622.830,54331.710,56656.210,58382.020,55513.330,-0.169,0.948,-0.155,-1.434,5.005,-1.831,66.667,187.000,1.000,7.455,0.000
54063.030,52601.070,60321.260,56292.690,54015.340,56328.110,58040.640,55190.840,-0.170,0.948,-0.156,-1.282,5.096,-1.678,66.667,188.000,1.000,5.028,0.000
53783.680,52327.160,60006.510,55999.240,53732.390,56035.440,57733.590,54903.020,-0.174,0.952,-0.157,-0.946,5.310,-1.404,66.667,189.000,1.000,4.944,0.000
53512.400,52061.960,59701.030,55714.480,53458.690,55756.060,57441.250,54624.790,-0.178,0.955,-0.155,-0.824,5.280,-1.099,66.667,190.000,1.000,3.161,0.000
53217.520,51774.810,59370.230,55405.610,53163.260,55453.990,57128.450,54326.140,-0.183,0.957,-0.158,-0.641,5.219,-0.977,66.667,191.000,1.000,0.008,0.000
52898.080,51463.650,59011.210,55070.390,52842.240,55122.570,56787.170,54001.510,-0.189,0.962,-0.157,-0.549,5.127,-0.824,66.667,192.000,1.000,1.887,0.000
52581.750,51155.140,58655.460,54738.780,52522.930,54791.660,56446.800,53674.510,-0.194,0.968,-0.158,-0.427,4.761,-0.732,66.667,193.000,1.000,2.525,0.000
52281.260,50863.860,58320.420,54427.180,52222.850,54480.940,56127.560,53365.270,-0.198,0.970,-0.157,-0.427,4.456,-0.519,66.667,194.000,1.000,12.447,0.000
51997.630,50591.580,58007.030,54135.160,51944.410,54192.830,55831.040,53080.210,-0.203,0.973,-0.156,-0.671,3.998,-0.336,66.667,195.000,1.000,12.489,0.000
51712.020,50317.410,57690.980,53838.760,51663.640,53900.720,55529.700,52793.710,-0.206,0.978,-0.156,-0.671,3.418,-0.153,66.667,196.000,1.000,2.491,0.000
51410.730,50026.450,57355.910,53523.820,51364.090,53586.290,55205.960,52487.270,-0.209,0.981,-0.156,-0.946,2.808,-0.092,66.667,197.000,1.000,2.490,0.000
51110.670,49735.820,57022.270,53211.570,51064.980,53270.590,54881.360,52180.540,-0.210,0.982,-0.155,-1.251,2.045,0.122,66.667,198.000,1.000,5.045,0.000
50817.060,49450.830,56696.790,52908.680,50773.800,52962.420,54565.930,51882.500,-0.208,0.989,-0.156,-1.587,1.282,0.122,66.667,199.000,1.000,4.984,0.000
50526.280,49167.790,56374.050,52609.150,50485.750,52657.470,54255.760,51589.630,-0.205,0.992,-0.155,-1.831,0.641,0.244,66.667,200.000,1.000,2.538,0.000
50228.770,48876.920,56041.770,52302.050,50189.160,52344.770,53937.120,51289.210,-0.197,0.992,-0.156,-2.380,-0.427,0.336,66.667,201.000,1.000,2.480,0.000
49923.130,48577.230,55697.960,51985.980,49882.520,52023.410,53608.130,50978.920,-0.193,0.991,-0.154,-2.930,-0.793,0.427,66.667,202.000,1.000,2.511,0.000
49625.100,48286.340,55361.430,51674.970,49582.840,51711.340,53287.660,50674.450,-0.188,0.988,-0.155,-3.448,-1.343,0.580,66.667,203.000,1.000,11.193,0.000
49337.310,48008.100,55038.140,51371.800,49294.510,51413.210,52979.690,50377.880,-0.183,0.986,-0.154,-3.784,-1.740,0.702,66.667,204.000,1.000,2.556,0.000
49057.550,47739.250,54726.960,51078.630,49016.300,51126.230,52681.540,50090.340,-0.180,0.980,-0.155,-4.211,-2.167,0.793,66.667,205.000,1.000,2.434,0.000
48774.800,47467.240,54413.910,50785.200,48736.000,50835.570,52380.140,49803.400,-0.177,0.977,-0.155,-4.425,-2.441,0.793,66.667,206.000,1.000,4.415,0.000
48481.190,47183.230,54088.590,50480.620,48444.270,50530.860,52066.210,49505.760,-0.178,0.974,-0.154,-4.639,-2.594,0.763,66.667,207.000,1.000,0.644,0.000
48191.230,46901.550,53766.420,50178.600,48154.910,50226.960,51753.770,49207.330,-0.175,0.975,-0.157,-4.730,-2.716,0.702,66.667,208.000,1.000,9.998,0.000
47910.770,46628.720,53453.630,49885.530,47874.400,49933.400,51451.540,48916.310,-0.174,0.973,-0.156,-4.913,-2.930,0.763,66.667,209.000,1.000,2.499,0.000
47632.080,46357.130,53141.570,49594.570,47596.690,49648.280,51157.830,48629.650,-0.175,0.972,-0.154,-5.096,-3.143,0.763,66.667,210.000,1.000,3.133,0.000
47350.180,46081.970,52824.210,49301.090,47315.730,49363.880,50863.660,48340.790,-0.175,0.972,-0.151,-5.310,-3.174,0.519,66.667,211.000,1.000,0.007,0.000
47063.800,45802.180,52501.360,49002.800,47027.250,49066.480,50555.650,48046.220,-0.175,0.967,-0.144,-5.554,-3.052,0.244,66.667,212.000,1.000,1.836,0.000
46772.740,45517.290,52175.040,48699.640,46730.770,48751.900,50230.600,47746.070,-0.170,0.963,-0.145,-5.646,-3.082,-0.214,66.667,213.000,1.000,5.049,0.000
46484.180,45235.680,51852.600,48398.910,46436.280,48437.530,49904.010,47447.380,-0.166,0.957,-0.146,-5.493,-2.869,-0.427,66.667,214.000,1.000,2.421,0.000
46204.670,44964.210,51539.420,48106.360,46152.340,48136.230,49589.770,47157.690,-0.161,0.949,-0.146,-5.280,-2.716,-0.641,66.667,215.000,1.000,3.139,0.000
45925.480,44692.640,51226.090,47814.420,45871.250,47839.150,49283.230,46872.130,-0.158,0.945,-0.154,-4.974,-2.472,-0.885,66.667,216.000,1.000,0.009,0.000
45641.810,44416.030,50908.780,47519.780,45589.290,47544.150,48982.570,46587.630,-0.156,0.945,-0.152,-4.425,-2.258,-0.946,66.667,217.000,1.000,1.886,0.000
45357.650,44138.820,50592.320,47225.700,45309.030,47254.140,48688.370,46304.760,-0.156,0.950,-0.148,-3.906,-1.892,-1.068,66.667,218.000,1.000,2.526,0.000
45075.760,43863.840,50278.760,46933.110,45030.370,46967.730,48396.750,46022.420,-0.154,0.956,-0.145,-3.418,-1.404,-1.007,66.667,219.000,1.000,2.421,0.000
44798.180,43592.910,49969.580,46644.020,44754.420,46685.180,48106.040,45742.120,-0.156,0.957,-0.143,-3.143,-0.916,-1.038,66.667,220.000,1.000,5.082,0.000
44521.810,43322.560,49661.630,46356.990,44478.570,46400.100,47811.920,45460.850,-0.157,0.957,-0.144,-2.747,-0.427,-1.068,66.667,221.000,1.000,3.021,0.000
44245.660,43053.190,49354.040,46070.850,44203.020,46112.250,47515.630,45178.640,-0.158,0.958,-0.150,-2.441,-0.031,-1.068,66.667,222.000,1.000,0.007,0.000
43971.130,42787.270,49047.720,45785.150,43930.460,45829.440,47223.730,44899.970,-0.161,0.957,-0.151,-2.106,0.397,-1.160,66.667,223.000,1.000,1.882,0.000
43695.540,42520.670,48739.440,45496.740,43657.230,45548.420,46933.750,44622.070,-0.163,0.958,-0.147,-1.648,0.793,-1.129,66.667,224.000,1.000,2.600,0.000
43417.390,42250.820,48428.630,45206.000,43380.710,45261.630,46638.890,44342.230,-0.164,0.960,-0.147,-1.312,1.190,-1.221,66.667,225.000,1.000,7.430,0.000
43139.840,41981.210,48119.750,44917.820,43105.090,44971.900,46341.250,44063.540,-0.166,0.962,-0.145,-1.099,1.587,-1.099,66.667,226.000,1.000,5.636,0.000
42865.150,41714.210,47814.670,44633.790,42832.710,44685.350,46046.100,43786.540,-0.169,0.967,-0.145,-0.946,1.862,-0.977,66.667,227.000,1.000,0.014,0.000
42590.360,41446.910,47508.770,44349.530,42559.680,44399.840,45752.020,43508.060,-0.171,0.970,-0.147,-0.732,2.197,-0.793,66.667,228.000,1.000,1.848,0.000
42316.200,41179.770,47201.780,44065.400,42286.040,44112.830,45458.210,43229.370,-0.172,0.971,-0.148,-0.763,2.289,-0.702,66.667,229.000,1.000,3.125,0.000
42045.160,40914.850,46896.890,43783.450,42014.190,43826.360,45164.900,42952.300,-0.173,0.973,-0.146,-0.763,2.472,-0.580,66.667,230.000,1.000,0.010,0.000
41776.240,40651.850,46594.690,43502.060,41744.270,43543.210,44872.470,42676.500,-0.174,0.977,-0.149,-0.885,2.716,-0.488,66.667,231.000,1.000,4.981,0.000
41509.610,40391.790,46296.210,43222.430,41477.190,43264.790,44584.220,42402.410,-0.175,0.978,-0.154,-1.007,2.838,-0.336,66.667,232.000,1.000,0.011,0.000
41242.400,40131.370,45997.390,42942.240,41209.410,42986.430,44298.110,42126.330,-0.178,0.979,-0.153,-1.068,3.052,-0.122,66.667,233.000,1.000,1.850,0.000
40971.660,39866.260,45693.770,42657.890,40936.640,42701.730,44006.420,41845.590,-0.180,0.980,-0.151,-1.373,3.235,0.000,66.667,234.000,1.000,8.821,0.000
40700.360,39599.140,45388.860,42373.360,40662.210,42412.860,43709.270,41565.210,-0.179,0.981,-0.148,-1.556,3.387,0.031,66.667,235.000,1.000,9.290,0.000
40434.320,39337.940,45090.500,42095.090,40394.240,42130.910,43417.840,41291.000,-0.179,0.980,-0.149,-1.801,3.510,0.031,66.667,236.000,1.000,0.008,0.000
40173.710,39084.600,44799.570,41821.830,40133.520,41859.020,43134.740,41020.340,-0.180,0.981,-0.152,-1.984,3.540,0.153,66.667,237.000,1.000,2.484,0.000
39910.300,38829.880,44506.580,41544.900,39870.520,41586.230,42850.110,40745.460,-0.181,0.982,-0.155,-2.380,3.510,0.092,66.667,238.000,1.000,0.010,0.000
39643.820,38571.580,44209.950,41265.120,39603.630,41309.560,42563.430,40469.410,-0.180,0.983,-0.153,-2.625,3.601,0.183,66.667,239.000,1.000,1.940,0.000
39379.100,38313.990,43913.310,40986.910,39336.490,41032.710,42276.550,40196.060,-0.182,0.984,-0.152,-2.930,3.571,0.305,66.667,240.000,1.000,8.735,0.000
39112.470,38053.840,43613.360,40706.270,39065.550,40751.490,41983.980,39919.340,-0.181,0.984,-0.152,-3.235,3.479,0.275,66.667,241.000,1.000,8.102,0.000
38841.980,37789.820,43310.270,40423.130,38791.960,40466.460,41689.640,39640.840,-0.182,0.981,-0.155,-3.510,3.448,0.336,66.667,242.000,1.000,0.006,0.000
38574.370,37529.570,43011.700,40145.780,38525.020,40187.540,41404.550,39371.050,-0.182,0.976,-0.154,-3.632,3.448,0.427,66.667,243.000,1.000,8.730,0.000
38315.780,37279.540,42723.590,39879.250,38269.630,39920.810,41132.130,39112.210,-0.181,0.974,-0.154,-3.784,3.357,0.610,66.667,244.000,1.000,0.010,0.000
38061.960,37034.770,42441.240,39617.170,38018.640,39659.180,40863.660,38854.590,-0.179,0.973,-0.158,-3.906,3.265,0.610,66.667,245.000,1.000,11.264,0.000
37806.480,36787.600,42157.380,39352.480,37764.140,39392.280,40589.820,38593.050,-0.178,0.977,-0.154,-3.937,3.235,0.610,66.667,246.000,1.000,0.015,0.000
37548.710,36536.820,41870.850,39084.460,37506.590,39120.140,40311.600,38330.130,-0.177,0.981,-0.150,-4.089,2.991,0.580,66.667,247.000,1.000,3.052,0.000
37291.320,36284.730,41583.420,38815.310,37249.310,38849.000,40034.170,38066.830,-0.178,0.980,-0.146,-4.333,2.899,0.671,66.667,248.000,1.000,0.012,0.000
37033.550,36030.560,41294.010,38544.910,36990.670,38578.010,39756.370,37801.230,-0.177,0.979,-0.152,-4.456,2.716,0.885,66.667,249.000,1.000,0.004,0.000
36769.710,35770.900,40998.910,38269.400,36726.200,38300.840,39473.940,37531.490,-0.176,0.979,-0.153,-4.517,2.533,0.977,66.667,250.000,1.000,3.805,0.000
36506.410,35514.430,40706.310,37996.410,36464.130,38026.830,39195.460,37266.000,-0.176,0.977,-0.153,-4.730,2.411,1.099,66.667,251.000,1.000,3.710,0.000
36254.100,35270.110,40425.220,37734.430,36213.200,37767.070,38927.310,37010.270,-0.178,0.976,-0.154,-4.761,2.258,1.343,66.667,252.000,1.000,8.752,0.000
36006.060,35029.750,40147.370,37474.400,35965.360,37511.900,38659.770,36755.200,-0.179,0.973,-0.150,-5.005,1.892,1.343,66.667,253.000,1.000,18.832,0.000
35750.160,34781.560,39861.090,37206.110,35709.750,37247.820,38384.770,36492.860,-0.183,0.971,-0.149,-5.066,1.526,1.190,66.667,254.000,1.000,0.028,0.000
35486.190,34525.130,39566.510,36931.430,35446.730,36974.570,38104.700,36224.660,-0.185,0.969,-0.148,-5.096,1.343,1.007,66.667,255.000,1.000,0.006,0.000
35226.430,34271.960,39276.090,36661.780,35187.560,36704.200,37828.020,35960.260,-0.184,0.970,-0.147,-5.157,0.946,0.793,66.667,256.000,1.000,3.671,0.000
34976.630,34028.190,38996.160,36402.210,34937.520,36443.220,37557.700,35704.600,-0.183,0.969,-0.147,-5.035,0.427,0.580,66.667,257.000,1.000,12.472,0.000
34727.300,33785.260,38717.320,36142.410,34687.820,36183.950,37287.300,35450.180,-0.183,0.968,-0.145,-4.822,0.061,0.366,66.667,258.000,1.000,0.023,0.000
34472.910,33537.780,38433.750,35876.200,34433.440,35920.800,37013.590,35193.060,-0.183,0.967,-0.144,-4.761,-0.336,0.092,66.667,259.000,1.000,0.004,0.000
34216.470,33288.690,38148.470,35608.280,34177.120,35653.680,36736.320,34934.200,-0.182,0.964,-0.144,-4.669,-0.610,-0.153,66.667,260.000,1.000,2.421,0.000
33959.760,33040.660,37863.790,35342.340,33920.840,35384.670,36455.600,34672.040,-0.178,0.960,-0.144,-4.486,-1.007,-0.336,66.667,261.000,1.000,2.565,0.000
33704.920,32796.930,37581.960,35079.880,33668.070,35122.380,36180.290,34411.330,-0.175,0.960,-0.145,-4.242,-1.221,-0.580,66.667,262.000,1.000,2.477,0.000
33453.770,32557.240,37304.090,34820.900,33420.440,34868.190,35915.370,34157.420,-0.171,0.959,-0.146,-3.998,-1.373,-0.732,66.667,263.000,1.000,2.549,0.000
33204.910,32316.620,37028.040,34564.200,33173.930,34611.310,35652.460,33905.920,-0.167,0.959,-0.146,-3.693,-1.434,-0.793,66.667,264.000,1.000,4.932,0.000
32954.980,32072.460,36750.230,34307.180,32924.130,34347.170,35385.000,33650.980,-0.163,0.961,-0.145,-3.418,-1.434,-0.854,66.667,265.000,1.000,2.501,0.000
32705.620,31829.870,36472.500,34049.380,32674.160,34084.640,35118.230,33395.330,-0.161,0.961,-0.145,-3.052,-1.282,-0.793,66.667,266.000,1.000,2.978,0.000
32461.530,31593.880,36199.650,33793.750,32429.390,33829.980,34856.690,33144.050,-0.160,0.963,-0.145,-2.655,-1.160,-0.793,66.667,267.000,1.000,0.011,0.000
32219.530,31359.260,35928.130,33539.070,32186.410,33576.640,34594.250,32894.850,-0.160,0.965,-0.143,-2.472,-0.916,-0.885,66.667,268.000,1.000,3.194,0.000
31976.440,31122.040,35654.920,33283.840,31942.810,33321.950,34329.170,32644.790,-0.160,0.967,-0.142,-2.197,-0.702,-0.946,66.667,269.000,1.000,13.683,0.000
31736.250,30887.470,35385.570,33031.550,31704.110,33072.690,34070.060,32397.580,-0.160,0.969,-0.143,-2.045,-0.397,-0.916,66.667,270.000,1.000,3.149,0.000
31500.130,30656.950,35121.170,32783.400,31470.000,32827.440,33817.290,32155.610,-0.161,0.970,-0.146,-1.923,-0.153,-0.885,66.667,271.000,1.000,0.006,0.000
31262.080,30422.280,34852.570,32534.000,31230.190,32574.560,33558.200,31911.810,-0.162,0.971,-0.146,-1.862,0.122,-0.885,66.667,272.000,1.000,1.889,0.000
31018.580,30181.060,34576.740,32280.080,30982.300,32313.330,33289.920,31661.670,-0.162,0.973,-0.143,-1.770,0.336,-0.885,66.667,273.000,1.000,2.573,0.000
30772.310,29939.840,34300.220,32024.310,30734.380,32053.650,33022.870,31410.720,-0.161,0.975,-0.145,-1.678,0.824,-0.793,66.667,274.000,1.000,8.698,0.000
30525.700,29700.450,34025.220,31768.560,30489.420,31798.320,32762.210,31162.250,-0.164,0.977,-0.144,-1.678,1.099,-0.824,66.667,275.000,1.000,3.078,0.000
30281.550,29462.870,33752.960,31514.950,30247.380,31547.170,32507.240,30915.730,-0.162,0.978,-0.144,-1.648,1.434,-0.702,66.667,276.000,1.000,0.005,0.000
30041.350,29227.810,33485.070,31264.450,30007.730,31298.180,32253.730,30670.360,-0.165,0.977,-0.146,-1.770,1.678,-0.580,66.667,277.000,1.000,1.952,0.000
29803.470,28993.910,33219.210,31015.330,29767.340,31045.950,31996.010,30424.890,-0.165,0.978,-0.146,-1.770,1.984,-0.519,66.667,278.000,1.000,33.769,0.000
29565.850,28760.270,32952.970,30765.900,29525.320,30791.340,31734.500,30179.010,-0.165,0.978,-0.148,-1.862,2.319,-0.549,66.667,279.000,1.000,2.420,0.000
29328.500,28528.040,32687.020,30516.730,29284.990,30541.130,31475.480,29935.020,-0.167,0.978,-0.149,-2.075,2.533,-0.580,66.667,280.000,1.000,6.281,0.000
29093.910,28299.430,32424.730,30271.630,29050.130,30297.960,31223.800,29696.800,-0.170,0.978,-0.152,-2.167,2.777,-0.610,66.667,281.000,1.000,2.484,0.000
28858.120,28070.050,32162.450,30027.200,28815.520,30053.370,30973.360,29458.990,-0.173,0.977,-0.151,-2.380,2.960,-0.549,66.667,282.000,1.000,2.521,0.000
28615.980,27835.090,31893.940,29777.760,28574.820,29801.880,30717.770,29215.890,-0.175,0.978,-0.150,-2.472,3.082,-0.488,66.667,283.000,1.000,2.489,0.000
28372.090,27598.870,31622.720,29526.670,28331.650,29549.950,30459.720,28970.790,-0.175,0.979,-0.154,-2.594,3.052,-0.488,66.667,284.000,1.000,5.041,0.000
28132.340,27366.380,31354.390,29276.550,28090.110,29301.050,30199.420,28722.860,-0.176,0.980,-0.154,-2.808,3.082,-0.305,66.667,285.000,1.000,2.456,0.000
27897.740,27138.630,31091.020,29028.190,27852.570,29055.020,29940.190,28473.860,-0.175,0.977,-0.149,-2.991,3.082,-0.275,66.667,286.000,1.000,2.496,0.000
27668.480,26916.960,30835.120,28786.700,27624.220,28816.490,29693.650,28234.970,-0.175,0.976,-0.147,-3.204,3.113,-0.214,66.667,287.000,1.000,2.472,0.000
27444.260,26701.140,30586.570,28554.020,27405.020,28585.000,29458.680,28008.120,-0.175,0.974,-0.148,-3.357,3.204,-0.244,66.667,288.000,1.000,2.503,0.000
27220.990,26485.510,30338.980,28323.840,27186.140,28352.240,29220.460,27781.580,-0.177,0.970,-0.148,-3.510,3.113,-0.214,66.667,289.000,1.000,2.527,0.000
26993.200,26264.460,30086.070,28088.990,26961.280,28114.710,28974.200,27549.700,-0.177,0.969,-0.149,-3.540,3.052,-0.122,66.667,290.000,1.000,3.012,0.000
26761.380,26039.910,29829.190,27850.020,26733.080,27874.480,28726.250,27317.800,-0.177,0.965,-0.152,-3.510,3.052,-0.092,66.667,291.000,1.000,0.010,0.000
26529.180,25815.720,29571.970,27610.890,26504.740,27632.700,28478.820,27086.510,-0.178,0.964,-0.151,-3.418,3.021,-0.122,66.667,292.000,1.000,1.892,0.000
26294.180,25588.360,29311.220,27368.470,26272.520,27387.160,28227.180,26848.490,-0.178,0.964,-0.149,-3.387,2.838,-0.092,66.667,293.000,1.000,2.511,0.000
26057.640,25358.730,29048.580,27122.930,26037.870,27141.640,27975.170,26606.760,-0.178,0.965,-0.147,-3.265,2.716,-0.153,66.667,294.000,1.000,2.564,0.000
25828.180,25136.280,28793.730,26882.960,25809.340,26904.330,27732.840,26372.820,-0.178,0.967,-0.146,-3.174,2.594,-0.122,66.667,295.000,1.000,3.078,0.000
25605.560,24920.200,28545.780,26648.830,25585.900,26672.330,27496.450,26145.320,-0.178,0.965,-0.147,-2.991,2.441,0.000,66.667,296.000,1.000,0.007,0.000
25383.510,24703.620,28298.050,26416.130,25362.850,26439.960,27258.650,25918.660,-0.181,0.966,-0.149,-2.930,2.258,-0.092,66.667,297.000,1.000,8.159,0.000
25160.380,24487.170,28050.400,26185.140,25141.210,26208.490,27020.690,25693.720,-0.181,0.968,-0.151,-2.930,2.167,-0.244,66.667,298.000,1.000,4.327,0.000
24935.790,24271.640,27802.300,25953.960,24920.400,25977.290,26782.760,25468.750,-0.183,0.969,-0.147,-2.899,1.953,-0.275,66.667,299.000,1.000,0.010,0.000
24710.340,24054.710,27551.930,25720.730,24698.010,25744.340,26543.380,25241.590,-0.184,0.972,-0.143,-2.777,1.709,-0.427,66.667,300.000,1.000,6.249,0.000
24484.560,23834.870,27298.840,25485.300,24472.340,25509.840,26301.450,25011.590,-0.181,0.972,-0.143,-2.655,1.434,-0.549,66.667,301.000,1.000,0.009,0.000
24257.050,23612.320,27043.320,25246.840,24242.560,25272.650,26054.930,24777.710,-0.183,0.973,-0.145,-2.594,1.221,-0.610,66.667,302.000,1.000,13.193,0.000
24030.730,23391.180,26790.020,25010.130,24013.510,25035.320,25807.290,24544.150,-0.180,0.973,-0.143,-2.625,1.099,-0.793,66.667,303.000,1.000,9.899,0.000
23808.910,23174.750,26542.530,24779.890,23790.250,24802.210,25565.260,24315.460,-0.179,0.974,-0.146,-2.655,0.824,-0.702,66.667,304.000,1.000,0.008,0.000
23587.040,22959.090,26296.190,24550.740,23568.940,24570.690,25327.980,24088.610,-0.178,0.974,-0.147,-2.747,0.610,-0.671,66.667,305.000,1.000,0.003,0.000
23363.120,22742.260,26048.260,24318.780,23346.720,24339.830,25092.280,23861.160,-0.178,0.974,-0.149,-2.686,0.549,-0.732,66.667,306.000,1.000,3.123,0.000
23142.500,22528.450,25802.490,24088.460,23127.730,24113.330,24860.090,23637.350,-0.174,0.976,-0.154,-2.838,0.397,-0.793,66.667,307.000,1.000,0.013,0.000
22926.270,22317.770,25559.230,23861.290,22912.050,23889.320,24630.580,23417.660,-0.172,0.978,-0.150,-2.869,0.519,-0.824,66.667,308.000,1.000,1.908,0.000
22711.950,22108.230,25316.490,23635.540,22697.100,23666.460,24401.690,23197.910,-0.170,0.979,-0.148,-3.052,0.580,-0.854,66.667,309.000,1.000,8.700,0.000
22496.450,21897.610,25071.940,23409.300,22481.540,23445.790,24173.780,22976.440,-0.167,0.979,-0.146,-3.052,0.702,-0.824,66.667,310.000,1.000,6.870,0.000
22277.730,21682.990,24824.220,23180.980,22263.090,23221.860,23943.400,22753.740,-0.166,0.978,-0.150,-3.235,0.916,-0.854,66.667,311.000,1.000,0.008,0.000
22059.280,21467.020,24577.410,22952.330,22042.330,22990.590,23706.980,22530.030,-0.166,0.977,-0.147,-3.510,1.221,-0.732,66.667,312.000,1.000,2.464,0.000
21842.980,21252.550,24333.450,22723.990,21820.680,22754.670,23464.480,22304.090,-0.167,0.975,-0.144,-3.571,1.434,-0.702,66.667,313.000,1.000,0.008,0.000
21628.120,21039.300,24091.490,22497.140,21599.790,22519.060,23219.250,22079.170,-0.166,0.973,-0.144,-3.601,1.923,-0.732,66.667,314.000,1.000,10.683,0.000
21415.620,20829.060,23852.880,22274.100,21383.360,22289.870,22980.610,21860.830,-0.162,0.970,-0.144,-3.632,2.197,-0.702,66.667,315.000,1.000,9.429,0.000
21204.720,20621.980,23616.160,22052.250,21169.980,22066.460,22749.560,21644.580,-0.161,0.968,-0.146,-3.693,2.502,-0.671,66.667,316.000,1.000,0.024,0.000
20993.260,20414.540,23377.950,21829.920,20955.390,21842.730,22516.140,21423.560,-0.159,0.967,-0.145,-3.510,2.777,-0.610,66.667,317.000,1.000,2.935,0.000
20778.680,20204.400,23137.000,21607.050,20739.540,21618.690,22280.770,21200.720,-0.159,0.966,-0.145,-3.357,3.204,-0.458,66.667,318.000,1.000,0.012,0.000
20558.320,19991.380,22892.850,21379.530,20522.600,21395.170,22049.690,20979.220,-0.162,0.967,-0.145,-3.204,3.571,-0.305,66.667,319.000,1.000,0.006,0.000
20335.940,19778.850,22648.420,21148.990,20305.410,21171.650,21820.670,20756.820,-0.162,0.966,-0.143,-2.960,3.998,-0.305,66.667,320.000,1.000,3.810,0.000
20117.930,19570.210,22407.560,20922.270,20090.100,20949.800,21590.120,20533.260,-0.164,0.966,-0.143,-2.869,4.364,-0.183,66.667,321.000,1.000,3.805,0.000
19904.680,19364.290,22170.420,20700.000,19876.890,20729.270,21360.580,20312.380,-0.170,0.967,-0.143,-2.747,4.669,-0.092,66.667,322.000,1.000,8.659,0.000
19695.790,19161.080,21937.970,20481.520,19667.150,20510.650,21137.020,20097.250,-0.171,0.967,-0.141,-2.533,4.883,-0.092,66.667,323.000,1.000,9.337,0.000
19492.910,18963.620,21711.790,20268.480,19463.490,20297.080,20920.250,19888.340,-0.175,0.968,-0.144,-2.289,5.066,-0.153,66.667,324.000,1.000,0.014,0.000
19294.840,18771.540,21489.840,20060.380,19265.020,20087.340,20706.020,19685.310,-0.179,0.969,-0.144,-2.075,5.096,-0.153,66.667,325.000,1.000,2.434,0.000
19094.800,18577.610,21265.850,19852.560,19065.790,19875.630,20489.400,19483.600,-0.181,0.969,-0.143,-1.862,4.944,-0.275,66.667,326.000,1.000,0.005,0.000
18887.170,18375.980,21034.930,19639.750,18860.410,19658.900,20268.150,19276.150,-0.185,0.973,-0.145,-1.709,4.883,-0.214,66.667,327.000,1.000,10.726,0.000
18674.230,18169.460,20798.840,19421.060,18649.530,19439.280,20043.310,19061.370,-0.183,0.973,-0.144,-1.709,4.761,-0.244,66.667,328.000,1.000,3.130,0.000
18461.770,17964.000,20562.950,19201.050,18438.070,19220.390,19818.210,18845.080,-0.186,0.971,-0.144,-1.526,4.486,-0.305,66.667,329.000,1.000,0.026,0.000
18255.660,17765.060,20333.600,18987.300,18232.340,19006.150,19596.860,18634.450,-0.186,0.972,-0.144,-1.343,4.181,-0.275,66.667,330.000,1.000,10.598,0.000
18055.150,17571.990,20110.600,18779.690,18032.860,18797.040,19380.310,18429.110,-0.187,0.972,-0.148,-1.343,3.876,-0.366,66.667,331.000,1.000,2.468,0.000
17851.640,17376.290,19885.200,18568.660,17831.760,18587.370,19164.240,18222.530,-0.187,0.971,-0.147,-1.251,3.632,-0.427,66.667,332.000,1.000,2.534,0.000
17644.610,17176.790,19655.980,18352.810,17627.120,18375.970,18947.050,18013.500,-0.186,0.972,-0.146,-1.251,3.235,-0.458,66.667,333.000,1.000,4.955,0.000
17439.180,16977.340,19427.200,18138.580,17422.570,18164.560,18729.410,17805.150,-0.185,0.973,-0.148,-1.312,2.869,-0.336,66.667,334.000,1.000,2.517,0.000
17236.100,16777.370,19199.290,17928.440,17218.820,17951.060,18509.820,17599.080,-0.187,0.974,-0.152,-1.343,2.380,-0.366,66.667,335.000,1.000,4.339,0.000
17036.160,16579.290,18974.370,17721.890,17018.320,17739.200,18292.580,17397.340,-0.188,0.974,-0.148,-1.373,1.923,-0.366,66.667,336.000,1.000,0.085,0.000
16837.470,16383.820,18752.020,17515.540,16820.730,17532.820,18080.990,17198.410,-0.186,0.975,-0.149,-1.526,1.495,-0.366,66.667,337.000,1.000,5.605,0.000
16637.780,16188.970,18529.360,17307.910,16623.120,17329.010,17871.010,16998.500,-0.185,0.975,-0.148,-1.709,1.007,-0.336,66.667,338.000,1.000,14.321,0.000
16438.080,15995.910,18306.790,17100.540,16425.240,17124.440,17659.310,16796.660,-0.182,0.973,-0.150,-1.770,0.549,-0.366,66.667,339.000,1.000,0.010,0.000
16235.660,15801.240,18081.810,16890.240,16223.430,16913.550,17441.790,16589.020,-0.184,0.973,-0.151,-1.862,0.153,-0.366,66.667,340.000,1.000,1.882,0.000
16030.130,15602.440,17853.600,16676.470,16017.290,16696.360,17219.340,16375.780,-0.184,0.974,-0.151,-1.984,-0.275,-0.214,66.667,341.000,1.000,7.501,0.000
15827.860,15406.220,17628.580,16465.780,15815.410,16483.870,17002.920,16169.040,-0.182,0.975,-0.156,-2.258,-0.671,-0.244,66.667,342.000,1.000,2.521,0.000
15632.800,15218.390,17411.580,16262.770,15623.930,16285.290,16800.020,15975.800,-0.182,0.976,-0.155,-2.411,-1.038,-0.336,66.667,343.000,1.000,3.148,0.000
15441.550,15035.790,17199.740,16064.970,15438.480,16097.560,16605.150,15786.260,-0.183,0.978,-0.155,-2.655,-1.434,-0.458,66.667,344.000,1.000,0.012,0.000
15245.830,14848.410,16983.880,15863.080,15247.160,15904.270,16403.460,15586.970,-0.181,0.976,-0.151,-2.869,-1.862,-0.610,66.667,345.000,1.000,1.785,0.000
15045.520,14654.530,16761.710,15654.620,15047.310,15697.580,16189.620,15380.290,-0.180,0.974,-0.151,-3.082,-2.106,-0.641,66.667,346.000,1.000,8.808,0.000
14847.700,14460.640,16539.420,15446.660,14845.960,15484.000,15968.350,15175.580,-0.177,0.970,-0.151,-3.387,-2.258,-0.732,66.667,347.000,1.000,3.036,0.000
14650.710,14264.000,16316.020,15239.640,14642.910,15263.050,15740.240,14970.800,-0.172,0.968,-0.148,-3.448,-2.411,-0.854,66.667,348.000,1.000,0.010,0.000
14451.540,14061.990,16089.380,15031.330,14437.360,15036.830,15511.440,14764.210,-0.168,0.964,-0.149,-3.510,-2.411,-0.793,66.667,349.000,1.000,1.938,0.000
14254.460,13863.090,15865.760,14825.500,14235.980,14820.050,15294.180,14561.230,-0.165,0.964,-0.152,-3.448,-2.258,-0.793,66.667,350.000,1.000,8.751,0.000
14062.420,13674.720,15650.280,14624.010,14043.710,14621.720,15091.960,14364.150,-0.163,0.964,-0.150,-3.326,-2.167,-0.671,66.667,351.000,1.000,2.476,0.000
13873.960,13494.250,15440.760,14425.460,13857.660,14432.710,14895.200,14169.370,-0.160,0.965,-0.149,-3.204,-2.045,-0.671,66.667,352.000,1.000,3.771,0.000
13685.400,13313.350,15231.580,14227.820,13670.790,14237.730,14692.070,13973.750,-0.158,0.960,-0.148,-3.082,-1.740,-0.610,66.667,353.000,1.000,14.402,0.000
13494.610,13129.750,15021.210,14029.170,13481.510,14036.880,14484.010,13778.460,-0.154,0.957,-0.147,-2.747,-1.526,-0.610,66.667,354.000,1.000,0.017,0.000
13302.580,12946.260,14811.560,13830.420,13293.190,13838.110,14277.770,13585.330,-0.151,0.957,-0.146,-2.380,-1.038,-0.732,66.667,355.000,1.000,1.849,0.000
13110.280,12761.620,14602.390,13633.920,13106.620,13640.540,14074.950,13395.410,-0.151,0.959,-0.148,-1.953,-0.610,-0.519,66.667,356.000,1.000,6.233,0.000
12920.030,12576.730,14394.020,13440.420,12922.120,13445.420,13877.910,13208.040,-0.154,0.963,-0.146,-1.709,-0.092,-0.519,66.667,357.000,1.000,2.451,0.000
12731.920,12394.320,14185.960,13246.530,12737.840,13255.010,13684.340,13018.430,-0.158,0.967,-0.144,-1.465,0.305,-0.580,66.667,358.000,1.000,2.521,0.000
12541.240,12210.600,13974.200,13047.990,12548.370,13061.820,13484.450,12823.010,-0.160,0.973,-0.143,-1.190,0.702,-0.488,66.667,359.000,1.000,2.468,0.000
12347.030,12022.800,13757.530,12845.860,12353.130,12861.760,13275.810,12624.710,-0.164,0.979,-0.143,-1.099,1.190,-0.641,66.667,360.000,1.000,4.354,0.000
12156.380,11837.100,13542.200,12646.790,12159.300,12662.550,13067.330,12429.190,-0.164,0.977,-0.143,-1.007,1.587,-0.793,66.667,361.000,1.000,0.010,0.000
11974.990,11660.510,13335.290,12455.840,11974.020,12472.790,12867.990,12240.340,-0.163,0.978,-0.142,-0.885,1.923,-0.885,66.667,362.000,1.000,10.685,0.000
11797.850,11489.030,13134.370,12268.990,11795.250,12289.920,12676.460,12056.220,-0.163,0.978,-0.142,-0.671,2.289,-1.099,66.667,363.000,1.000,3.036,0.000
11616.760,11312.300,12931.330,12079.090,11614.420,12102.820,12482.650,11870.720,-0.162,0.974,-0.147,-0.549,2.625,-1.099,66.667,364.000,1.000,0.010,0.000
11432.140,11129.080,12724.750,11886.140,11428.690,11908.030,12281.520,11682.000,-0.162,0.976,-0.147,-0.488,3.113,-1.129,66.667,365.000,1.000,5.641,0.000
11247.640,10945.250,12517.900,11693.320,11241.380,11711.100,12077.450,11492.050,-0.159,0.974,-0.146,-0.305,3.326,-1.251,66.667,366.000,1.000,4.345,0.000
11061.420,10761.820,12310.170,11499.850,11053.610,11514.360,11875.430,11300.760,-0.160,0.974,-0.146,-0.244,3.723,-1.160,66.667,367.000,1.000,0.007,0.000
10873.590,10579.520,12102.360,11306.320,10867.180,11319.220,11678.020,11110.090,-0.163,0.977,-0.147,-0.214,4.089,-1.099,66.667,368.000,1.000,5.612,0.000
10689.150,10402.090,11898.240,11116.260,10685.540,11128.520,11485.300,10925.070,-0.167,0.976,-0.146,-0.214,4.333,-1.129,66.667,369.000,1.000,9.438,0.000
10508.490,10228.520,11696.790,10928.810,10506.830,10940.770,11294.040,10744.510,-0.170,0.976,-0.148,-0.275,4.608,-1.068,66.667,370.000,1.000,0.012,0.000
10327.970,10053.550,11493.550,10739.780,10325.690,10751.100,11099.370,10561.960,-0.173,0.976,-0.151,-0.397,4.669,-1.038,66.667,371.000,1.000,1.860,0.000
10145.690,9874.275,11287.170,10547.420,10140.590,10558.140,10900.270,10374.580,-0.174,0.976,-0.152,-0.580,4.608,-0.977,66.667,372.000,1.000,8.739,0.000
9962.818,9692.627,11080.210,10353.610,9954.395,10364.600,10700.420,10184.220,-0.177,0.976,-0.152,-0.641,4.700,-0.854,66.667,373.000,1.000,3.061,0.000
9784.806,9514.818,10877.760,10163.370,9771.563,10173.860,10503.100,9995.005,-0.181,0.977,-0.154,-0.732,4.700,-0.763,66.667,374.000,1.000,0.010,0.000
9612.060,9342.908,10680.630,9977.479,9592.961,9986.960,10307.950,9808.733,-0.188,0.977,-0.152,-0.977,4.517,-0.763,66.667,375.000,1.000,1.932,0.000
9437.980,9172.905,10484.530,9792.793,9416.001,9802.632,10114.850,9625.474,-0.195,0.977,-0.154,-1.099,4.272,-0.854,66.667,376.000,1.000,14.292,0.000
9265.077,9006.207,10291.500,9612.768,9243.707,9624.030,9929.698,9449.344,-0.196,0.978,-0.157,-1.282,3.784,-0.885,66.667,377.000,1.000,0.009,0.000
9100.574,8847.363,10106.120,9441.554,9080.223,9454.642,9755.993,9283.142,-0.199,0.982,-0.158,-1.434,3.143,-0.885,66.667,378.000,1.000,2.581,0.000
8937.652,8690.296,9921.642,9271.538,8918.265,9286.583,9583.601,9118.880,-0.199,0.985,-0.156,-1.831,2.625,-0.854,66.667,379.000,1.000,0.014,0.000
8766.073,8525.221,9729.794,9093.605,8748.968,9110.668,9402.204,8947.029,-0.194,0.986,-0.156,-2.106,1.953,-0.793,66.667,380.000,1.000,5.539,0.000
8586.913,8352.255,9532.448,8909.771,8573.618,8927.954,9213.880,8768.859,-0.192,0.985,-0.155,-2.502,1.526,-0.671,66.667,381.000,1.000,12.574,0.000
8404.592,8176.147,9332.849,8724.069,8395.085,8741.429,9022.004,8588.120,-0.189,0.981,-0.154,-2.869,1.099,-0.549,66.667,382.000,1.000,3.072,0.000
8224.933,8003.086,9134.916,8539.009,8216.715,8556.674,8829.994,8404.936,-0.188,0.979,-0.156,-3.204,0.641,-0.427,66.667,383.000,1.000,0.010,0.000
8051.533,7835.807,8941.128,8355.590,8041.694,8379.246,8643.199,8219.894,-0.187,0.976,-0.155,-3.540,0.214,-0.275,66.667,384.000,1.000,1.950,0.000
7882.504,7671.780,8750.184,8174.181,7871.045,8209.165,8465.837,8039.267,-0.189,0.974,-0.154,-3.754,-0.275,-0.153,66.667,385.000,1.000,2.456,0.000
7714.894,7507.920,8560.417,7995.767,7702.388,8038.287,8289.732,7864.525,-0.188,0.969,-0.151,-3.937,-0.702,0.000,66.667,386.000,1.000,3.702,0.000
7542.966,7337.849,8365.850,7814.764,7525.918,7851.008,8093.389,7683.717,-0.191,0.969,-0.148,-4.089,-1.038,-0.122,66.667,387.000,1.000,13.132,0.000
7363.953,7159.170,8163.808,7627.759,7339.136,7646.742,7877.924,7494.369,-0.188,0.968,-0.148,-4.211,-1.312,-0.214,66.667,388.000,1.000,0.009,0.000
7185.380,6981.709,7963.849,7443.123,7155.381,7445.223,7671.400,7310.102,-0.185,0.965,-0.152,-4.333,-1.404,-0.183,66.667,389.000,1.000,11.282,0.000
7015.517,6815.386,7775.634,7268.968,6985.838,7261.838,7488.790,7138.400,-0.181,0.963,-0.153,-4.425,-1.648,-0.244,66.667,390.000,1.000,0.014,0.000
6851.703,6656.181,7595.249,7100.865,6825.633,7091.604,7318.578,6972.730,-0.181,0.962,-0.154,-4.303,-1.801,-0.183,66.667,391.000,1.000,4.914,0.000
6685.443,6495.470,7412.568,6928.196,6663.747,6921.964,7146.328,6804.338,-0.179,0.962,-0.149,-4.059,-1.892,-0.092,66.667,392.000,1.000,0.012,0.000
6513.925,6332.008,7224.790,6749.114,6497.179,6750.219,6969.919,6632.427,-0.175,0.964,-0.148,-3.876,-1.862,-0.153,66.667,393.000,1.000,1.859,0.000
6340.139,6166.265,7034.250,6569.351,6327.837,6576.166,6789.770,6459.769,-0.173,0.966,-0.149,-3.723,-1.953,-0.061,66.667,394.000,1.000,3.785,0.000
6166.671,5997.544,6842.027,6391.306,6156.066,6396.239,6604.099,6287.199,-0.169,0.968,-0.146,-3.448,-1.862,-0.092,66.667,395.000,1.000,6.896,0.000
5995.160,5828.779,6650.138,6214.204,5984.192,6215.123,6418.183,6114.328,-0.167,0.968,-0.147,-3.265,-1.678,-0.031,66.667,396.000,1.000,0.007,0.000
5828.308,5665.666,6462.969,6039.887,5817.732,6043.308,6242.203,5943.183,-0.163,0.971,-0.149,-3.174,-1.221,0.000,66.667,397.000,1.000,11.169,0.000
5666.196,5508.318,6280.838,5869.687,5656.846,5880.047,6074.948,5776.651,-0.163,0.968,-0.149,-2.991,-0.946,0.000,66.667,398.000,1.000,0.009,0.000
5504.634,5350.509,6098.865,5700.597,5494.966,5715.030,5904.210,5611.758,-0.161,0.967,-0.146,-2.594,-0.580,0.031,66.667,399.000,1.000,8.810,0.000
5340.486,5188.692,5914.196,5529.793,5328.623,5541.678,5723.859,5444.938,-0.161,0.968,-0.146,-2.533,-0.122,0.031,66.667,400.000,1.000,0.011,0.000
5172.184,5023.585,5726.385,5355.876,5159.317,5362.781,5538.692,5275.828,-0.160,0.964,-0.147,-2.319,0.366,-0.061,66.667,401.000,1.000,9.259,0.000
5002.203,4859.961,5538.883,5181.866,4992.229,5188.685,5358.593,5107.815,-0.162,0.968,-0.145,-2.045,0.763,-0.031,66.667,402.000,1.000,0.010,0.000
4836.006,4702.112,5356.542,5012.587,4831.479,5022.912,5187.007,4944.489,-0.162,0.968,-0.147,-1.801,1.129,-0.031,66.667,403.000,1.000,0.006,0.000
4672.149,4544.814,5175.768,4844.949,4672.038,4856.837,5015.793,4780.989,-0.162,0.967,-0.146,-1.587,1.587,-0.061,66.667,404.000,1.000,3.174,0.000
4506.328,4382.351,4990.978,4674.001,4507.804,4684.570,4838.688,4613.500,-0.164,0.968,-0.146,-1.526,1.984,-0.031,66.667,405.000,1.000,0.010,0.000
4339.274,4218.667,4804.311,4501.005,4340.724,4508.612,4659.058,4446.602,-0.163,0.966,-0.146,-1.312,2.380,-0.031,66.667,406.000,1.000,10.810,0.000
4174.286,4058.901,4620.416,4329.653,4174.943,4333.770,4482.413,4280.997,-0.165,0.968,-0.149,-1.129,2.747,0.122,66.667,407.000,1.000,10.489,0.000
4014.004,3903.196,4441.278,4161.826,4012.543,4164.550,4310.268,4114.319,-0.167,0.970,-0.150,-1.160,2.991,0.244,66.667,408.000,1.000,0.018,0.000
3856.846,3749.137,4265.586,3996.341,3852.960,4000.341,4139.925,3948.907,-0.169,0.972,-0.151,-1.190,3.174,0.366,66.667,409.000,1.000,18.041,0.000
3697.428,3593.350,4088.845,3829.229,3691.899,3834.163,3966.471,3782.603,-0.173,0.972,-0.147,-1.251,3.326,0.366,66.667,410.000,1.000,0.017,0.000
3532.857,3433.983,3907.609,3657.214,3526.203,3662.979,3787.638,3610.139,-0.175,0.973,-0.149,-1.251,3.418,0.549,66.667,411.000,1.000,0.008,0.000
3368.271,3276.114,3726.574,3485.066,3362.129,3494.643,3611.477,3438.690,-0.177,0.973,-0.150,-1.190,3.540,0.549,66.667,412.000,1.000,2.489,0.000
3211.073,3126.766,3553.375,3321.503,3208.014,3335.821,3446.385,3279.666,-0.179,0.972,-0.154,-1.282,3.540,0.641,66.667,413.000,1.000,4.999,0.000
3060.249,2983.708,3386.706,3166.227,3061.249,3181.501,3287.200,3129.802,-0.179,0.973,-0.152,-1.282,3.510,0.671,66.667,414.000,1.000,2.469,0.000
2914.840,2844.891,3224.875,3016.463,2918.920,3030.104,3131.038,2983.070,-0.181,0.972,-0.155,-1.617,3.357,0.671,66.667,415.000,1.000,2.540,0.000
2774.112,2708.850,3065.890,2868.691,2778.538,2882.601,2977.502,2836.333,-0.184,0.975,-0.151,-1.770,3.174,0.671,66.667,416.000,1.000,2.496,0.000
2629.885,2565.658,2900.259,2714.362,2630.731,2729.938,2818.147,2682.974,-0.184,0.976,-0.154,-1.953,2.960,0.671,66.667,417.000,1.000,2.464,0.000
2476.571,2409.146,2722.773,2549.463,2470.710,2564.542,2648.453,2520.208,-0.185,0.977,-0.150,-2.075,2.686,0.732,66.667,418.000,1.000,2.586,0.000
2316.397,2245.090,2538.381,2377.850,2303.901,2391.334,2472.907,2352.619,-0.187,0.978,-0.154,-2.441,2.380,0.702,66.667,419.000,1.000,2.430,0.000
2155.297,2084.226,2355.873,2207.388,2139.469,2220.754,2298.325,2187.167,-0.186,0.977,-0.153,-2.533,2.045,0.763,66.667,420.000,1.000,6.308,0.000
1998.371,1932.184,2180.707,2043.731,1982.234,2057.346,2128.493,2025.222,-0.184,0.978,-0.154,-2.808,1.617,0.641,66.667,421.000,1.000,3.063,0.000
1848.353,1789.198,2014.829,1888.903,1833.988,1902.661,1968.227,1869.637,-0.183,0.979,-0.154,-2.930,1.190,0.671,66.667,422.000,1.000,0.009,0.000
1699.320,1647.801,1851.043,1736.406,1688.482,1752.079,1813.625,1720.133,-0.185,0.980,-0.155,-3.143,0.946,0.610,66.667,423.000,1.000,3.068,0.000
1542.017,1497.029,1677.280,1574.975,1533.147,1593.373,1649.431,1563.952,-0.184,0.979,-0.151,-3.265,0.671,0.549,66.667,424.000,1.000,14.460,0.000
1380.508,1340.090,1496.899,1406.990,1370.247,1427.125,1475.941,1398.201,-0.186,0.975,-0.151,-3.510,0.244,0.488,66.667,425.000,1.000,0.015,0.000
1226.411,1189.375,1324.025,1245.290,1214.003,1266.433,1306.966,1237.605,-0.181,0.969,-0.148,-3.876,-0.031,0.397,66.667,426.000,1.000,2.476,0.000
1078.737,1042.741,1157.765,1089.771,1063.051,1106.917,1138.980,1084.318,-0.177,0.966,-0.147,-3.754,-0.305,0.305,66.667,427.000,1.000,0.008,0.000
928.416,890.958,987.690,931.959,907.047,937.752,964.457,927.836,-0.175,0.963,-0.152,-3.815,-0.458,0.214,66.667,428.000,1.000,1.883,0.000
779.514,742.619,819.451,776.525,754.152,774.193,798.431,772.521,-0.172,0.962,-0.150,-3.723,-0.610,0.183,66.667,429.000,1.000,13.710,0.000
634.625,602.069,656.467,623.689,608.852,623.977,645.225,620.581,-0.170,0.961,-0.153,-3.418,-0.793,0.153,66.667,430.000,1.000,5.567,0.000
487.654,458.626,490.960,467.418,461.248,471.103,489.617,466.685,-0.171,0.961,-0.152,-3.113,-0.977,0.153,66.667,431.000,1.000,0.014,0.000
342.264,314.495,326.629,314.981,313.935,314.864,331.209,317.446,-0.170,0.960,-0.150,-3.052,-1.007,0.244,66.667,432.000,1.000,1.725,0.000
199.276,174.571,166.066,167.217,170.508,162.084,173.867,173.589,-0.167,0.958,-0.152,-2.777,-1.038,0.183,66.667,433.000,1.000,6.511,0.000
53.238,34.878,3.814,15.991,25.864,10.277,15.148,26.413,-0.165,0.955,-0.150,-2.411,-1.007,0.031,66.667,434.000,1.000,2.406,0.000
-94.742,-105.486,-160.565,-138.770,-120.849,-140.937,-143.473,-125.462,-0.166,0.956,-0.149,-2.197,-0.977,-0.031,66.667,435.000,1.000,2.537,0.000
-241.955,-244.825,-324.586,-293.230,-266.930,-290.874,-298.999,-277.109,-0.167,0.957,-0.149,-1.831,-0.916,-0.031,66.667,436.000,1.000,2.447,0.000
-388.009,-383.445,-486.102,-444.916,-410.111,-438.832,-449.194,-423.543,-0.168,0.958,-0.148,-1.526,-0.824,0.000,66.667,437.000,1.000,4.347,0.000
-535.427,-524.994,-647.011,-596.372,-553.358,-586.578,-599.064,-568.495,-0.169,0.961,-0.148,-1.160,-0.702,-0.214,66.667,438.000,1.000,0.008,0.000
-685.865,-671.203,-810.776,-750.886,-700.926,-738.896,-755.912,-717.285,-0.171,0.964,-0.152,-0.977,-0.641,-0.366,66.667,439.000,1.000,26.973,0.000
-834.300,-816.816,-973.892,-903.730,-848.283,-891.964,-914.089,-864.947,-0.170,0.967,-0.150,-0.641,-0.610,-0.488,66.667,440.000,1.000,3.046,0.000
-975.595,-955.453,-1131.452,-1049.993,-988.524,-1037.022,-1063.547,-1006.804,-0.169,0.970,-0.151,-0.549,-0.488,-0.549,66.667,441.000,1.000,0.014,0.000
-1116.815,-1093.111,-1290.698,-1197.536,-1127.980,-1179.428,-1210.421,-1150.174,-0.168,0.973,-0.147,-0.488,-0.336,-0.610,66.667,442.000,1.000,1.829,0.000
-1263.437,-1236.596,-1457.360,-1351.511,-1273.964,-1328.338,-1364.426,-1300.768,-0.169,0.978,-0.150,-0.427,-0.153,-0.641,66.667,443.000,1.000,2.614,0.000
-1406.445,-1377.233,-1621.110,-1502.234,-1418.181,-1478.315,-1518.466,-1449.778,-0.171,0.977,-0.152,-0.458,-0.122,-0.763,66.667,444.000,1.000,2.461,0.000
-1541.632,-1509.779,-1775.781,-1645.146,-1554.722,-1623.920,-1665.443,-1590.661,-0.169,0.977,-0.151,-0.458,0.122,-0.854,66.667,445.000,1.000,2.526,0.000
-1677.626,-1642.587,-1929.285,-1787.624,-1691.383,-1770.097,-1811.908,-1730.034,-0.170,0.978,-0.152,-0.610,0.214,-0.824,66.667,446.000,1.000,2.433,0.000
-1819.103,-1779.840,-2086.115,-1933.232,-1833.098,-1918.679,-1964.409,-1874.152,-0.171,0.979,-0.152,-0.763,0.305,-0.793,66.667,447.000,1.000,2.489,0.000
-1957.349,-1913.396,-2237.859,-2074.907,-1971.309,-2061.368,-2115.296,-2017.948,-0.172,0.979,-0.152,-0.916,0.244,-0.854,66.667,448.000,1.000,2.542,0.000
-2087.882,-2040.746,-2381.131,-2210.162,-2101.845,-2197.285,-2259.188,-2154.999,-0.173,0.979,-0.151,-1.099,0.366,-0.763,66.667,449.000,1.000,3.030,0.000
-2219.279,-2170.884,-2525.862,-2347.340,-2234.750,-2338.081,-2409.476,-2292.035,-0.171,0.976,-0.149,-1.190,0.519,-0.702,66.667,450.000,1.000,0.007,0.000
-2358.247,-2308.969,-2679.605,-2492.489,-2376.116,-2487.929,-2570.967,-2436.436,-0.170,0.976,-0.149,-1.373,0.702,-0.610,66.667,451.000,1.000,8.182,0.000
-2502.977,-2450.926,-2840.447,-2643.209,-2520.830,-2638.804,-2728.914,-2584.088,-0.169,0.972,-0.148,-1.556,0.854,-0.549,66.667,452.000,1.000,12.525,0.000
-2645.803,-2588.087,-3000.094,-2791.779,-2661.552,-2783.776,-2876.120,-2728.760,-0.168,0.969,-0.151,-1.556,1.038,-0.366,66.667,453.000,1.000,0.019,0.000
-2781.508,-2716.869,-3152.741,-2933.365,-2795.697,-2922.952,-3016.910,-2867.338,-0.170,0.966,-0.153,-1.556,1.038,-0.214,66.667,454.000,1.000,0.004,0.000
-2913.165,-2842.965,-3301.476,-3070.170,-2926.467,-3059.942,-3154.318,-3000.632,-0.171,0.963,-0.153,-1.495,1.251,-0.061,66.667,455.000,1.000,4.282,0.000
-3045.899,-2972.517,-3451.428,-3207.183,-3058.392,-3198.929,-3291.535,-3132.782,-0.173,0.963,-0.153,-1.495,1.282,-0.031,66.667,456.000,1.000,0.081,0.000
-3183.208,-3108.105,-3605.334,-3348.907,-3195.120,-3343.635,-3434.728,-3269.306,-0.175,0.965,-0.149,-1.221,1.312,0.061,66.667,457.000,1.000,8.741,0.000
-3322.953,-3246.043,-3760.393,-3493.401,-3333.921,-3490.960,-3582.501,-3408.463,-0.177,0.969,-0.150,-1.129,1.312,0.153,66.667,458.000,1.000,0.017,0.000
-3456.816,-3375.889,-3907.877,-3632.638,-3465.785,-3630.687,-3724.576,-3542.177,-0.177,0.970,-0.149,-1.068,1.373,0.244,66.667,459.000,1.000,7.343,0.000
-3586.296,-3498.444,-4049.532,-3767.998,-3592.545,-3763.320,-3861.413,-3673.093,-0.175,0.974,-0.150,-1.038,1.373,0.275,66.667,460.000,1.000,0.012,0.000
-3718.813,-3623.633,-4194.299,-3906.318,-3723.004,-3897.805,-4001.808,-3808.875,-0.173,0.975,-0.151,-1.068,1.312,0.336,66.667,461.000,1.000,6.217,0.000
-3849.980,-3749.451,-4339.043,-4043.349,-3854.327,-4033.428,-4144.053,-3944.599,-0.174,0.975,-0.153,-1.129,1.312,0.336,66.667,462.000,1.000,0.014,0.000
-3976.762,-3871.755,-4480.563,-4176.270,-3982.367,-4166.957,-4284.002,-4075.192,-0.175,0.974,-0.152,-1.190,1.251,0.275,66.667,463.000,1.000,8.179,0.000
-4108.068,-3998.104,-4627.201,-4313.571,-4113.644,-4302.815,-4426.015,-4209.425,-0.177,0.975,-0.154,-1.221,1.190,0.275,66.667,464.000,1.000,9.386,0.000
-4245.610,-4132.045,-4780.618,-4456.246,-4250.483,-4442.775,-4571.100,-4349.966,-0.177,0.974,-0.156,-1.312,1.160,0.122,66.667,465.000,1.000,0.012,0.000
-4380.323,-4265.638,-4931.860,-4595.727,-4386.131,-4581.221,-4714.313,-4488.758,-0.178,0.975,-0.158,-1.373,1.038,0.153,66.667,466.000,1.000,2.395,0.000
-4510.292,-4394.760,-5078.848,-4731.309,-4518.798,-4716.951,-4855.698,-4624.889,-0.176,0.974,-0.157,-1.434,0.885,0.183,66.667,467.000,1.000,0.004,0.000
-4640.096,-4521.748,-5225.679,-4867.615,-4651.370,-4853.156,-4997.728,-4761.052,-0.176,0.974,-0.160,-1.434,0.916,0.061,66.667,468.000,1.000,10.667,0.000
-4772.196,-4649.470,-5374.259,-5006.443,-4785.336,-4990.840,-5140.975,-4898.105,-0.175,0.975,-0.160,-1.678,0.916,-0.031,66.667,469.000,1.000,4.397,0.000
-4904.709,-4778.079,-5522.336,-5145.876,-4918.953,-5128.568,-5282.735,-5033.936,-0.173,0.977,-0.158,-1.892,0.671,0.000,66.667,470.000,1.000,0.007,0.000
-5031.007,-4901.717,-5663.147,-5279.254,-5045.416,-5259.734,-5415.692,-5161.944,-0.175,0.977,-0.161,-2.014,0.671,0.061,66.667,471.000,1.000,8.757,0.000
-5150.749,-5018.194,-5796.391,-5405.364,-5163.539,-5382.072,-5538.733,-5282.453,-0.175,0.979,-0.163,-2.319,0.610,-0.092,66.667,472.000,1.000,0.008,0.000
-5270.029,-5133.051,-5928.673,-5529.908,-5280.282,-5504.387,-5661.685,-5402.260,-0.174,0.982,-0.156,-2.563,0.397,0.000,66.667,473.000,1.000,2.412,0.000
-5389.994,-5249.916,-6062.647,-5655.134,-5400.222,-5635.023,-5795.813,-5524.078,-0.172,0.983,-0.153,-2.869,0.336,-0.092,66.667,474.000,1.000,0.006,0.000
-5511.921,-5370.437,-6200.230,-5783.127,-5525.201,-5774.687,-5941.959,-5650.281,-0.170,0.983,-0.149,-3.143,0.336,-0.275,66.667,475.000,1.000,10.734,0.000
-5639.425,-5497.542,-6344.737,-5917.616,-5656.897,-5920.180,-6094.827,-5785.758,-0.168,0.979,-0.150,-3.571,0.305,-0.305,66.667,476.000,1.000,6.782,0.000
-5771.293,-5630.765,-6494.899,-6057.345,-5793.073,-6066.841,-6249.560,-5928.016,-0.167,0.972,-0.153,-3.784,0.458,-0.244,66.667,477.000,1.000,0.009,0.000
-5904.543,-5765.152,-6646.175,-6197.990,-5928.096,-6207.936,-6397.784,-6068.085,-0.167,0.967,-0.154,-3.937,0.549,-0.427,66.667,478.000,1.000,1.976,0.000
-6037.675,-5896.457,-6795.272,-6336.311,-6059.584,-6341.687,-6536.777,-6202.613,-0.165,0.962,-0.155,-3.906,0.580,-0.458,66.667,479.000,1.000,3.720,0.000
-6164.308,-6018.929,-6935.954,-6465.781,-6183.459,-6467.369,-6664.983,-6327.790,-0.165,0.961,-0.155,-3.754,0.702,-0.488,66.667,480.000,1.000,6.759,0.000
-6281.010,-6131.156,-7066.088,-6585.358,-6298.012,-6583.641,-6781.816,-6441.323,-0.164,0.963,-0.152,-3.510,0.885,-0.580,66.667,481.000,1.000,0.006,0.000
-6395.625,-6241.898,-7194.135,-6704.471,-6412.161,-6699.190,-6899.514,-6553.492,-0.164,0.962,-0.151,-3.204,1.190,-0.732,66.667,482.000,1.000,8.255,0.000
-6513.822,-6356.086,-7324.570,-6826.514,-6530.839,-6821.638,-7025.657,-6672.104,-0.166,0.963,-0.150,-3.082,1.282,-0.854,66.667,483.000,1.000,3.028,0.000
-6634.741,-6473.000,-7457.153,-6949.450,-6651.667,-6948.294,-7155.022,-6795.043,-0.165,0.965,-0.151,-2.869,1.556,-0.885,66.667,484.000,1.000,0.009,0.000
-6758.042,-6593.727,-7594.601,-7075.710,-6775.061,-7076.663,-7285.413,-6921.209,-0.165,0.966,-0.152,-2.625,1.770,-1.038,66.667,485.000,1.000,4.643,0.000
-6881.855,-6714.688,-7734.349,-7204.604,-6899.310,-7204.231,-7416.768,-7048.875,-0.168,0.968,-0.148,-2.411,1.953,-1.038,66.667,486.000,1.000,4.751,0.000
-7000.564,-6828.238,-7867.865,-7329.995,-7018.132,-7326.137,-7545.551,-7172.832,-0.170,0.971,-0.148,-2.289,2.045,-1.129,66.667,487.000,1.000,2.505,0.000
-7116.113,-6939.068,-7997.696,-7454.362,-7134.919,-7446.682,-7675.024,-7295.382,-0.170,0.970,-0.149,-2.014,2.289,-1.251,66.667,488.000,1.000,8.787,0.000
-7235.836,-7056.490,-8132.648,-7583.838,-7257.400,-7572.648,-7808.306,-7422.447,-0.173,0.971,-0.149,-1.831,2.411,-1.099,66.667,489.000,1.000,3.046,0.000
-7356.633,-7174.765,-8268.327,-7712.730,-7379.910,-7697.781,-7937.721,-7548.366,-0.174,0.969,-0.151,-1.831,2.472,-1.007,66.667,490.000,1.000,0.014,0.000
-7473.448,-7286.817,-8398.021,-7834.816,-7495.509,-7816.525,-8059.823,-7666.519,-0.173,0.972,-0.149,-1.556,2.563,-1.068,66.667,491.000,1.000,5.681,0.000
-7590.466,-7398.760,-8526.878,-7955.083,-7610.116,-7936.247,-8183.665,-7783.994,-0.173,0.972,-0.149,-1.617,2.655,-0.946,66.667,492.000,1.000,11.300,0.000
-7711.891,-7517.222,-8660.885,-8078.676,-7730.089,-8063.558,-8315.619,-7907.165,-0.174,0.973,-0.153,-1.526,2.808,-0.854,66.667,493.000,1.000,3.008,0.000
-7835.107,-7638.937,-8797.185,-8202.628,-7851.765,-8194.751,-8449.057,-8030.451,-0.173,0.973,-0.154,-1.404,2.991,-0.763,66.667,494.000,1.000,0.009,0.000
-7957.735,-7759.360,-8932.294,-8324.633,-7971.471,-8324.303,-8578.118,-8150.720,-0.175,0.975,-0.154,-1.404,3.052,-0.702,66.667,495.000,1.000,1.936,0.000
-8080.130,-7878.005,-9066.638,-8446.316,-8090.274,-8450.863,-8704.071,-8270.322,-0.178,0.974,-0.154,-1.373,2.869,-0.641,66.667,496.000,1.000,3.761,0.000
-8199.740,-7992.295,-9197.653,-8565.786,-8206.534,-8572.917,-8826.605,-8387.200,-0.179,0.973,-0.155,-1.434,2.808,-0.519,66.667,497.000,1.000,14.841,0.000
-8310.007,-8095.239,-9317.876,-8676.595,-8313.238,-8684.131,-8939.486,-8494.004,-0.181,0.975,-0.153,-1.465,2.808,-0.397,66.667,498.000,1.000,0.009,0.000
-8412.711,-8188.729,-9428.803,-8781.169,-8410.832,-8784.590,-9043.245,-8591.846,-0.183,0.974,-0.158,-1.556,2.655,-0.275,66.667,499.000,1.000,0.003,0.000
-8524.365,-8291.233,-9548.349,-8896.526,-8516.734,-8892.764,-9157.945,-8700.217,-0.182,0.974,-0.157,-1.678,2.502,-0.275,66.667,500.000,1.000,2.620,0.000
-8649.308,-8409.041,-9682.813,-9027.328,-8637.743,-9017.932,-9290.986,-8827.448,-0.183,0.974,-0.156,-1.740,2.289,-0.122,66.667,501.000,1.000,2.495,0.000
-8768.056,-8522.479,-9813.126,-9153.125,-8754.231,-9140.400,-9417.988,-8950.339,-0.184,0.974,-0.154,-1.831,2.167,-0.061,66.667,502.000,1.000,2.527,0.000
-8874.079,-8625.516,-9932.469,-9264.902,-8859.003,-9251.316,-9529.864,-9058.653,-0.186,0.974,-0.155,-1.953,1.923,0.031,66.667,503.000,1.000,3.680,0.000
-8980.661,-8732.229,-10053.760,-9375.091,-8965.651,-9364.136,-9643.642,-9168.831,-0.184,0.974,-0.156,-2.228,1.709,0.061,66.667,504.000,1.000,8.872,0.000
-9089.583,-8841.398,-10177.410,-9487.091,-9074.033,-9478.934,-9760.154,-9280.609,-0.185,0.974,-0.157,-2.319,1.465,0.183,66.667,505.000,1.000,2.989,0.000
-9198.592,-8948.372,-10300.090,-9599.601,-9179.939,-9590.849,-9871.440,-9386.364,-0.185,0.975,-0.156,-2.502,1.160,0.183,66.667,506.000,1.000,0.070,0.000
-9314.559,-9061.946,-10428.780,-9718.447,-9292.072,-9707.567,-9986.757,-9497.510,-0.184,0.978,-0.155,-2.777,0.946,0.214,66.667,507.000,1.000,1.866,0.000
-9439.840,-9185.299,-10566.410,-9846.051,-9415.259,-9834.334,-10115.990,-9623.294,-0.184,0.979,-0.153,-3.052,0.702,0.183,66.667,508.000,1.000,8.769,0.000
-9567.084,-9309.847,-10705.680,-9976.489,-9542.231,-9966.661,-10253.590,-9753.701,-0.184,0.976,-0.151,-3.418,0.366,0.244,66.667,509.000,1.000,3.705,0.000
-9683.948,-9422.982,-10834.010,-10097.510,-9659.556,-10091.090,-10384.580,-9872.671,-0.180,0.970,-0.149,-3.571,0.214,0.183,66.667,510.000,1.000,14.390,0.000
-9787.288,-9521.371,-10948.270,-10204.750,-9762.253,-10198.350,-10499.700,-9977.426,-0.177,0.968,-0.147,-3.815,0.183,0.000,66.667,511.000,1.000,0.014,0.000
-9890.667,-9619.534,-11063.080,-10312.020,-9864.694,-10304.840,-10613.430,-10082.730,-0.175,0.965,-0.153,-3.815,0.092,-0.153,66.667,512.000,1.000,1.881,0.000
-10000.770,-9726.229,-11186.440,-10427.280,-9976.059,-10424.660,-10738.230,-10194.940,-0.171,0.961,-0.156,-3.632,0.153,-0.305,66.667,513.000,1.000,2.432,0.000
-10109.010,-9832.074,-11308.930,-10541.330,-10086.120,-10542.410,-10858.480,-10305.470,-0.168,0.958,-0.156,-3.296,0.122,-0.397,66.667,514.000,1.000,2.546,0.000
-10212.320,-9932.391,-11426.370,-10650.120,-10190.690,-10648.950,-10966.400,-10414.690,-0.165,0.958,-0.154,-3.021,0.214,-0.427,66.667,515.000,1.000,2.467,0.000
-10314.690,-10032.450,-11543.050,-10757.950,-10295.910,-10755.250,-11075.500,-10525.920,-0.162,0.959,-0.154,-2.716,0.397,-0.397,66.667,516.000,1.000,6.852,0.000
-10417.240,-10133.870,-11659.640,-10866.160,-10401.950,-10865.600,-11189.870,-10635.470,-0.159,0.961,-0.154,-2.380,0.641,-0.488,66.667,517.000,1.000,0.009,0.000
-10518.740,-10233.860,-11773.860,-10974.120,-10505.170,-10974.190,-11301.780,-10741.750,-0.159,0.963,-0.153,-2.136,0.977,-0.488,66.667,518.000,1.000,5.637,0.000
-10620.010,-10332.630,-11886.880,-11083.450,-10606.530,-11078.570,-11410.180,-10846.830,-0.159,0.965,-0.153,-1.892,1.190,-0.488,66.667,519.000,1.000,3.706,0.000
-10725.240,-10435.240,-12003.950,-11196.670,-10711.400,-11184.710,-11521.860,-10953.570,-0.159,0.966,-0.153,-1.648,1.526,-0.458,66.667,520.000,1.000,6.819,0.000
-10837.150,-10545.480,-12128.310,-11313.740,-10823.860,-11301.000,-11642.740,-11064.950,-0.161,0.970,-0.156,-1.526,1.923,-0.549,66.667,521.000,1.000,0.011,0.000
-10953.150,-10660.100,-12257.360,-11433.120,-10940.960,-11424.140,-11768.400,-11180.130,-0.162,0.969,-0.156,-1.282,2.197,-0.427,66.667,522.000,1.000,1.941,0.000
-11067.940,-10772.440,-12385.710,-11551.760,-11055.690,-11542.600,-11888.940,-11295.010,-0.163,0.974,-0.152,-1.099,2.625,-0.244,66.667,523.000,1.000,11.226,0.000
-11176.110,-10877.730,-12507.480,-11663.270,-11162.670,-11651.890,-12000.910,-11404.190,-0.165,0.978,-0.150,-1.068,2.899,-0.275,66.667,524.000,1.000,3.035,0.000
-11275.840,-10975.420,-12620.400,-11766.060,-11261.860,-11755.020,-12107.320,-11506.240,-0.167,0.978,-0.152,-1.099,3.143,-0.275,66.667,525.000,1.000,0.028,0.000
-11371.290,-11069.830,-12729.370,-11867.530,-11359.000,-11856.970,-12213.600,-11607.410,-0.168,0.977,-0.156,-1.129,3.357,-0.244,66.667,526.000,1.000,1.884,0.000
-11465.610,-11163.260,-12837.700,-11970.810,-11456.250,-11958.010,-12319.450,-11709.710,-0.168,0.977,-0.156,-1.160,3.479,-0.305,66.667,527.000,1.000,6.315,0.000
-11558.720,-11254.540,-12943.940,-12072.890,-11551.880,-12055.740,-12422.870,-11811.110,-0.169,0.975,-0.155,-1.190,3.540,-0.336,66.667,528.000,1.000,13.715,0.000
-11650.190,-11343.010,-13047.110,-12172.180,-11645.140,-12150.150,-12523.830,-11909.870,-0.175,0.978,-0.154,-1.282,3.540,-0.427,66.667,529.000,1.000,3.027,0.000
-11741.270,-11430.510,-13149.080,-12269.070,-11737.210,-12243.920,-12622.710,-12005.150,-0.177,0.979,-0.152,-1.434,3.418,-0.397,66.667,530.000,1.000,0.007,0.000
-11837.620,-11523.630,-13256.170,-12368.510,-11834.550,-12345.650,-12728.010,-12105.050,-0.179,0.977,-0.154,-1.495,3.326,-0.458,66.667,531.000,1.000,1.975,0.000
-11940.950,-11624.960,-13370.620,-12473.300,-11939.000,-12457.290,-12842.380,-12212.270,-0.182,0.977,-0.155,-1.648,3.265,-0.580,66.667,532.000,1.000,2.474,0.000
-12045.490,-11728.870,-13486.980,-12578.590,-12043.540,-12568.710,-12954.770,-12316.750,-0.184,0.977,-0.155,-1.801,3.021,-0.580,66.667,533.000,1.000,2.536,0.000
-12147.540,-11830.330,-13601.830,-12681.660,-12144.870,-12675.210,-13061.180,-12416.570,-0.183,0.978,-0.154,-2.014,2.777,-0.641,66.667,534.000,1.000,2.466,0.000
-12250.470,-11930.760,-13717.200,-12786.250,-12246.710,-12781.270,-13168.720,-12518.430,-0.184,0.976,-0.156,-2.258,2.350,-0.702,66.667,535.000,1.000,8.831,0.000
-12355.930,-12030.830,-13832.590,-12892.530,-12349.370,-12887.670,-13279.320,-12621.750,-0.184,0.975,-0.155,-2.289,2.045,-0.671,66.667,536.000,1.000,2.491,0.000
-12461.010,-12128.090,-13945.650,-12997.720,-12449.840,-12992.050,-13388.680,-12723.030,-0.184,0.976,-0.158,-2.502,1.709,-0.671,66.667,537.000,1.000,3.692,0.000
-12563.400,-12222.120,-14056.230,-13102.000,-12547.870,-13094.000,-13494.310,-12823.150,-0.185,0.976,-0.160,-2.838,1.282,-0.671,66.667,538.000,1.000,11.843,0.000
-12661.650,-12313.650,-14163.520,-13204.550,-12643.600,-13193.940,-13596.560,-12922.990,-0.186,0.972,-0.161,-2.991,0.854,-0.671,66.667,539.000,1.000,0.009,0.000
-12758.590,-12405.950,-14270.090,-13306.250,-12739.070,-13295.430,-13699.180,-13022.820,-0.186,0.973,-0.163,-3.143,0.488,-0.854,66.667,540.000,1.000,6.791,0.000
-12855.500,-12499.320,-14377.270,-13407.110,-12834.490,-13396.870,-13801.920,-13120.910,-0.186,0.972,-0.164,-3.418,0.031,-0.885,66.667,541.000,1.000,0.009,0.000
-12949.310,-12590.600,-14481.890,-13505.110,-12927.580,-13493.340,-13901.300,-13216.450,-0.187,0.971,-0.160,-3.387,-0.336,-0.916,66.667,542.000,1.000,0.006,0.000
-13042.240,-12682.050,-14585.560,-13602.750,-13021.100,-13589.330,-14001.750,-13314.110,-0.185,0.970,-0.157,-3.601,-0.824,-0.854,66.667,543.000,1.000,2.630,0.000
-13138.790,-12778.050,-14692.890,-13702.950,-13119.160,-13691.530,-14109.040,-13416.480,-0.185,0.969,-0.157,-3.784,-1.160,-0.916,66.667,544.000,1.000,8.708,0.000
-13236.230,-12876.290,-14802.040,-13803.880,-13218.840,-13797.550,-14217.910,-13518.370,-0.182,0.968,-0.152,-4.059,-1.495,-0.946,66.667,545.000,1.000,9.362,0.000
-13329.330,-12969.990,-14907.700,-13902.520,-13314.410,-13899.010,-14320.350,-13614.860,-0.180,0.963,-0.153,-4.089,-1.801,-1.129,66.667,546.000,1.000,0.011,0.000
-13418.790,-13058.890,-15010.180,-13998.910,-13407.060,-13994.000,-14419.890,-13708.030,-0.178,0.960,-0.152,-4.089,-2.045,-1.221,66.667,547.000,1.000,2.472,0.000
-13509.310,-13150.930,-15115.170,-14096.460,-13503.570,-14093.120,-14526.170,-13803.820,-0.176,0.959,-0.157,-4.089,-2.045,-1.221,66.667,548.000,1.000,0.009,0.000
-13604.220,-13249.490,-15225.600,-14198.420,-13606.100,-14201.970,-14639.590,-13905.810,-0.173,0.959,-0.158,-3.998,-2.167,-1.312,66.667,549.000,1.000,5.616,0.000
-13700.850,-13346.980,-15335.800,-14300.690,-13706.640,-14308.070,-14748.150,-14007.520,-0.169,0.958,-0.158,-3.784,-2.167,-1.373,66.667,550.000,1.000,6.849,0.000
-13795.290,-13438.380,-15440.560,-14397.370,-13799.100,-14404.880,-14846.430,-14101.740,-0.166,0.960,-0.156,-3.571,-2.075,-1.312,66.667,551.000,1.000,0.012,0.000
-13886.320,-13525.650,-15540.680,-14487.860,-13886.310,-14500.050,-14941.510,-14190.920,-0.164,0.958,-0.154,-3.296,-1.953,-1.190,66.667,552.000,1.000,10.716,0.000
-13973.650,-13609.730,-15637.530,-14574.160,-13970.790,-14594.740,-15035.510,-14278.930,-0.163,0.958,-0.156,-3.143,-1.648,-1.190,66.667,553.000,1.000,4.250,0.000
-14061.160,-13694.140,-15734.660,-14662.470,-14055.990,-14687.930,-15129.570,-14369.490,-0.161,0.961,-0.156,-2.777,-1.404,-1.160,66.667,554.000,1.000,0.007,0.000
-14151.960,-13782.490,-15834.370,-14756.410,-14144.880,-14783.200,-15227.670,-14463.700,-0.158,0.962,-0.155,-2.502,-1.068,-0.916,66.667,555.000,1.000,2.585,0.000
-14243.960,-13872.400,-15934.640,-14852.220,-14235.020,-14880.510,-15327.290,-14557.070,-0.158,0.963,-0.154,-2.014,-0.458,-0.763,66.667,556.000,1.000,0.008,0.000
-14334.880,-13959.780,-16034.060,-14946.700,-14323.830,-14975.600,-15423.330,-14647.470,-0.156,0.963,-0.152,-1.709,-0.061,-0.702,66.667,557.000,1.000,18.121,0.000
-14424.730,-14044.100,-16132.760,-15040.030,-14411.710,-15065.980,-15515.430,-14736.300,-0.157,0.964,-0.151,-1.526,0.305,-0.702,66.667,558.000,1.000,4.851,0.000
-14513.170,-14126.870,-16230.300,-15132.370,-14499.110,-15153.200,-15606.000,-14822.770,-0.159,0.965,-0.154,-1.312,0.732,-0.610,66.667,559.000,1.000,0.009,0.000
-14597.140,-14207.130,-16324.770,-15221.950,-14584.540,-15237.660,-15695.440,-14906.850,-0.158,0.966,-0.154,-1.190,1.190,-0.549,66.667,560.000,1.000,0.007,0.000
-14679.610,-14289.180,-16420.140,-15311.960,-14671.800,-15323.660,-15787.480,-14995.490,-0.161,0.969,-0.155,-1.068,1.587,-0.549,66.667,561.000,1.000,8.223,0.000
-14769.230,-14382.000,-16524.430,-15409.410,-14767.790,-15420.330,-15887.170,-15093.380,-0.161,0.971,-0.157,-0.854,1.984,-0.458,66.667,562.000,1.000,0.010,0.000
-14863.220,-14480.820,-16633.340,-15509.780,-14866.900,-15523.810,-15988.460,-15190.750,-0.164,0.975,-0.156,-0.885,2.350,-0.397,66.667,563.000,1.000,5.635,0.000
-14951.190,-14572.230,-16735.370,-15602.760,-14957.970,-15620.440,-16082.730,-15278.960,-0.166,0.977,-0.152,-0.946,2.716,-0.305,66.667,564.000,1.000,2.492,0.000
-15032.580,-14654.510,-16829.200,-15689.090,-15041.560,-15708.080,-16172.290,-15364.080,-0.169,0.976,-0.156,-1.007,2.777,-0.397,66.667,565.000,1.000,3.711,0.000
-15112.410,-14733.290,-16919.270,-15773.840,-15122.980,-15792.640,-16261.790,-15450.260,-0.170,0.976,-0.155,-1.068,3.052,-0.397,66.667,566.000,1.000,4.378,0.000
-15194.270,-14812.200,-17008.820,-15859.910,-15204.860,-15877.760,-16352.250,-15536.630,-0.171,0.978,-0.158,-1.129,3.235,-0.366,66.667,567.000,1.000,0.008,0.000
-15279.720,-14891.670,-17099.240,-15948.270,-15287.500,-15963.010,-16442.370,-15623.080,-0.174,0.978,-0.156,-1.221,3.326,-0.305,66.667,568.000,1.000,10.676,0.000
-15365.080,-14968.660,-17187.960,-16034.360,-15367.570,-16045.310,-16528.460,-15705.330,-0.175,0.980,-0.158,-1.404,3.326,-0.427,66.667,569.000,1.000,3.050,0.000
-15447.920,-15043.620,-17275.320,-16116.920,-15445.430,-16127.810,-16611.740,-15783.470,-0.176,0.981,-0.156,-1.526,3.296,-0.458,66.667,570.000,1.000,0.009,0.000
-15528.790,-15119.040,-17363.720,-16199.160,-15523.890,-16212.920,-16696.160,-15862.380,-0.177,0.980,-0.158,-1.648,3.357,-0.366,66.667,571.000,1.000,1.916,0.000
-15610.280,-15197.580,-17455.290,-16284.010,-15605.070,-16298.760,-16784.580,-15945.170,-0.180,0.978,-0.156,-1.984,3.418,-0.488,66.667,572.000,1.000,8.729,0.000
-15697.170,-15281.740,-17553.030,-16374.140,-15691.480,-16387.010,-16878.070,-16034.150,-0.180,0.977,-0.155,-2.167,3.326,-0.458,66.667,573.000,1.000,4.387,0.000
-15787.000,-15367.110,-17653.170,-16465.600,-15779.070,-16476.260,-16970.490,-16123.630,-0.183,0.976,-0.158,-2.319,3.052,-0.458,66.667,574.000,1.000,0.009,0.000
-15875.080,-15450.960,-17751.450,-16555.020,-15864.300,-16564.910,-17059.630,-16208.910,-0.187,0.975,-0.157,-2.411,2.930,-0.305,66.667,575.000,1.000,8.134,0.000
-15963.490,-15536.330,-17850.140,-16645.900,-15950.680,-16655.710,-17151.790,-16296.250,-0.187,0.973,-0.154,-2.594,2.716,-0.305,66.667,576.000,1.000,3.060,0.000
-16050.690,-15619.750,-17946.590,-16735.150,-16035.590,-16744.170,-17243.320,-16383.160,-0.186,0.972,-0.160,-2.716,2.502,-0.336,66.667,577.000,1.000,0.008,0.000
-16128.290,-15693.520,-18032.710,-16814.610,-16111.570,-16822.380,-17325.780,-16460.880,-0.185,0.972,-0.160,-2.747,2.258,-0.275,66.667,578.000,1.000,1.904,0.000
-16198.000,-15762.100,-18111.860,-16888.550,-16183.610,-16896.090,-17405.270,-16536.750,-0.187,0.969,-0.161,-2.899,2.045,-0.183,66.667,579.000,1.000,16.942,0.000
-16272.110,-15837.900,-18196.820,-16968.660,-16263.360,-16977.060,-17491.420,-16620.700,-0.185,0.966,-0.157,-2.960,1.801,0.031,66.667,580.000,1.000,0.022,0.000
-16353.500,-15921.670,-18290.160,-17057.310,-16350.760,-17065.980,-17583.300,-16709.120,-0.185,0.965,-0.157,-2.930,1.617,0.031,66.667,581.000,1.000,1.762,0.000
-16433.800,-16003.760,-18382.840,-17145.960,-16435.740,-17153.590,-17673.140,-16794.420,-0.186,0.966,-0.160,-2.899,1.221,0.000,66.667,582.000,1.000,2.530,0.000
-16508.700,-16079.460,-18469.610,-17227.920,-16513.370,-17234.850,-17756.620,-16874.330,-0.185,0.966,-0.159,-2.869,0.885,0.092,66.667,583.000,1.000,2.567,0.000
-16583.610,-16154.270,-18555.610,-17307.730,-16589.540,-17316.580,-17839.040,-16952.710,-0.184,0.963,-0.160,-2.899,0.488,0.122,66.667,584.000,1.000,11.737,0.000
-16663.160,-16232.540,-18645.100,-17390.620,-16668.540,-17401.850,-17924.400,-17034.150,-0.183,0.965,-0.155,-2.960,0.305,0.122,66.667,585.000,1.000,0.011,0.000
-16742.510,-16309.300,-18732.760,-17472.150,-16745.190,-17483.380,-18007.590,-17116.040,-0.181,0.966,-0.155,-2.838,0.092,0.214,66.667,586.000,1.000,1.903,0.000
-16815.890,-16380.180,-18813.320,-17547.180,-16815.730,-17558.670,-18085.370,-17193.370,-0.182,0.967,-0.155,-2.869,-0.153,0.061,66.667,587.000,1.000,2.466,0.000
-16887.710,-16450.070,-18891.270,-17620.020,-16885.010,-17633.790,-18162.540,-17267.930,-0.180,0.968,-0.155,-2.808,-0.458,0.000,66.667,588.000,1.000,3.826,0.000
-16968.000,-16527.260,-18976.230,-17700.090,-16960.870,-17715.200,-18246.680,-17346.060,-0.177,0.965,-0.157,-2.716,-0.610,-0.092,66.667,589.000,1.000,13.130,0.000
-17054.750,-16609.280,-19067.920,-17785.760,-17041.920,-17800.170,-18336.680,-17427.840,-0.175,0.965,-0.159,-2.686,-0.793,-0.092,66.667,590.000,1.000,0.026,0.000
-17135.370,-16686.790,-19156.540,-17866.020,-17119.450,-17880.600,-18422.460,-17505.190,-0.172,0.965,-0.161,-2.716,-1.007,-0.153,66.667,591.000,1.000,1.805,0.000
-17209.830,-16762.370,-19242.820,-17942.920,-17195.430,-17960.660,-18504.640,-17580.230,-0.167,0.960,-0.160,-2.777,-1.007,-0.214,66.667,592.000,1.000,2.465,0.000
-17287.500,-16843.260,-19334.640,-18026.930,-17277.640,-18048.900,-18591.650,-17663.440,-0.164,0.958,-0.161,-2.441,-0.885,-0.244,66.667,593.000,1.000,2.529,0.000
-17368.730,-16924.860,-19428.870,-18116.050,-17362.300,-18138.640,-18679.590,-17750.930,-0.162,0.961,-0.163,-2.350,-0.763,-0.275,66.667,594.000,1.000,7.459,0.000
-17447.910,-16999.170,-19516.700,-18200.500,-17441.060,-18219.060,-18760.540,-17831.530,-0.165,0.966,-0.162,-2.167,-0.549,-0.275,66.667,595.000,1.000,2.603,0.000
-17523.960,-17066.840,-19597.090,-18278.450,-17514.150,-18292.430,-18836.630,-17905.130,-0.165,0.969,-0.157,-2.106,-0.366,-0.275,66.667,596.000,1.000,2.454,0.000
-17597.860,-17131.300,-19673.490,-18354.060,-17584.480,-18364.220,-18912.450,-17977.140,-0.165,0.969,-0.155,-2.136,-0.305,-0.244,66.667,597.000,1.000,3.757,0.000
-17669.670,-17194.650,-19748.780,-18428.910,-17652.860,-18433.880,-18988.130,-18049.470,-0.166,0.966,-0.158,-2.167,-0.122,-0.244,66.667,598.000,1.000,26.916,0.000
-17743.750,-17263.270,-19829.150,-18505.260,-17725.420,-18506.120,-19066.610,-18125.390,-0.167,0.966,-0.158,-2.197,0.031,-0.305,66.667,599.000,1.000,0.036,0.000
-17824.970,-17341.990,-19919.200,-18586.700,-17807.600,-18588.510,-19151.620,-18207.110,-0.170,0.967,-0.159,-2.106,0.153,-0.214,66.667,600.000,1.000,1.924,0.000
-17907.770,-17422.460,-20011.250,-18668.700,-17890.400,-18673.620,-19235.400,-18286.830,-0.173,0.973,-0.157,-2.136,0.244,-0.244,66.667,601.000,1.000,2.320,0.000
-17983.420,-17494.140,-20094.800,-18743.880,-17962.940,-18748.980,-19310.180,-18358.530,-0.177,0.979,-0.156,-2.136,0.336,-0.458,66.667,602.000,1.000,5.010,0.000
-18055.030,-17561.190,-20173.450,-18816.990,-18030.610,-18818.730,-19382.560,-18428.420,-0.179,0.984,-0.155,-2.228,0.275,-0.610,66.667,603.000,1.000,2.510,0.000
-18124.910,-17627.520,-20251.000,-18890.690,-18098.250,-18888.400,-19455.990,-18498.290,-0.179,0.985,-0.154,-2.441,0.275,-0.732,66.667,604.000,1.000,2.436,0.000
-18188.590,-17689.960,-20323.680,-18958.920,-18162.300,-18955.990,-19526.780,-18564.250,-0.176,0.985,-0.154,-2.716,0.275,-0.854,66.667,605.000,1.000,2.567,0.000
-18252.900,-17755.300,-20397.360,-19027.040,-18228.520,-19028.390,-19599.160,-18632.480,-0.172,0.983,-0.155,-2.716,0.336,-0.885,66.667,606.000,1.000,2.463,0.000
-18324.180,-17827.360,-20476.990,-19101.280,-18301.490,-19107.880,-19676.020,-18707.780,-0.171,0.981,-0.155,-2.869,0.488,-0.916,66.667,607.000,1.000,2.535,0.000
-18395.230,-17897.280,-20555.360,-19174.770,-18373.450,-19184.350,-19751.840,-18781.650,-0.169,0.980,-0.154,-2.930,0.732,-0.824,66.667,608.000,1.000,2.466,0.000
-18460.910,-17960.550,-20628.020,-19242.370,-18439.040,-19253.720,-19822.850,-18848.170,-0.169,0.976,-0.150,-3.082,0.885,-0.793,66.667,609.000,1.000,2.443,0.000
-18526.110,-18022.860,-20700.070,-19309.800,-18503.290,-19321.320,-19893.700,-18915.750,-0.169,0.971,-0.151,-3.296,1.099,-0.732,66.667,610.000,1.000,8.126,0.000
-18595.850,-18089.980,-20776.510,-19381.330,-18571.870,-19391.850,-19969.580,-18989.560,-0.171,0.969,-0.151,-3.326,1.312,-0.793,66.667,611.000,1.000,0.006,0.000
-18666.070,-18158.060,-20853.280,-19451.100,-18640.690,-19461.720,-20044.790,-19060.890,-0.173,0.968,-0.149,-3.174,1.495,-0.824,66.667,612.000,1.000,1.899,0.000
-18735.270,-18225.770,-20929.430,-19519.850,-18708.700,-19530.040,-20116.810,-19128.490,-0.175,0.964,-0.149,-3.021,1.587,-1.007,66.667,613.000,1.000,3.160,0.000
-18809.020,-18300.460,-21012.180,-19596.390,-18783.750,-19607.140,-20195.790,-19202.690,-0.176,0.963,-0.150,-2.808,1.801,-1.129,66.667,614.000,1.000,0.006,0.000
-18882.550,-18376.940,-21096.380,-19675.360,-18861.370,-19690.900,-20279.430,-19279.670,-0.177,0.964,-0.149,-2.777,1.984,-1.312,66.667,615.000,1.000,10.599,0.000
-18946.310,-18442.510,-21170.320,-19745.170,-18929.430,-19765.070,-20352.880,-19348.250,-0.174,0.966,-0.150,-2.686,1.953,-1.434,66.667,616.000,1.000,20.651,0.000
-19004.150,-18500.150,-21237.720,-19809.340,-18990.700,-19829.420,-20417.720,-19411.920,-0.174,0.969,-0.149,-2.502,2.106,-1.526,66.667,617.000,1.000,0.016,0.000
-19065.740,-18560.010,-21308.300,-19876.810,-19054.470,-19895.710,-20486.050,-19478.620,-0.172,0.970,-0.151,-2.472,2.258,-1.709,66.667,618.000,1.000,0.003,0.000
-19131.840,-18622.130,-21381.930,-19947.170,-19120.180,-19963.490,-20557.650,-19547.520,-0.172,0.970,-0.152,-2.411,2.319,-1.709,66.667,619.000,1.000,0.003,0.000
-19196.410,-18680.180,-21452.750,-20014.790,-19181.800,-20025.370,-20624.340,-19612.470,-0.174,0.974,-0.155,-2.411,2.472,-1.709,66.667,620.000,1.000,1.839,0.000
-19256.660,-18733.150,-21518.890,-20077.970,-19238.390,-20082.330,-20684.790,-19672.340,-0.174,0.971,-0.155,-2.289,2.472,-1.709,66.667,621.000,1.000,3.651,0.000
-19319.000,-18788.830,-21586.630,-20142.640,-19296.920,-20142.700,-20745.600,-19733.210,-0.176,0.973,-0.155,-2.167,2.563,-1.709,66.667,622.000,1.000,0.005,0.000
-19389.100,-18853.080,-21661.690,-20213.030,-19363.060,-20211.570,-20812.650,-19799.370,-0.177,0.972,-0.156,-2.136,2.563,-1.648,66.667,623.000,1.000,0.004,0.000
-19458.230,-18917.860,-21736.320,-20281.830,-19429.370,-20280.980,-20881.400,-19865.800,-0.177,0.973,-0.153,-2.197,2.594,-1.648,66.667,624.000,1.000,2.586,0.000
-19517.610,-18975.180,-21802.200,-20343.490,-19487.720,-20341.910,-20944.720,-19927.380,-0.178,0.972,-0.154,-2.228,2.594,-1.587,66.667,625.000,1.000,3.775,0.000
-19574.520,-19032.620,-21867.130,-20405.040,-19545.380,-20401.400,-21007.770,-19989.160,-0.179,0.971,-0.156,-2.319,2.625,-1.495,66.667,626.000,1.000,11.261,0.000
-19636.940,-19097.730,-21939.200,-20471.880,-19610.410,-20469.980,-21077.840,-20055.470,-0.178,0.969,-0.156,-2.289,2.411,-1.434,66.667,627.000,1.000,3.052,0.000
-19700.540,-19164.990,-22012.880,-20539.470,-19677.660,-20544.760,-21150.430,-20122.380,-0.179,0.967,-0.155,-2.258,2.319,-1.404,66.667,628.000,1.000,0.009,0.000
-19760.840,-19228.060,-22082.290,-20604.110,-19740.580,-20616.220,-21218.310,-20186.430,-0.181,0.966,-0.155,-2.289,2.380,-1.251,66.667,629.000,1.000,1.854,0.000
-19821.460,-19289.630,-22150.640,-20668.360,-19801.280,-20683.060,-21283.180,-20248.120,-0.183,0.965,-0.159,-2.319,2.289,-1.160,66.667,630.000,1.000,14.385,0.000
-19884.730,-19351.790,-22219.980,-20732.900,-19861.640,-20747.210,-21347.390,-20306.890,-0.184,0.966,-0.159,-2.197,2.258,-1.007,66.667,631.000,1.000,0.015,0.000
-19947.470,-19410.890,-22287.050,-20795.290,-19920.200,-20807.890,-21410.900,-20363.880,-0.185,0.965,-0.158,-2.197,2.075,-0.854,66.667,632.000,1.000,2.538,0.000
-20008.710,-19467.600,-22351.860,-20856.330,-19979.180,-20868.630,-21477.010,-20423.420,-0.186,0.963,-0.155,-2.197,1.770,-0.641,66.667,633.000,1.000,0.012,0.000
-20070.500,-19526.210,-22417.740,-20918.230,-20040.530,-20931.810,-21544.670,-20486.600,-0.184,0.963,-0.160,-2.197,1.617,-0.427,66.667,634.000,1.000,8.148,0.000
-20135.340,-19589.900,-22488.590,-20984.170,-20105.890,-20998.670,-21614.020,-20555.900,-0.183,0.966,-0.156,-2.380,1.404,-0.183,66.667,635.000,1.000,9.323,0.000
-20202.400,-19658.520,-22564.490,-21054.880,-20175.770,-21070.390,-21689.380,-20631.320,-0.181,0.968,-0.157,-2.502,1.221,0.031,66.667,636.000,1.000,0.012,0.000
-20265.710,-19726.250,-22638.750,-21124.150,-20244.230,-21141.290,-21766.030,-20703.210,-0.179,0.966,-0.154,-2.686,1.129,0.183,66.667,637.000,1.000,2.409,0.000
-20323.340,-19789.380,-22708.110,-21188.360,-20307.690,-21207.760,-21837.250,-20767.100,-0.177,0.966,-0.154,-2.808,1.129,0.488,66.667,638.000,1.000,0.009,0.000
-20380.130,-19850.170,-22775.820,-21250.700,-20369.300,-21273.610,-21905.540,-20829.010,-0.177,0.965,-0.154,-2.899,1.129,0.641,66.667,639.000,1.000,14.458,0.000
-20437.650,-19908.180,-22841.530,-21310.890,-20428.080,-21337.400,-21970.290,-20888.980,-0.177,0.965,-0.158,-2.869,1.190,0.732,66.667,640.000,1.000,3.621,0.000
-20490.590,-19956.900,-22899.360,-21363.350,-20477.480,-21390.790,-22023.170,-20939.400,-0.176,0.965,-0.153,-2.777,1.099,0.763,66.667,641.000,1.000,0.005,0.000
-20540.920,-19998.540,-22952.360,-21411.760,-20520.900,-21436.330,-22067.600,-20984.170,-0.175,0.967,-0.154,-2.716,1.160,0.671,66.667,642.000,1.000,0.003,0.000
-20599.410,-20045.610,-23012.460,-21468.130,-20571.110,-21486.850,-22119.280,-21036.950,-0.173,0.969,-0.156,-2.502,1.129,0.580,66.667,643.000,1.000,5.156,0.000
-20665.050,-20100.200,-23079.970,-21532.210,-20629.690,-21544.240,-22181.550,-21097.280,-0.175,0.971,-0.154,-2.502,1.129,0.519,66.667,644.000,1.000,4.970,0.000
-20727.730,-20154.960,-23146.550,-21595.730,-20689.240,-21602.060,-22246.290,-21156.950,-0.174,0.971,-0.150,-2.472,1.190,0.366,66.667,645.000,1.000,2.493,0.000
-20787.700,-20211.110,-23213.080,-21660.330,-20750.650,-21663.320,-22313.700,-21218.120,-0.175,0.974,-0.156,-2.472,1.221,0.397,66.667,646.000,1.000,2.518,0.000
-20848.070,-20270.860,-23281.730,-21727.380,-20814.760,-21730.170,-22383.120,-21282.460,-0.175,0.974,-0.158,-2.563,1.343,0.275,66.667,647.000,1.000,2.502,0.000
-20900.160,-20323.870,-23343.090,-21785.530,-20870.490,-21789.590,-22441.900,-21340.730,-0.175,0.976,-0.156,-2.655,1.343,0.183,66.667,648.000,1.000,2.435,0.000
-20942.180,-20368.290,-23395.470,-21832.420,-20916.000,-21837.870,-22489.960,-21389.820,-0.175,0.975,-0.155,-2.655,1.465,-0.092,66.667,649.000,1.000,6.313,0.000
-20989.350,-20418.820,-23453.050,-21883.500,-20966.950,-21891.480,-22544.430,-21442.190,-0.175,0.975,-0.156,-2.655,1.465,-0.153,66.667,650.000,1.000,9.329,0.000
-21048.270,-20480.090,-23520.720,-21945.620,-21029.510,-21956.970,-22610.940,-21505.240,-0.175,0.976,-0.159,-2.655,1.434,-0.244,66.667,651.000,1.000,0.015,0.000
-21110.740,-20543.040,-23589.710,-22009.800,-21093.810,-22023.640,-22679.410,-21570.090,-0.175,0.978,-0.155,-2.747,1.434,-0.336,66.667,652.000,1.000,1.943,0.000
-21168.510,-20599.350,-23652.070,-22067.850,-21149.960,-22081.270,-22739.840,-21625.920,-0.172,0.981,-0.157,-2.777,1.526,-0.397,66.667,653.000,1.000,3.689,0.000
-21221.110,-20649.460,-23708.220,-22121.340,-21198.790,-22131.740,-22793.420,-21675.320,-0.170,0.976,-0.158,-3.021,1.587,-0.427,66.667,654.000,1.000,3.765,0.000
-21271.250,-20697.820,-23761.830,-22172.660,-21245.700,-22181.610,-22846.330,-21724.230,-0.171,0.971,-0.159,-3.021,1.709,-0.610,66.667,655.000,1.000,9.354,0.000
-21321.430,-20747.120,-23816.700,-22224.090,-21294.500,-22232.900,-22901.140,-21774.770,-0.173,0.971,-0.159,-2.991,1.831,-0.732,66.667,656.000,1.000,0.014,0.000
-21374.410,-20800.310,-23877.570,-22281.020,-21348.600,-22287.490,-22957.880,-21829.400,-0.171,0.971,-0.158,-2.991,1.923,-0.702,66.667,657.000,1.000,1.843,0.000
-21428.070,-20856.560,-23942.870,-22341.700,-21406.410,-22344.870,-23015.260,-21886.920,-0.172,0.971,-0.155,-3.052,2.045,-0.458,66.667,658.000,1.000,8.798,0.000
-21478.660,-20912.060,-24006.450,-22399.760,-21464.070,-22401.770,-23073.920,-21944.660,-0.172,0.972,-0.155,-2.960,2.075,-0.458,66.667,659.000,1.000,3.035,0.000
-21525.810,-20965.180,-24065.310,-22452.450,-21519.400,-22457.530,-23131.880,-22000.300,-0.172,0.973,-0.156,-3.021,2.136,-0.427,66.667,660.000,1.000,0.008,0.000
-21569.750,-21013.750,-24118.480,-22499.660,-21569.240,-22509.320,-23183.750,-22051.530,-0.173,0.969,-0.156,-3.143,2.167,-0.305,66.667,661.000,1.000,1.918,0.000
-21614.060,-21057.810,-24168.260,-22545.170,-21614.260,-22556.390,-23231.310,-22098.800,-0.173,0.968,-0.159,-3.143,2.136,-0.244,66.667,662.000,1.000,8.784,0.000
-21666.600,-21105.010,-24222.300,-22596.340,-21663.010,-22608.840,-23285.210,-22148.200,-0.177,0.965,-0.157,-3.113,2.197,-0.183,66.667,663.000,1.000,3.726,0.000
-21725.650,-21156.140,-24281.150,-22652.800,-21717.300,-22669.770,-23348.310,-22203.270,-0.174,0.964,-0.153,-3.021,2.136,-0.183,66.667,664.000,1.000,6.175,0.000
-21782.680,-21203.720,-24338.130,-22708.480,-21769.420,-22727.370,-23409.350,-22257.740,-0.177,0.964,-0.154,-2.899,2.106,-0.153,66.667,665.000,1.000,8.144,0.000
-21838.230,-21249.330,-24394.590,-22764.240,-21818.990,-22778.160,-23463.320,-22309.130,-0.180,0.964,-0.155,-2.716,2.136,-0.244,66.667,666.000,1.000,0.007,0.000
-21892.480,-21295.700,-24452.000,-22819.680,-21868.900,-22828.410,-23516.740,-22359.110,-0.182,0.964,-0.154,-2.594,2.075,-0.305,66.667,667.000,1.000,1.886,0.000
-21942.460,-21341.310,-24507.840,-22871.340,-21918.290,-22879.730,-23572.530,-22407.360,-0.183,0.965,-0.153,-2.441,1.862,-0.397,66.667,668.000,1.000,2.452,0.000
-21993.290,-21390.160,-24566.080,-22923.780,-21970.130,-22932.500,-23628.950,-22457.950,-0.183,0.967,-0.153,-2.472,1.770,-0.580,66.667,669.000,1.000,13.164,0.000
-22046.860,-21441.900,-24627.050,-22978.810,-22023.950,-22985.850,-23683.350,-22511.390,-0.182,0.966,-0.156,-2.258,1.648,-0.671,66.667,670.000,1.000,0.015,0.000
-22098.310,-21491.260,-24684.970,-23030.780,-22074.920,-23038.670,-23735.150,-22562.580,-0.181,0.969,-0.155,-2.167,1.434,-0.793,66.667,671.000,1.000,2.480,0.000
-22146.210,-21537.930,-24738.090,-23077.700,-22121.930,-23089.700,-23783.960,-22609.400,-0.178,0.971,-0.161,-2.106,1.373,-0.946,66.667,672.000,1.000,0.009,0.000
-22191.370,-21582.550,-24787.390,-23121.990,-22165.630,-23135.460,-23828.390,-22653.460,-0.177,0.969,-0.154,-1.862,1.221,-1.068,66.667,673.000,1.000,1.870,0.000
-22236.610,-21626.640,-24836.540,-23167.770,-22209.290,-23179.530,-23872.210,-22698.060,-0.177,0.970,-0.157,-1.740,1.282,-1.068,66.667,674.000,1.000,8.795,0.000
-22283.450,-21672.370,-24888.240,-23216.330,-22255.550,-23228.000,-23920.160,-22744.080,-0.176,0.969,-0.159,-1.740,1.251,-1.068,66.667,675.000,1.000,2.489,0.000
-22330.060,-21720.040,-24941.480,-23266.110,-22303.640,-23280.130,-23972.540,-22791.710,-0.174,0.971,-0.157,-1.648,1.312,-1.099,66.667,676.000,1.000,3.764,0.000
-22375.120,-21768.610,-24994.810,-23316.000,-22352.280,-23332.700,-24026.280,-22841.690,-0.174,0.971,-0.158,-1.617,1.373,-1.129,66.667,677.000,1.000,9.364,0.000
-22416.770,-21814.840,-25045.010,-23362.470,-22398.210,-23382.130,-24075.510,-22889.820,-0.172,0.971,-0.159,-1.556,1.404,-1.282,66.667,678.000,1.000,0.012,0.000
-22457.240,-21858.810,-25092.500,-23405.860,-22441.400,-23428.520,-24119.770,-22933.870,-0.172,0.973,-0.161,-1.526,1.404,-1.251,66.667,679.000,1.000,1.847,0.000
-22503.320,-21906.210,-25144.140,-23453.180,-22488.130,-23477.960,-24168.100,-22980.870,-0.173,0.974,-0.158,-1.678,1.495,-1.129,66.667,680.000,1.000,6.244,0.000
-22554.070,-21956.260,-25200.120,-23504.320,-22538.100,-23530.000,-24221.890,-23031.980,-0.171,0.974,-0.156,-1.740,1.495,-1.160,66.667,681.000,1.000,9.387,0.000
-22602.470,-22002.460,-25253.800,-23552.930,-22584.260,-23576.310,-24271.580,-23079.580,-0.170,0.974,-0.156,-1.770,1.526,-1.099,66.667,682.000,1.000,0.018,0.000
-22647.040,-22045.070,-25303.750,-23598.510,-22626.160,-23616.620,-24315.340,-23122.820,-0.168,0.974,-0.157,-1.892,1.709,-0.977,66.667,683.000,1.000,1.794,0.000
-22690.750,-22089.330,-25353.150,-23644.760,-22669.160,-23660.300,-24360.040,-23166.330,-0.172,0.976,-0.154,-2.014,1.770,-0.946,66.667,684.000,1.000,3.786,0.000
-22734.930,-22136.830,-25403.940,-23692.870,-22716.150,-23711.920,-24410.060,-23211.810,-0.172,0.974,-0.156,-2.075,1.892,-0.946,66.667,685.000,1.000,6.905,0.000
-22779.040,-22184.260,-25455.530,-23741.310,-22765.690,-23766.650,-24464.590,-23259.000,-0.171,0.974,-0.158,-2.289,1.923,-0.824,66.667,686.000,1.000,0.008,0.000
-22823.660,-22230.320,-25507.610,-23789.960,-22815.800,-23820.090,-24520.690,-23308.700,-0.172,0.972,-0.161,-2.350,2.106,-0.824,66.667,687.000,1.000,8.065,0.000
-22869.040,-22275.370,-25560.110,-23839.170,-22865.090,-23870.930,-24574.450,-23360.870,-0.172,0.972,-0.154,-2.319,2.289,-0.732,66.667,688.000,1.000,3.130,0.000
-22914.370,-22318.160,-25612.050,-23887.830,-22912.460,-23918.730,-24624.080,-23412.010,-0.173,0.973,-0.153,-2.502,2.472,-0.793,66.667,689.000,1.000,0.010,0.000
-22959.820,-22358.680,-25662.910,-23935.400,-22958.100,-23964.390,-24672.380,-23458.670,-0.172,0.973,-0.150,-2.594,2.655,-0.824,66.667,690.000,1.000,11.922,0.000
-23005.490,-22397.400,-25712.310,-23982.020,-23001.840,-24008.670,-24721.250,-23502.870,-0.170,0.972,-0.155,-2.716,2.777,-0.885,66.667,691.000,1.000,3.049,0.000
-23047.610,-22431.690,-25756.740,-24023.570,-23040.340,-24048.560,-24766.680,-23544.650,-0.173,0.972,-0.152,-2.808,2.899,-0.854,66.667,692.000,1.000,0.008,0.000
-23083.630,-22460.440,-25794.210,-24057.470,-23071.870,-24082.430,-24805.670,-23579.770,-0.175,0.968,-0.152,-2.808,2.991,-0.793,66.667,693.000,1.000,1.913,0.000
-23118.170,-22488.790,-25829.970,-24091.170,-23101.310,-24114.770,-24841.810,-23611.950,-0.175,0.966,-0.153,-2.686,3.143,-0.732,66.667,694.000,1.000,2.443,0.000
-23156.090,-22521.640,-25869.730,-24131.780,-23134.380,-24149.510,-24878.860,-23648.280,-0.176,0.966,-0.155,-2.563,3.265,-0.702,66.667,695.000,1.000,6.312,0.000
-23198.090,-22560.480,-25914.800,-24177.740,-23173.700,-24189.600,-24920.050,-23690.070,-0.178,0.966,-0.156,-2.502,3.204,-0.763,66.667,696.000,1.000,3.694,0.000
-23240.750,-22602.630,-25961.820,-24223.300,-23216.260,-24233.650,-24964.070,-23734.290,-0.178,0.968,-0.154,-2.289,3.265,-0.793,66.667,697.000,1.000,6.874,0.000
-23283.600,-22646.380,-26009.800,-24268.210,-23259.910,-24278.760,-25008.720,-23779.560,-0.180,0.967,-0.152,-2.258,3.265,-0.793,66.667,698.000,1.000,0.010,0.000
-23328.210,-22692.050,-26059.690,-24313.580,-23304.870,-24324.740,-25054.560,-23824.080,-0.182,0.967,-0.153,-2.197,3.235,-0.793,66.667,699.000,1.000,8.153,0.000
-23370.600,-22735.880,-26107.660,-24355.500,-23347.590,-24369.220,-25098.490,-23863.810,-0.183,0.966,-0.154,-2.075,3.021,-0.885,66.667,700.000,1.000,2.531,0.000
-23408.520,-22775.600,-26151.500,-24393.760,-23387.200,-24410.970,-25139.710,-23901.340,-0.181,0.969,-0.153,-1.923,3.052,-0.854,66.667,701.000,1.000,4.243,0.000
-23447.530,-22815.620,-26196.060,-24434.570,-23429.120,-24453.560,-25183.830,-23944.490,-0.181,0.969,-0.150,-1.892,2.930,-0.885,66.667,702.000,1.000,0.008,0.000
-23489.260,-22856.330,-26242.580,-24478.380,-23473.030,-24496.460,-25230.490,-23990.410,-0.183,0.969,-0.150,-1.831,2.747,-0.732,66.667,703.000,1.000,1.970,0.000
-23527.720,-22892.590,-26285.310,-24518.090,-23511.490,-24534.500,-25271.900,-24029.430,-0.182,0.968,-0.154,-1.678,2.625,-0.763,66.667,704.000,1.000,13.826,0.000
-23562.940,-22926.540,-26324.690,-24553.720,-23545.360,-24569.610,-25308.950,-24064.810,-0.183,0.969,-0.153,-1.831,2.533,-0.671,66.667,705.000,1.000,2.364,0.000
-23597.080,-22962.320,-26363.670,-24588.620,-23579.270,-24605.710,-25346.400,-24101.360,-0.183,0.968,-0.154,-1.770,2.380,-0.732,66.667,706.000,1.000,3.157,0.000
-23631.340,-23002.380,-26404.250,-24624.810,-23615.990,-24646.020,-25387.480,-24138.530,-0.181,0.970,-0.153,-1.648,2.197,-0.702,66.667,707.000,1.000,0.012,0.000
-23669.060,-23048.530,-26449.710,-24665.560,-23658.330,-24693.270,-25434.340,-24179.170,-0.183,0.971,-0.154,-1.770,2.106,-0.671,66.667,708.000,1.000,1.869,0.000
-23708.380,-23094.500,-26496.970,-24708.840,-23702.120,-24740.500,-25480.400,-24222.090,-0.182,0.971,-0.156,-1.923,1.923,-0.641,66.667,709.000,1.000,16.360,0.000
-23744.600,-23132.160,-26540.070,-24750.080,-23740.570,-24778.540,-25518.030,-24262.230,-0.183,0.974,-0.155,-1.984,1.740,-0.610,66.667,710.000,1.000,2.979,0.000
-23779.000,-23162.120,-26579.250,-24789.130,-23774.470,-24809.570,-25548.600,-24298.060,-0.181,0.978,-0.156,-2.075,1.556,-0.610,66.667,711.000,1.000,0.009,0.000
-23817.010,-23191.550,-26619.950,-24830.130,-23810.280,-24843.620,-25581.280,-24334.180,-0.181,0.978,-0.156,-2.228,1.648,-0.610,66.667,712.000,1.000,1.876,0.000
-23857.280,-23223.170,-26662.670,-24872.650,-23849.050,-24884.300,-25622.390,-24373.370,-0.179,0.975,-0.151,-2.533,1.556,-0.702,66.667,713.000,1.000,7.493,0.000
-23891.600,-23251.220,-26700.530,-24908.440,-23883.080,-24923.160,-25663.840,-24408.200,-0.178,0.975,-0.153,-2.747,1.526,-0.763,66.667,714.000,1.000,2.481,0.000
-23923.790,-23278.600,-26736.410,-24940.780,-23914.380,-24959.600,-25703.540,-24439.620,-0.174,0.974,-0.155,-2.899,1.587,-0.793,66.667,715.000,1.000,5.081,0.000
-23964.860,-23316.310,-26780.650,-24981.970,-23954.390,-25004.020,-25752.450,-24479.520,-0.173,0.971,-0.152,-3.021,1.648,-0.793,66.667,716.000,1.000,2.456,0.000
-24010.310,-23360.340,-26829.110,-25028.050,-23999.660,-25052.070,-25805.440,-24526.060,-0.173,0.969,-0.153,-2.991,1.648,-0.580,66.667,717.000,1.000,6.265,0.000
-24048.770,-23398.220,-26870.410,-25067.510,-24038.140,-25091.830,-25848.490,-24568.130,-0.170,0.969,-0.154,-2.991,1.770,-0.549,66.667,718.000,1.000,2.477,0.000
-24080.600,-23430.460,-26905.160,-25101.820,-24070.380,-25126.470,-25883.010,-24604.170,-0.169,0.968,-0.153,-2.899,1.953,-0.488,66.667,719.000,1.000,2.535,0.000
-24113.460,-23465.600,-26941.640,-25138.160,-24104.780,-25164.700,-25918.690,-24640.520,-0.169,0.967,-0.152,-2.747,2.167,-0.458,66.667,720.000,1.000,2.429,0.000
-24146.770,-23501.500,-26979.400,-25174.380,-24140.010,-25202.410,-25955.690,-24677.600,-0.168,0.965,-0.155,-2.777,2.472,-0.458,66.667,721.000,1.000,4.367,0.000
-24176.920,-23532.230,-27013.780,-25206.130,-24170.950,-25233.460,-25989.180,-24710.880,-0.168,0.963,-0.153,-2.594,2.625,-0.366,66.667,722.000,1.000,0.007,0.000
-24207.170,-23560.200,-27046.960,-25236.210,-24199.770,-25261.450,-26019.500,-24740.050,-0.169,0.963,-0.150,-2.380,2.747,-0.427,66.667,723.000,1.000,14.456,0.000
-24235.540,-23584.180,-27076.960,-25263.150,-24224.470,-25285.200,-26044.320,-24763.740,-0.172,0.964,-0.150,-2.167,2.960,-0.397,66.667,724.000,1.000,3.692,0.000
-24259.040,-23602.990,-27100.600,-25284.150,-24242.260,-25302.540,-26062.320,-24781.980,-0.176,0.964,-0.153,-2.045,3.143,-0.397,66.667,725.000,1.000,0.010,0.000
-24285.310,-23626.560,-27127.060,-25307.470,-24262.720,-25323.460,-26083.130,-24803.110,-0.175,0.964,-0.154,-1.801,3.235,-0.427,66.667,726.000,1.000,0.004,0.000
-24318.280,-23660.900,-27164.210,-25341.110,-24294.900,-25356.890,-26115.880,-24834.330,-0.178,0.966,-0.153,-1.678,3.296,-0.397,66.667,727.000,1.000,3.758,0.000
-24352.660,-23700.280,-27206.740,-25381.410,-24334.840,-25398.770,-26156.790,-24873.420,-0.177,0.967,-0.155,-1.495,3.326,-0.366,66.667,728.000,1.000,3.730,0.000
-24386.230,-23740.040,-27249.320,-25422.330,-24376.440,-25441.690,-26200.030,-24915.610,-0.178,0.967,-0.157,-1.343,3.296,-0.427,66.667,729.000,1.000,14.479,0.000
-24417.960,-23778.100,-27290.650,-25460.850,-24416.620,-25481.450,-26243.190,-24957.200,-0.179,0.969,-0.156,-1.373,3.357,-0.397,66.667,730.000,1.000,0.013,0.000
-24444.480,-23811.660,-27327.410,-25493.930,-24451.570,-25516.120,-26281.510,-24993.400,-0.179,0.966,-0.157,-1.190,3.326,-0.458,66.667,731.000,1.000,1.737,0.000
-24467.470,-23841.880,-27359.050,-25521.950,-24481.330,-25548.840,-26314.160,-25022.940,-0.179,0.966,-0.160,-1.099,3.235,-0.305,66.667,732.000,1.000,2.496,0.000
-24491.490,-23870.720,-27388.560,-25548.230,-24509.010,-25581.820,-26344.770,-25048.520,-0.182,0.967,-0.159,-0.946,3.082,-0.275,66.667,733.000,1.000,2.491,0.000
-24519.900,-23899.820,-27420.490,-25577.920,-24539.100,-25614.860,-26378.270,-25077.370,-0.180,0.968,-0.159,-1.007,3.082,-0.275,66.667,734.000,1.000,8.803,0.000
-24553.540,-23930.560,-27457.400,-25614.060,-24573.660,-25648.410,-26416.030,-25113.690,-0.181,0.970,-0.159,-1.007,2.930,-0.244,66.667,735.000,1.000,3.037,0.000
-24586.990,-23959.280,-27493.860,-25650.220,-24605.450,-25679.650,-26450.200,-25148.340,-0.182,0.972,-0.160,-1.190,2.808,-0.305,66.667,736.000,1.000,0.011,0.000
-24614.670,-23981.390,-27523.310,-25679.180,-24628.140,-25705.470,-26475.230,-25173.270,-0.182,0.973,-0.160,-1.129,2.716,-0.244,66.667,737.000,1.000,11.306,0.000
-24639.600,-24000.060,-27549.140,-25704.230,-24647.760,-25729.390,-26497.270,-25194.880,-0.181,0.974,-0.160,-1.221,2.563,-0.244,66.667,738.000,1.000,0.015,0.000
-24665.400,-24020.620,-27576.770,-25730.080,-24670.860,-25755.130,-26521.880,-25219.630,-0.180,0.973,-0.162,-1.312,2.289,-0.305,66.667,739.000,1.000,2.358,0.000
-24690.630,-24042.930,-27605.680,-25756.070,-24696.440,-25781.470,-26548.210,-25247.090,-0.181,0.974,-0.162,-1.495,2.045,-0.305,66.667,740.000,1.000,0.011,0.000
-24716.710,-24067.570,-27636.510,-25783.650,-24724.490,-25809.160,-26578.160,-25278.740,-0.183,0.973,-0.163,-1.678,1.740,-0.305,66.667,741.000,1.000,8.178,0.000
-24744.690,-24093.740,-27668.390,-25813.060,-24753.450,-25838.100,-26611.480,-25312.320,-0.184,0.973,-0.163,-1.892,1.587,-0.397,66.667,742.000,1.000,3.087,0.000
-24769.330,-24115.240,-27695.170,-25838.840,-24776.600,-25862.510,-26639.680,-25340.050,-0.185,0.975,-0.163,-2.014,1.251,-0.519,66.667,743.000,1.000,0.010,0.000
-24791.910,-24134.470,-27718.540,-25861.730,-24795.900,-25884.430,-26663.430,-25363.860,-0.185,0.975,-0.165,-2.228,1.007,-0.610,66.667,744.000,1.000,8.234,0.000
-24820.770,-24161.810,-27747.940,-25889.710,-24821.760,-25914.340,-26693.490,-25392.790,-0.185,0.974,-0.167,-2.411,0.671,-0.854,66.667,745.000,1.000,2.421,0.000
-24853.750,-24195.580,-27782.800,-25923.210,-24854.100,-25950.340,-26728.530,-25425.360,-0.185,0.977,-0.164,-2.655,0.336,-0.977,66.667,746.000,1.000,2.492,0.000
-24883.500,-24226.870,-27816.080,-25956.000,-24885.480,-25982.890,-26761.210,-25455.290,-0.186,0.977,-0.160,-2.899,0.153,-1.099,66.667,747.000,1.000,8.824,0.000
-24909.260,-24254.560,-27846.310,-25985.030,-24914.230,-26011.420,-26791.550,-25481.940,-0.182,0.978,-0.162,-3.143,-0.061,-1.190,66.667,748.000,1.000,3.002,0.000
-24935.670,-24283.050,-27877.030,-26013.160,-24943.430,-26040.450,-26821.780,-25508.460,-0.178,0.979,-0.163,-3.448,-0.183,-1.251,66.667,749.000,1.000,0.010,0.000
-24962.910,-24311.110,-27907.530,-26039.980,-24971.250,-26068.040,-26847.900,-25534.000,-0.173,0.981,-0.164,-3.540,-0.336,-1.373,66.667,750.000,1.000,1.987,0.000
-24987.520,-24334.820,-27934.810,-26062.970,-24994.220,-26090.760,-26867.530,-25555.660,-0.170,0.980,-0.164,-3.906,-0.427,-1.312,66.667,751.000,1.000,16.200,0.000
-25013.620,-24360.200,-27964.210,-26088.320,-25018.420,-26116.000,-26890.230,-25578.250,-0.169,0.980,-0.162,-3.937,-0.214,-1.404,66.667,752.000,1.000,3.111,0.000
-25043.820,-24392.630,-27999.300,-26119.140,-25048.400,-26150.220,-26922.640,-25606.140,-0.165,0.976,-0.162,-4.211,-0.153,-1.312,66.667,753.000,1.000,0.016,0.000
-25072.490,-24426.220,-28033.400,-26149.140,-25078.550,-26186.880,-26957.900,-25635.410,-0.163,0.974,-0.162,-4.303,0.122,-1.251,66.667,754.000,1.000,1.834,0.000
-25095.270,-24453.710,-28060.240,-26174.010,-25103.340,-26217.490,-26987.290,-25659.450,-0.162,0.971,-0.162,-4.242,0.549,-1.160,66.667,755.000,1.000,5.012,0.000
-25115.950,-24477.090,-28083.470,-26196.560,-25126.040,-26244.630,-27014.090,-25679.170,-0.164,0.970,-0.161,-4.333,0.793,-0.946,66.667,756.000,1.000,2.456,0.000
-25141.370,-24502.380,-28110.320,-26221.480,-25152.260,-26273.950,-27045.530,-25701.980,-0.164,0.968,-0.160,-4.242,1.038,-0.885,66.667,757.000,1.000,2.502,0.000
-25173.080,-24530.380,-28142.570,-26251.020,-25182.250,-26303.790,-27079.310,-25731.140,-0.167,0.966,-0.161,-4.211,1.312,-0.580,66.667,758.000,1.000,27.532,0.000
-25206.900,-24557.860,-28177.310,-26283.970,-25213.280,-26331.400,-27111.010,-25763.510,-0.167,0.965,-0.156,-4.059,1.678,-0.336,66.667,759.000,1.000,3.064,0.000
-25236.290,-24579.940,-28208.070,-26313.110,-25239.910,-26354.930,-27137.870,-25791.390,-0.164,0.964,-0.156,-3.876,1.984,-0.153,66.667,760.000,1.000,0.010,0.000
-25258.220,-24594.560,-28230.680,-26333.030,-25257.900,-26371.830,-27156.750,-25810.770,-0.166,0.965,-0.154,-3.662,2.197,0.153,66.667,761.000,1.000,1.969,0.000
-25276.940,-24606.910,-28250.510,-26350.880,-25272.400,-26384.880,-27171.790,-25827.940,-0.168,0.964,-0.157,-3.510,2.533,0.336,66.667,762.000,1.000,2.399,0.000
-25300.460,-24626.010,-28276.900,-26377.680,-25293.400,-26402.290,-27192.720,-25852.270,-0.172,0.963,-0.158,-3.265,2.808,0.397,66.667,763.000,1.000,2.502,0.000
-25330.730,-24654.960,-28310.900,-26412.530,-25323.390,-26428.490,-27222.790,-25885.940,-0.176,0.963,-0.157,-2.960,3.052,0.549,66.667,764.000,1.000,2.492,0.000
-25358.360,-24684.580,-28342.230,-26443.300,-25353.570,-26457.820,-27254.710,-25918.630,-0.177,0.961,-0.156,-2.808,3.052,0.549,66.667,765.000,1.000,2.495,0.000
-25376.890,-24706.460,-28363.910,-26463.690,-25376.790,-26482.980,-27280.280,-25941.640,-0.178,0.962,-0.158,-2.594,2.991,0.519,66.667,766.000,1.000,2.517,0.000
-25393.050,-24724.870,-28381.980,-26480.770,-25396.940,-26504.400,-27300.330,-25960.220,-0.180,0.963,-0.153,-2.380,3.113,0.305,66.667,767.000,1.000,6.246,0.000
-25412.320,-24744.440,-28402.100,-26500.900,-25417.900,-26523.540,-27319.150,-25980.020,-0.185,0.964,-0.154,-2.075,2.960,0.183,66.667,768.000,1.000,2.474,0.000
-25432.460,-24763.770,-28423.060,-26523.170,-25439.060,-26542.020,-27339.800,-26001.350,-0.187,0.966,-0.155,-1.984,2.930,0.153,66.667,769.000,1.000,3.090,0.000
-25450.670,-24780.710,-28442.650,-26544.510,-25458.470,-26561.300,-27362.100,-26022.220,-0.188,0.967,-0.155,-1.923,2.808,0.000,66.667,770.000,1.000,0.010,0.000
