EEG 1, EEG 2, EEG 3, EEG 4, EEG 5, EEG 6, EEG 7, EEG 8, ACC X, ACC Y, ACC Z, GYR X, GYR Y, GYR Z, BAT, CNT, VALID, DT, TRIG
31088.940,30148.490,34584.350,31920.770,30208.600,32778.570,31906.380,30681.460,-0.156,0.895,-0.312,0.000,0.000,0.000,66.667,1.000,1.000,0.000,0.000
106186.200,102976.800,118108.300,109014.900,103181.300,111957.400,108978.500,104797.400,-0.149,0.916,-0.331,0.000,0.000,0.000,66.667,2.000,1.000,25.423,0.000
163570.600,158636.000,181893.100,167906.200,158947.400,172459.700,167869.100,161437.500,-0.145,0.923,-0.336,-4.120,2.960,-3.387,66.667,3.000,1.000,2.446,0.000
176439.100,171129.500,196140.300,181089.300,171458.500,186021.000,181061.400,174139.900,-0.140,0.924,-0.341,-5.524,0.061,-0.122,66.667,4.000,1.000,2.455,0.000
176305.600,171007.000,195932.500,180915.500,171332.500,185871.300,180902.700,174001.500,-0.132,0.930,-0.339,-5.524,-1.801,1.862,66.667,5.000,1.000,2.517,0.000
169547.500,164454.100,188370.800,173933.200,164772.000,178745.400,173959.100,167332.000,-0.129,0.932,-0.339,-5.737,-2.075,2.197,66.667,6.000,1.000,2.507,0.000
151845.600,147291.400,168651.400,155735.400,147581.100,160088.800,155801.500,149874.500,-0.129,0.935,-0.336,-5.890,-2.075,2.289,66.667,7.000,1.000,2.481,0.000
141603.000,137362.400,157242.700,145227.900,137633.300,149291.000,145295.500,139773.300,-0.129,0.938,-0.338,-6.256,-1.892,2.228,66.667,8.000,1.000,9.377,0.000
146961.000,142558.300,163191.000,150741.200,142839.600,154934.800,150789.000,145058.200,-0.128,0.935,-0.337,-6.561,-1.862,2.075,66.667,9.000,1.000,0.026,0.000
156595.600,151903.600,173893.000,160615.300,152204.000,165093.400,160673.300,154565.100,-0.124,0.928,-0.336,-6.744,-1.617,1.953,66.667,10.000,1.000,1.943,0.000
156184.400,151505.900,173415.400,160162.000,151808.100,164662.400,160253.100,154161.800,-0.123,0.922,-0.337,-6.866,-1.434,1.770,66.667,11.000,1.000,3.699,0.000
142262.400,137999.400,157911.200,145865.700,138283.000,149981.500,145968.000,140428.000,-0.120,0.920,-0.337,-6.866,-1.190,1.617,66.667,12.000,1.000,14.319,0.000
133322.300,129324.500,147960.000,136695.600,129598.400,140555.100,136796.800,131611.500,-0.118,0.917,-0.340,-6.592,-1.068,1.221,66.667,13.000,1.000,0.021,0.000
137298.400,133179.100,152381.200,140766.800,133461.900,144751.000,140880.200,135535.900,-0.114,0.913,-0.342,-6.409,-0.763,1.007,66.667,14.000,1.000,1.876,0.000
145056.800,140705.500,161006.000,148724.400,140998.300,152932.700,148841.500,143190.800,-0.113,0.909,-0.345,-6.073,-0.519,0.916,66.667,15.000,1.000,2.452,0.000
145002.300,140662.200,160936.300,148669.100,140942.600,152875.100,148782.000,143138.100,-0.112,0.905,-0.348,-5.798,-0.275,0.763,66.667,16.000,1.000,2.552,0.000
134332.500,130318.900,149056.500,137697.700,130568.500,141622.500,137825.300,132604.300,-0.112,0.902,-0.352,-5.402,0.061,0.793,66.667,17.000,1.000,8.738,0.000
127369.700,123556.300,141304.100,130524.100,123793.600,134274.400,130672.500,125724.300,-0.113,0.898,-0.348,-4.791,0.397,0.732,66.667,18.000,1.000,5.599,0.000
130282.400,126369.400,144542.600,133508.700,126618.900,137341.400,133659.600,128596.500,-0.116,0.894,-0.350,-4.364,0.671,0.793,66.667,19.000,1.000,0.013,0.000
136122.400,132026.100,151037.400,139522.900,132293.200,143497.100,139652.400,134361.900,-0.121,0.893,-0.352,-3.784,0.916,0.763,66.667,20.000,1.000,1.929,0.000
136128.400,132029.500,151038.700,139556.000,132299.600,143498.600,139653.800,134368.100,-0.121,0.894,-0.350,-3.235,1.251,0.732,66.667,21.000,1.000,8.705,0.000
128194.000,124338.400,142205.900,131417.000,124589.600,135128.300,131506.400,126535.900,-0.119,0.897,-0.350,-2.625,1.617,0.885,66.667,22.000,1.000,2.512,0.000
122899.000,119212.400,136312.600,125957.500,119442.600,129546.600,126073.600,121305.800,-0.119,0.899,-0.349,-2.167,1.709,0.793,66.667,23.000,1.000,3.072,0.000
124818.400,121080.200,138448.000,127912.200,121307.300,131574.500,128048.600,123198.600,-0.119,0.902,-0.348,-1.801,1.801,0.824,66.667,24.000,1.000,0.009,0.000
128923.200,125055.500,143013.500,132137.300,125297.300,135903.700,132265.700,127253.900,-0.121,0.906,-0.346,-1.434,2.228,0.946,66.667,25.000,1.000,10.760,0.000
128884.700,125017.300,142967.300,132095.100,125261.300,135865.600,132230.700,127218.200,-0.122,0.911,-0.351,-1.190,2.319,1.068,66.667,26.000,1.000,2.906,0.000
123199.400,119511.200,136639.800,126245.400,119738.100,129873.400,126398.700,121604.800,-0.127,0.916,-0.347,-0.793,2.594,1.190,66.667,27.000,1.000,0.089,0.000
119288.200,115714.300,132290.200,122238.400,115939.800,125750.600,122385.800,117744.900,-0.132,0.920,-0.345,-0.824,2.625,1.251,66.667,28.000,1.000,1.641,0.000
120336.500,116721.700,133458.100,123309.500,116959.700,126860.600,123465.300,118783.000,-0.137,0.928,-0.346,-0.824,2.686,1.434,66.667,29.000,1.000,6.472,0.000
122921.600,119228.600,136331.800,125950.000,119469.500,129588.600,126119.600,121334.700,-0.140,0.934,-0.346,-0.702,2.625,1.617,66.667,30.000,1.000,3.802,0.000
122799.000,119116.100,136192.700,125838.000,119347.400,129455.200,125989.200,121209.600,-0.142,0.940,-0.346,-0.793,2.563,1.740,66.667,31.000,1.000,9.339,0.000
118942.600,115385.000,131902.800,121886.300,115600.400,125388.000,122028.900,117398.000,-0.146,0.942,-0.347,-0.916,2.380,1.862,66.667,32.000,1.000,0.052,0.000
116145.600,112672.800,128795.100,119008.600,112886.500,122444.000,119163.100,114637.400,-0.150,0.945,-0.353,-1.129,2.106,2.167,66.667,33.000,1.000,1.815,0.000
116497.900,113008.000,129193.500,119380.600,113235.400,122823.300,119535.100,114994.100,-0.152,0.943,-0.355,-1.495,1.831,2.350,66.667,34.000,1.000,8.726,0.000
117866.800,114337.000,130720.900,120795.800,114570.700,124273.100,120949.000,116353.800,-0.154,0.938,-0.354,-1.709,1.617,2.655,66.667,35.000,1.000,3.029,0.000
117642.900,114122.700,130472.200,120556.200,114354.400,124040.900,120722.300,116134.000,-0.155,0.932,-0.355,-1.801,1.404,2.747,66.667,36.000,1.000,0.010,0.000
115220.300,111774.500,127777.600,118058.000,112001.300,121491.200,118236.300,113741.400,-0.154,0.927,-0.358,-1.923,0.885,2.869,66.667,37.000,1.000,8.193,0.000
113323.400,109938.100,125670.200,116115.000,110160.200,119495.700,116291.200,111870.000,-0.155,0.918,-0.359,-1.892,0.549,3.082,66.667,38.000,1.000,14.917,0.000
113138.400,109764.900,125467.900,115945.700,109982.800,119302.100,116104.600,111691.700,-0.152,0.913,-0.363,-1.923,0.153,3.082,66.667,39.000,1.000,0.019,0.000
113548.600,110174.200,125925.500,116387.700,110381.000,119729.900,116523.700,112097.500,-0.153,0.909,-0.370,-1.892,-0.122,3.143,66.667,40.000,1.000,0.010,0.000
113239.400,109875.200,125580.100,116065.200,110077.200,119400.200,116203.100,111787.700,-0.154,0.910,-0.373,-1.617,-0.275,3.174,66.667,41.000,1.000,3.111,0.000
111917.000,108581.000,124108.900,114684.800,108792.300,118013.100,114851.300,110481.500,-0.152,0.911,-0.374,-1.404,-0.549,3.021,66.667,42.000,1.000,0.011,0.000
110711.200,107416.000,122769.900,113429.800,107624.400,116750.800,113622.800,109297.500,-0.150,0.910,-0.376,-1.099,-0.885,2.991,66.667,43.000,1.000,1.840,0.000
110115.900,106856.500,122110.800,112811.200,107049.600,116125.300,113017.900,108717.200,-0.141,0.910,-0.378,-0.946,-1.221,2.991,66.667,44.000,1.000,6.316,0.000
109777.800,106530.900,121738.000,112469.900,106725.100,115768.400,112675.900,108389.500,-0.131,0.908,-0.385,-0.702,-1.282,2.899,66.667,45.000,1.000,9.347,0.000
109388.200,106134.900,121305.600,112082.200,106349.300,115357.300,112278.900,108010.300,-0.123,0.910,-0.387,-0.519,-1.343,2.899,66.667,46.000,1.000,0.026,0.000
108901.300,105648.700,120763.100,111589.100,105875.400,114842.300,111775.800,107529.000,-0.116,0.911,-0.384,-0.305,-1.129,2.747,66.667,47.000,1.000,2.461,0.000
108239.900,105014.500,120028.600,110921.300,105230.500,114141.500,111087.100,106868.800,-0.110,0.912,-0.384,-0.214,-0.977,2.625,66.667,48.000,1.000,0.012,0.000
107382.900,104191.000,119077.800,110068.800,104395.700,113232.400,110196.800,106016.600,-0.106,0.912,-0.381,-0.183,-0.702,2.502,66.667,49.000,1.000,10.687,0.000
106526.900,103363.400,118126.300,109194.400,103562.400,112327.400,109314.900,105168.400,-0.102,0.909,-0.383,-0.092,-0.366,2.350,66.667,50.000,1.000,11.371,0.000
106067.600,102941.500,117615.400,108686.600,103115.100,111846.200,108844.800,104710.300,-0.100,0.908,-0.379,-0.122,0.061,2.075,66.667,51.000,1.000,0.022,0.000
106141.600,103031.400,117698.500,108735.700,103186.700,111929.200,108922.500,104780.100,-0.101,0.910,-0.377,-0.092,0.519,1.678,66.667,52.000,1.000,0.013,0.000
105844.700,102718.800,117368.900,108432.400,102899.600,111621.400,108623.600,104491.600,-0.103,0.916,-0.376,-0.183,1.007,1.434,66.667,53.000,1.000,6.610,0.000
104794.300,101664.100,116199.900,107360.100,101879.000,110516.100,107550.000,103459.600,-0.107,0.921,-0.375,-0.366,1.404,1.190,66.667,54.000,1.000,0.018,0.000
103575.000,100471.100,114843.700,106114.000,100692.900,109230.000,106299.300,102256.300,-0.112,0.928,-0.371,-0.519,1.709,0.641,66.667,55.000,1.000,1.884,0.000
103072.900,99990.130,114287.600,105613.800,100205.200,108696.300,105784.000,101762.700,-0.117,0.933,-0.372,-0.946,1.923,-0.031,66.667,56.000,1.000,6.865,0.000
103529.600,100439.100,114796.500,106093.300,100648.300,109169.200,106249.500,102212.500,-0.121,0.936,-0.371,-1.099,1.953,-0.763,66.667,57.000,1.000,0.010,0.000
103504.000,100419.300,114764.600,106060.600,100619.000,109132.200,106215.000,102178.200,-0.125,0.938,-0.369,-1.495,2.014,-1.556,66.667,58.000,1.000,5.617,0.000
102369.700,99331.700,113500.200,104871.800,99513.560,107931.500,105046.700,101052.900,-0.128,0.938,-0.361,-1.923,2.106,-2.167,66.667,59.000,1.000,9.368,0.000
100933.700,97952.340,111904.700,103373.400,98119.390,106421.400,103577.900,99637.510,-0.130,0.944,-0.358,-2.380,2.258,-2.686,66.667,60.000,1.000,0.018,0.000
100399.000,97430.220,111313.000,102844.500,97601.140,105858.200,103032.500,99114.490,-0.131,0.950,-0.358,-2.930,2.350,-3.052,66.667,61.000,1.000,8.717,0.000
101077.300,98074.540,112069.000,103586.000,98259.930,106567.100,103726.200,99790.710,-0.133,0.950,-0.358,-3.479,2.502,-3.265,66.667,62.000,1.000,0.017,0.000
101207.400,98189.280,112214.200,103735.600,98386.810,106703.600,103860.500,99924.880,-0.135,0.949,-0.355,-4.211,2.350,-3.296,66.667,63.000,1.000,1.839,0.000
100043.100,97053.380,110920.600,102531.900,97257.170,105482.800,102671.400,98777.380,-0.137,0.946,-0.352,-4.883,2.289,-3.357,66.667,64.000,1.000,3.733,0.000
98510.700,95569.230,109218.400,100939.800,95769.920,103876.200,101106.100,97266.090,-0.140,0.937,-0.351,-5.310,2.197,-3.448,66.667,65.000,1.000,8.793,0.000
97943.890,95031.130,108590.300,100338.000,95220.560,103286.000,100529.800,96710.460,-0.141,0.931,-0.352,-5.524,2.045,-3.510,66.667,66.000,1.000,3.050,0.000
98698.740,95774.020,109433.700,101118.600,95956.980,104085.300,101307.100,97463.480,-0.141,0.925,-0.350,-5.737,1.953,-3.601,66.667,67.000,1.000,0.007,0.000
98912.910,95980.750,109674.300,101348.900,96166.160,104311.800,101527.700,97678.810,-0.140,0.922,-0.344,-5.859,1.770,-3.540,66.667,68.000,1.000,1.942,0.000
97784.060,94886.710,108416.500,100166.600,95062.980,103118.800,100365.400,96553.980,-0.140,0.920,-0.343,-5.920,1.770,-3.357,66.667,69.000,1.000,8.798,0.000
96264.240,93418.430,106723.900,98587.670,93579.460,101512.400,98799.000,95039.970,-0.140,0.916,-0.342,-6.073,1.740,-3.143,66.667,70.000,1.000,3.056,0.000
95709.160,92862.800,106108.000,98044.790,93039.860,100925.200,98225.860,94488.380,-0.139,0.913,-0.342,-6.226,1.678,-2.930,66.667,71.000,1.000,0.007,0.000
96464.180,93575.810,106950.500,98850.800,93776.340,101722.300,98999.840,95235.550,-0.140,0.909,-0.343,-6.317,1.740,-2.686,66.667,72.000,1.000,8.214,0.000
96700.430,93824.200,107214.900,99093.130,94007.250,101974.800,99239.950,95467.690,-0.140,0.907,-0.343,-6.256,1.678,-2.533,66.667,73.000,1.000,6.170,0.000
95639.040,92821.270,106033.400,97991.340,92975.190,100856.800,98147.280,94418.530,-0.139,0.906,-0.346,-6.073,1.617,-2.136,66.667,74.000,1.000,2.529,0.000
94167.920,91388.110,104397.800,96474.300,91548.020,99308.200,96642.250,92973.430,-0.140,0.906,-0.346,-6.012,1.587,-2.075,66.667,75.000,1.000,2.460,0.000
93584.520,90796.480,103753.700,95869.760,90987.030,98701.340,96056.420,92405.950,-0.141,0.906,-0.347,-5.829,1.556,-2.014,66.667,76.000,1.000,4.332,0.000
94271.410,91455.480,104521.900,96578.150,91657.600,99428.530,96764.940,93083.390,-0.138,0.905,-0.348,-5.646,1.587,-1.923,66.667,77.000,1.000,0.006,0.000
94508.680,91705.160,104788.600,96834.840,91889.450,99674.930,97003.070,93315.690,-0.136,0.906,-0.349,-5.524,1.678,-1.770,66.667,78.000,1.000,8.015,0.000
93512.020,90752.440,103683.000,95811.910,90923.910,98625.170,95982.140,92335.380,-0.135,0.909,-0.355,-5.402,1.709,-1.587,66.667,79.000,1.000,9.523,0.000
92118.220,89402.520,102134.400,94371.660,89572.050,97161.790,94558.410,90963.250,-0.132,0.914,-0.354,-5.249,1.831,-1.465,66.667,80.000,1.000,0.011,0.000
91565.560,88879.930,101523.400,93818.310,89036.910,96583.410,93992.840,90418.770,-0.132,0.918,-0.354,-5.280,1.862,-1.312,66.667,81.000,1.000,1.941,0.000
92156.480,89454.020,102184.000,94443.800,89612.120,97205.610,94599.550,91005.340,-0.134,0.921,-0.355,-5.371,1.984,-1.190,66.667,82.000,1.000,5.020,0.000
92323.310,89597.140,102368.300,94606.510,89774.040,97377.650,94772.980,91176.180,-0.137,0.926,-0.356,-5.402,2.045,-1.038,66.667,83.000,1.000,2.411,0.000
91417.940,88714.720,101359.900,93671.040,88895.040,96421.250,93844.520,90284.330,-0.139,0.934,-0.354,-5.432,2.136,-0.977,66.667,84.000,1.000,2.519,0.000
90161.660,87485.550,99962.340,92383.160,87676.160,95099.480,92558.140,89044.680,-0.139,0.940,-0.352,-5.463,2.167,-0.885,66.667,85.000,1.000,8.695,0.000
89613.940,86935.340,99353.120,91810.340,87144.980,94526.470,92000.390,88506.450,-0.138,0.942,-0.348,-5.798,2.075,-0.854,66.667,86.000,1.000,3.144,0.000
90078.770,87395.750,99871.270,92276.140,87594.660,95017.770,92474.820,88961.530,-0.141,0.942,-0.344,-6.073,2.136,-0.732,66.667,87.000,1.000,0.011,0.000
90208.450,87538.310,100016.700,92418.580,87717.660,95151.830,92601.430,89082.650,-0.141,0.940,-0.341,-6.531,2.045,-0.641,66.667,88.000,1.000,1.819,0.000
89400.600,86751.090,99118.380,91603.020,86930.330,94295.950,91769.050,88281.140,-0.144,0.938,-0.344,-6.744,2.014,-0.610,66.667,89.000,1.000,8.792,0.000
88278.790,85669.750,97869.240,90447.400,85834.380,93106.260,90609.010,87163.260,-0.146,0.937,-0.341,-6.897,2.075,-0.610,66.667,90.000,1.000,6.843,0.000
87770.660,85197.090,97302.730,89920.400,85332.920,92562.580,90074.230,86647.390,-0.148,0.934,-0.341,-7.111,1.923,-0.671,66.667,91.000,1.000,0.011,0.000
88107.280,85532.150,97678.310,90270.130,85659.050,92916.450,90418.090,86978.880,-0.151,0.933,-0.339,-7.141,1.740,-0.793,66.667,92.000,1.000,1.902,0.000
88145.840,85558.500,97722.460,90310.270,85701.370,92965.160,90467.480,87028.410,-0.150,0.932,-0.334,-7.111,1.587,-0.793,66.667,93.000,1.000,3.724,0.000
87408.930,84815.220,96900.820,89546.540,84985.910,92193.350,89716.970,86307.170,-0.149,0.927,-0.333,-7.080,1.526,-0.671,66.667,94.000,1.000,8.775,0.000
86419.450,83846.340,95799.410,88537.570,84020.520,91144.900,88696.700,85325.840,-0.148,0.923,-0.334,-7.080,1.282,-0.580,66.667,95.000,1.000,3.072,0.000
85924.020,83374.500,95250.950,88026.830,83538.680,90620.510,88188.000,84835.640,-0.147,0.918,-0.333,-6.958,1.373,-0.427,66.667,96.000,1.000,0.008,0.000
86116.520,83561.590,95466.770,88193.410,83727.250,90827.600,88392.040,85029.640,-0.149,0.915,-0.332,-6.775,1.221,-0.244,66.667,97.000,1.000,1.887,0.000
86093.090,83543.040,95441.260,88155.380,83703.910,90803.570,88367.510,85005.200,-0.147,0.911,-0.333,-6.592,1.221,-0.214,66.667,98.000,1.000,11.264,0.000
85456.300,82933.530,94736.140,87528.690,83086.300,90131.040,87710.280,84376.070,-0.146,0.910,-0.333,-6.317,1.160,-0.061,66.667,99.000,1.000,3.053,0.000
84587.670,82088.570,93774.930,86668.550,82246.400,89215.630,86821.600,83525.400,-0.143,0.909,-0.333,-5.829,1.221,0.061,66.667,100.000,1.000,0.007,0.000
84104.720,81606.200,93240.080,86176.800,81779.800,88706.810,86332.510,83056.230,-0.141,0.911,-0.334,-5.371,1.251,0.183,66.667,101.000,1.000,8.138,0.000
84194.520,81683.670,93339.480,86260.900,81865.680,88798.630,86425.130,83145.860,-0.138,0.909,-0.336,-5.035,1.404,0.214,66.667,102.000,1.000,2.494,0.000
84122.970,81622.700,93259.260,86176.690,81792.150,88717.510,86344.430,83066.780,-0.136,0.910,-0.336,-4.517,1.617,0.336,66.667,103.000,1.000,3.874,0.000
83556.590,81106.630,92632.750,85587.700,81241.730,88119.730,85757.200,82498.200,-0.133,0.908,-0.341,-4.120,1.556,0.336,66.667,104.000,1.000,3.630,0.000
82802.130,80412.630,91800.130,84821.230,80514.140,87329.080,84983.300,81753.780,-0.127,0.908,-0.344,-3.693,1.801,0.458,66.667,105.000,1.000,10.563,0.000
82339.610,79947.340,91287.890,84356.240,80069.150,86844.930,84516.850,81306.200,-0.121,0.907,-0.344,-3.357,2.136,0.549,66.667,106.000,1.000,0.013,0.000
82303.210,79849.800,91244.810,84319.980,80034.550,86808.200,84491.270,81279.730,-0.118,0.909,-0.346,-2.808,2.380,0.641,66.667,107.000,1.000,1.922,0.000
82155.890,79685.140,91079.630,84169.860,79890.870,86653.470,84344.330,81136.950,-0.115,0.913,-0.345,-2.319,2.777,0.702,66.667,108.000,1.000,2.577,0.000
81650.200,79221.570,90519.960,83657.050,79400.490,86122.930,83824.230,80636.810,-0.117,0.918,-0.351,-1.923,3.113,0.854,66.667,109.000,1.000,8.766,0.000
80985.030,78580.380,89782.710,82971.870,78755.170,85425.430,83144.910,79984.550,-0.121,0.921,-0.351,-1.587,3.418,0.824,66.667,110.000,1.000,3.029,0.000
80544.940,78140.820,89291.660,82505.520,78323.750,84958.620,82692.710,79552.590,-0.121,0.925,-0.351,-1.465,3.784,0.763,66.667,111.000,1.000,0.010,0.000
80451.410,78063.090,89185.610,82404.940,78226.520,84854.480,82586.380,79452.450,-0.123,0.928,-0.352,-1.282,3.906,0.610,66.667,112.000,1.000,8.158,0.000
80266.700,77894.240,88980.650,82221.700,78044.480,84658.980,82391.130,79265.510,-0.126,0.932,-0.353,-1.190,4.089,0.610,66.667,113.000,1.000,4.411,0.000
79800.840,77449.660,88464.270,81745.770,77592.770,84169.730,81914.530,78807.380,-0.130,0.939,-0.352,-1.160,4.150,0.458,66.667,114.000,1.000,0.009,0.000
79226.310,76909.930,87827.050,81159.540,77035.200,83565.520,81324.790,78237.980,-0.135,0.949,-0.351,-1.129,4.059,0.153,66.667,115.000,1.000,8.000,0.000
78815.880,76508.420,87370.200,80749.730,76634.740,83129.480,80900.200,77829.020,-0.142,0.954,-0.349,-1.465,4.028,-0.061,66.667,116.000,1.000,3.160,0.000
78635.520,76310.050,87168.490,80574.890,76457.930,82932.750,80712.780,77650.750,-0.148,0.962,-0.351,-1.892,3.632,-0.336,66.667,117.000,1.000,0.011,0.000
78392.190,76065.340,86900.800,80327.780,76224.610,82675.450,80466.500,77414.290,-0.153,0.963,-0.346,-2.533,3.357,-0.580,66.667,118.000,1.000,1.822,0.000
77959.650,75647.520,86424.630,79870.310,75809.400,82224.770,80029.580,76992.900,-0.158,0.961,-0.344,-3.113,2.838,-0.824,66.667,119.000,1.000,11.393,0.000
77452.540,75148.200,85862.270,79332.120,75317.410,81690.840,79510.660,76494.670,-0.162,0.957,-0.347,-3.784,2.319,-1.160,66.667,120.000,1.000,2.976,0.000
77058.590,74777.230,85423.960,78918.720,74932.080,81271.900,79100.700,76100.880,-0.162,0.957,-0.345,-4.333,1.648,-1.312,66.667,121.000,1.000,0.012,0.000
76811.620,74565.670,85149.550,78656.270,74689.570,81011.280,78843.720,75849.100,-0.162,0.956,-0.349,-4.944,0.885,-1.221,66.667,122.000,1.000,1.932,0.000
76539.660,74304.130,84846.840,78392.420,74422.370,80722.020,78562.730,75576.580,-0.156,0.957,-0.353,-5.371,0.122,-1.251,66.667,123.000,1.000,14.357,0.000
76160.970,73909.710,84426.200,78035.850,74054.410,80320.130,78175.720,75208.540,-0.152,0.954,-0.349,-5.890,-0.519,-1.251,66.667,124.000,1.000,0.015,0.000
75710.190,73450.910,83928.020,77577.230,73622.260,79850.630,77724.040,74777.170,-0.148,0.953,-0.350,-6.378,-1.099,-1.038,66.667,125.000,1.000,2.513,0.000
75314.690,73075.150,83491.280,77159.420,73241.840,79440.980,77325.860,74391.320,-0.148,0.950,-0.349,-6.897,-1.801,-0.885,66.667,126.000,1.000,0.006,0.000
75019.960,72806.370,83165.110,76860.800,72954.000,79134.200,77023.020,74093.240,-0.150,0.944,-0.352,-7.355,-2.258,-0.793,66.667,127.000,1.000,13.189,0.000
74719.980,72520.920,82833.500,76557.790,72662.340,78822.150,76717.130,73795.100,-0.150,0.943,-0.352,-7.690,-2.838,-0.702,66.667,128.000,1.000,2.970,0.000
74365.700,72166.510,82438.690,76178.830,72315.660,78445.150,76351.660,73447.960,-0.149,0.941,-0.352,-7.843,-3.357,-0.732,66.667,129.000,1.000,0.012,0.000
73983.270,71778.140,82008.270,75780.590,71934.230,78025.040,75943.050,73065.310,-0.145,0.938,-0.352,-7.721,-3.723,-0.885,66.667,130.000,1.000,1.908,0.000
73621.670,71435.370,81604.540,75424.980,71576.850,77633.040,75557.270,72702.090,-0.137,0.933,-0.351,-7.599,-3.937,-1.099,66.667,131.000,1.000,2.452,0.000
73282.840,71146.740,81231.910,75071.340,71250.740,77282.160,75208.410,72364.880,-0.130,0.929,-0.351,-7.446,-4.089,-1.129,66.667,132.000,1.000,3.559,0.000
72947.980,70840.400,80862.590,74713.970,70928.160,76935.630,74866.330,72030.720,-0.127,0.921,-0.348,-7.111,-4.272,-1.099,66.667,133.000,1.000,8.278,0.000
72619.720,70475.290,80495.600,74406.270,70606.090,76579.310,74526.950,71707.110,-0.119,0.915,-0.348,-6.897,-4.425,-0.824,66.667,134.000,1.000,0.024,0.000
72272.260,70090.500,80106.370,74068.830,70265.070,76201.490,74171.600,71369.250,-0.114,0.910,-0.345,-6.317,-4.333,-0.488,66.667,135.000,1.000,1.837,0.000
71905.530,69753.040,79698.550,73654.500,69908.530,75819.640,73798.670,71007.550,-0.108,0.906,-0.344,-5.737,-4.211,-0.122,66.667,136.000,1.000,16.307,0.000
71541.770,69423.480,79295.790,73260.300,69554.830,75441.150,73423.520,70646.680,-0.110,0.906,-0.337,-4.974,-3.845,0.336,66.667,137.000,1.000,4.914,0.000
71194.450,69073.040,78913.050,72922.380,69217.950,75074.730,73067.660,70306.810,-0.116,0.911,-0.338,-4.456,-3.540,0.671,66.667,138.000,1.000,0.015,0.000
70872.630,68761.400,78558.800,72601.660,68907.160,74740.180,72741.200,69989.870,-0.123,0.917,-0.335,-3.998,-3.235,1.099,66.667,139.000,1.000,0.005,0.000
70560.690,68468.550,78212.640,72282.640,68604.470,74417.190,72422.520,69679.510,-0.128,0.921,-0.334,-3.510,-3.082,1.312,66.667,140.000,1.000,3.141,0.000
70217.460,68137.130,77832.600,71934.990,68271.550,74058.660,72072.410,69340.640,-0.130,0.922,-0.338,-3.021,-3.052,1.282,66.667,141.000,1.000,0.006,0.000
69826.480,67763.130,77401.500,71527.150,67893.070,73648.610,71675.790,68957.630,-0.130,0.925,-0.336,-2.594,-2.960,1.282,66.667,142.000,1.000,8.232,0.000
69464.690,67403.560,76998.630,71153.480,67539.700,73262.590,71305.330,68603.840,-0.130,0.929,-0.338,-2.075,-2.716,1.282,66.667,143.000,1.000,3.764,0.000
69159.870,67096.380,76657.870,70851.410,67241.860,72938.020,70992.090,68304.460,-0.127,0.930,-0.334,-1.587,-2.594,1.129,66.667,144.000,1.000,3.637,0.000
68853.460,66805.600,76319.530,70529.660,66946.630,72623.310,70683.240,68001.370,-0.127,0.933,-0.338,-1.190,-2.380,1.129,66.667,145.000,1.000,9.344,0.000
68512.550,66482.130,75944.420,70175.230,66617.630,72268.140,70336.360,67663.580,-0.129,0.935,-0.338,-0.854,-2.289,0.977,66.667,146.000,1.000,0.009,0.000
68144.870,66130.580,75538.480,69821.200,66260.480,71873.200,69952.700,67299.550,-0.130,0.932,-0.340,-0.610,-2.136,0.885,66.667,147.000,1.000,8.854,0.000
67804.190,65819.300,75161.090,69480.000,65928.510,71506.840,69595.350,66961.210,-0.132,0.931,-0.340,-0.366,-1.923,0.671,66.667,148.000,1.000,0.040,0.000
67485.440,65516.210,74808.300,69124.560,65619.900,71175.890,69273.810,66648.140,-0.131,0.928,-0.342,-0.031,-1.801,0.488,66.667,149.000,1.000,11.105,0.000
67163.140,65182.310,74453.330,68773.660,65311.020,70852.350,68958.020,66334.660,-0.129,0.927,-0.345,0.214,-1.648,0.427,66.667,150.000,1.000,0.011,0.000
66835.560,64853.000,74090.630,68457.630,64993.040,70512.470,68622.570,66009.460,-0.126,0.926,-0.346,0.519,-1.404,0.122,66.667,151.000,1.000,2.605,0.000
66471.910,64499.860,73685.990,68117.230,64637.760,70123.550,68241.870,65648.730,-0.121,0.928,-0.349,0.793,-1.251,-0.183,66.667,152.000,1.000,0.006,0.000
66101.700,64137.700,73275.960,67728.910,64280.630,69738.590,67867.180,65289.250,-0.117,0.932,-0.350,0.916,-1.038,-0.336,66.667,153.000,1.000,13.700,0.000
65781.770,63830.190,72921.250,67367.650,63971.750,69408.470,67546.470,64978.090,-0.114,0.935,-0.357,0.977,-0.854,-0.641,66.667,154.000,1.000,0.012,0.000
65509.590,63577.900,72618.010,67093.630,63705.490,69115.690,67262.850,64708.010,-0.115,0.937,-0.359,0.885,-0.519,-0.885,66.667,155.000,1.000,9.304,0.000
65202.880,63296.350,72277.510,66798.980,63405.890,68785.320,66940.870,64401.800,-0.115,0.939,-0.359,0.732,-0.275,-1.099,66.667,156.000,1.000,0.010,0.000
64817.210,62926.060,71850.950,66399.120,63032.350,68379.600,66546.240,64021.600,-0.115,0.939,-0.360,0.488,0.000,-1.282,66.667,157.000,1.000,0.003,0.000
64446.930,62550.140,71441.770,66013.620,62675.270,67993.080,66173.010,63661.560,-0.115,0.938,-0.362,0.366,0.397,-1.434,66.667,158.000,1.000,24.409,0.000
64146.490,62240.770,71108.120,65709.080,62384.080,67677.370,65869.140,63369.390,-0.117,0.936,-0.363,0.122,0.763,-1.678,66.667,159.000,1.000,0.017,0.000
63880.710,61983.930,70811.590,65446.660,62122.660,67390.720,65593.110,63104.390,-0.119,0.937,-0.365,-0.366,1.007,-1.892,66.667,160.000,1.000,1.823,0.000
63572.040,61686.000,70469.310,65144.360,61820.770,67059.220,65274.070,62798.760,-0.122,0.937,-0.368,-0.946,1.129,-1.770,66.667,161.000,1.000,8.838,0.000
63187.660,61307.780,70042.770,64738.100,61448.160,66657.060,64883.800,62423.390,-0.127,0.934,-0.373,-1.465,1.160,-1.953,66.667,162.000,1.000,2.480,0.000
62822.780,60959.490,69635.110,64332.200,61091.840,66276.060,64508.740,62060.190,-0.129,0.927,-0.375,-1.678,1.129,-2.075,66.667,163.000,1.000,2.496,0.000
62528.590,60685.060,69306.730,64025.540,60803.540,65964.980,64201.700,61764.370,-0.133,0.921,-0.373,-1.984,1.190,-2.350,66.667,164.000,1.000,2.431,0.000
62259.770,60435.160,69009.680,63767.690,60542.890,65678.940,63923.750,61500.740,-0.135,0.912,-0.372,-2.228,1.160,-2.411,66.667,165.000,1.000,2.480,0.000
61946.810,60117.480,68663.120,63467.000,60240.250,65344.490,63604.660,61198.940,-0.134,0.906,-0.372,-2.380,1.251,-2.563,66.667,166.000,1.000,2.481,0.000
61584.090,59736.500,68257.310,63108.040,59886.120,64956.130,63230.610,60842.470,-0.137,0.904,-0.374,-2.411,1.373,-2.655,66.667,167.000,1.000,2.582,0.000
61236.530,59405.260,67868.740,62732.690,59545.980,64592.020,62869.720,60491.570,-0.142,0.905,-0.373,-2.441,1.312,-2.777,66.667,168.000,1.000,2.440,0.000
60930.360,59126.740,67528.340,62388.450,59247.040,64274.370,62554.750,60181.000,-0.145,0.908,-0.371,-2.472,1.251,-2.747,66.667,169.000,1.000,2.521,0.000
60664.820,58871.300,67231.660,62124.630,58985.800,63986.980,62276.550,59913.790,-0.147,0.910,-0.371,-2.625,1.007,-2.625,66.667,170.000,1.000,3.113,0.000
60375.740,58598.550,66911.810,61857.640,58705.160,63678.320,61974.870,59627.560,-0.146,0.909,-0.371,-2.777,0.916,-2.716,66.667,171.000,1.000,0.006,0.000
60012.220,58256.410,66513.180,61485.590,58356.220,63304.210,61606.930,59272.200,-0.148,0.911,-0.371,-2.838,0.732,-2.625,66.667,172.000,1.000,1.909,0.000
59650.130,57889.110,66112.300,61091.360,58005.100,62926.450,61241.890,58920.020,-0.150,0.913,-0.367,-2.808,0.610,-2.502,66.667,173.000,1.000,2.467,0.000
59346.320,57573.090,65772.090,60769.670,57706.980,62602.290,60930.150,58621.770,-0.155,0.920,-0.366,-2.899,0.427,-2.472,66.667,174.000,1.000,2.579,0.000
59075.540,57317.940,65468.610,60497.450,57440.550,62315.020,60647.880,58349.660,-0.156,0.926,-0.362,-3.082,0.153,-2.289,66.667,175.000,1.000,8.059,0.000
58774.630,57034.660,65130.890,60191.390,57143.890,61996.050,60333.580,58046.580,-0.159,0.930,-0.359,-3.235,-0.153,-2.258,66.667,176.000,1.000,0.011,0.000
58422.340,56677.510,64735.660,59826.460,56798.000,61619.710,59970.040,57699.780,-0.159,0.933,-0.358,-3.632,-0.488,-2.106,66.667,177.000,1.000,1.833,0.000
58083.760,56338.580,64357.820,59474.860,56467.130,61258.910,59623.700,57368.260,-0.158,0.936,-0.351,-3.967,-0.702,-1.892,66.667,178.000,1.000,13.802,0.000
57791.380,56063.750,64034.880,59181.690,56181.870,60949.490,59321.380,57075.840,-0.155,0.935,-0.349,-4.181,-0.977,-1.648,66.667,179.000,1.000,9.906,0.000
57510.170,55799.660,63729.030,58906.530,55912.460,60656.800,59033.560,56798.970,-0.154,0.934,-0.348,-4.517,-1.221,-1.404,66.667,180.000,1.000,0.012,0.000
57197.460,55502.340,63388.880,58582.340,55615.070,60334.890,58718.780,56496.460,-0.152,0.930,-0.343,-4.700,-1.526,-1.251,66.667,181.000,1.000,0.003,0.000
56858.050,55172.180,63012.310,58218.140,55283.230,59976.260,58368.210,56156.980,-0.150,0.929,-0.343,-4.730,-1.648,-1.038,66.667,182.000,1.000,5.617,0.000
56543.390,54861.420,62658.130,57892.280,54968.390,59631.210,58033.110,55833.040,-0.147,0.927,-0.346,-4.761,-1.648,-0.793,66.667,183.000,1.000,0.016,0.000
56263.440,54589.450,62344.410,57620.880,54691.340,59324.480,57736.520,55549.480,-0.145,0.925,-0.340,-4.639,-1.556,-0.671,66.667,184.000,1.000,5.664,0.000
55992.930,54321.070,62040.880,57351.840,54426.050,59035.430,57454.550,55280.240,-0.143,0.923,-0.341,-4.608,-1.648,-0.549,66.667,185.000,1.000,2.475,0.000
55701.190,54040.500,61711.290,57036.990,54137.470,58725.960,57149.730,54986.500,-0.139,0.922,-0.335,-4.425,-1.587,-0.397,66.667,186.000,1.000,2.551,0.000
55371.080,53734.980,61344.060,56688.000,53816.690,58383.300,56812.890,54660.120,-0.135,0.922,-0.334,-4.395,-1.404,-0.183,66.667,187.000,1.000,2.466,0.000
55040.130,53409.450,60981.460,56364.780,53501.910,58045.070,56484.880,54343.250,-0.134,0.923,-0.334,-4.333,-1.251,0.031,66.667,188.000,1.000,6.238,0.000
54741.410,53106.920,60652.630,56073.920,53214.050,57730.790,56182.600,54054.740,-0.131,0.921,-0.340,-4.150,-1.007,0.153,66.667,189.000,1.000,9.360,0.000
54449.510,52826.720,60329.740,55759.580,52928.010,57420.030,55881.390,53766.030,-0.129,0.922,-0.337,-3.967,-0.854,0.153,66.667,190.000,1.000,0.009,0.000
54132.200,52514.140,59978.720,55406.710,52618.040,57085.910,55558.540,53452.070,-0.127,0.921,-0.335,-3.632,-0.549,0.183,66.667,191.000,1.000,2.480,0.000
53812.930,52189.400,59625.410,55083.320,52307.880,56746.070,55232.060,53136.200,-0.125,0.923,-0.334,-3.510,-0.183,0.183,66.667,192.000,1.000,0.004,0.000
53520.640,51912.560,59305.270,54810.880,52028.010,56438.520,54931.360,52847.520,-0.123,0.923,-0.336,-3.296,0.305,0.153,66.667,193.000,1.000,6.910,0.000
53237.190,51659.730,58996.310,54528.500,51758.550,56147.610,54642.500,52569.450,-0.120,0.925,-0.335,-3.174,0.763,0.061,66.667,194.000,1.000,3.806,0.000
52948.220,51385.320,58676.750,54220.320,51479.260,55845.450,54346.980,52285.960,-0.119,0.925,-0.331,-2.930,1.251,-0.092,66.667,195.000,1.000,9.276,0.000
52647.340,51079.840,58340.390,53905.910,51185.680,55525.810,54037.930,51991.660,-0.121,0.927,-0.331,-2.869,1.801,-0.183,66.667,196.000,1.000,0.007,0.000
52333.640,50762.940,57989.860,53589.030,50880.540,55196.760,53717.070,51684.300,-0.123,0.930,-0.331,-2.838,2.167,-0.305,66.667,197.000,1.000,1.925,0.000
52030.230,50470.230,57649.710,53280.540,50581.460,54874.660,53401.630,51378.770,-0.123,0.930,-0.332,-2.686,2.686,-0.458,66.667,198.000,1.000,3.783,0.000
51744.980,50207.530,57330.380,52988.000,50296.950,54565.100,53098.460,51085.910,-0.125,0.934,-0.333,-2.686,2.960,-0.763,66.667,199.000,1.000,6.205,0.000
51462.140,49938.800,57017.860,52700.860,50019.200,54262.150,52802.000,50802.350,-0.127,0.936,-0.329,-2.686,3.387,-0.854,66.667,200.000,1.000,9.307,0.000
51168.330,49654.810,56696.890,52403.730,49736.200,53952.920,52501.520,50515.880,-0.127,0.936,-0.330,-2.808,3.815,-1.129,66.667,201.000,1.000,0.010,0.000
50864.170,49370.400,56365.170,52089.460,49444.250,53635.540,52192.730,50219.320,-0.128,0.937,-0.332,-2.899,4.211,-1.343,66.667,202.000,1.000,2.506,0.000
50559.430,49067.660,56028.590,51767.610,49148.080,53315.790,51882.960,49918.670,-0.130,0.939,-0.331,-3.082,4.395,-1.495,66.667,203.000,1.000,0.005,0.000
50264.880,48762.590,55700.610,51464.360,48860.350,53002.080,51582.560,49626.930,-0.134,0.942,-0.330,-3.113,4.700,-1.740,66.667,204.000,1.000,8.158,0.000
49976.250,48472.580,55380.780,51174.690,48582.870,52699.750,51291.360,49344.860,-0.138,0.942,-0.329,-3.357,4.791,-1.862,66.667,205.000,1.000,2.474,0.000
49677.310,48171.500,55047.610,50860.660,48296.070,52392.170,50992.160,49053.980,-0.141,0.942,-0.329,-3.571,4.944,-2.014,66.667,206.000,1.000,3.819,0.000
49382.330,47885.190,54714.370,50544.880,48006.210,52080.340,50686.960,48757.230,-0.142,0.942,-0.328,-3.754,5.005,-2.106,66.667,207.000,1.000,9.281,0.000
49107.770,47638.450,54403.930,50268.220,47732.070,51780.390,50391.220,48473.170,-0.146,0.941,-0.328,-3.937,5.035,-2.228,66.667,208.000,1.000,0.011,0.000
48833.980,47388.790,54098.690,50000.100,47462.550,51484.220,50100.700,48197.940,-0.148,0.934,-0.329,-4.059,4.974,-2.289,66.667,209.000,1.000,1.906,0.000
48543.640,47102.110,53779.430,49705.920,47183.070,51179.970,49806.040,47918.090,-0.151,0.928,-0.328,-4.303,4.761,-2.411,66.667,210.000,1.000,9.983,0.000
48245.240,46795.950,53451.130,49395.920,46894.670,50867.260,49504.820,47628.840,-0.155,0.925,-0.330,-4.364,4.578,-2.380,66.667,211.000,1.000,3.096,0.000
47956.950,46507.370,53132.160,49103.220,46612.100,50558.590,49207.580,47343.580,-0.158,0.922,-0.330,-4.333,4.333,-2.380,66.667,212.000,1.000,0.009,0.000
47676.730,46240.280,52823.830,48831.370,46339.780,50260.070,48917.830,47067.750,-0.160,0.919,-0.331,-4.272,4.028,-2.319,66.667,213.000,1.000,1.882,0.000
47388.590,45968.160,52506.530,48537.080,46061.070,49957.450,48621.250,46784.000,-0.161,0.918,-0.336,-4.120,3.693,-2.289,66.667,214.000,1.000,8.813,0.000
47094.840,45682.930,52180.030,48213.660,45774.900,49649.050,48320.610,46493.480,-0.157,0.915,-0.336,-3.998,3.418,-2.197,66.667,215.000,1.000,3.009,0.000
46808.520,45405.190,51860.670,47902.680,45495.650,49348.500,48028.040,46210.590,-0.153,0.915,-0.336,-3.906,3.082,-1.984,66.667,216.000,1.000,0.012,0.000
46532.220,45145.220,51553.700,47627.790,45227.200,49058.120,47743.930,45937.400,-0.148,0.917,-0.335,-3.876,2.869,-1.770,66.667,217.000,1.000,1.978,0.000
46257.450,44879.270,51250.460,47371.580,44963.110,48769.280,47464.290,45671.110,-0.148,0.918,-0.336,-3.845,2.655,-1.587,66.667,218.000,1.000,8.734,0.000
45975.780,44599.100,50939.910,47093.270,44694.330,48477.630,47182.340,45402.010,-0.151,0.918,-0.336,-3.723,2.533,-1.312,66.667,219.000,1.000,2.484,0.000
45690.480,44324.980,50623.820,46788.280,44419.250,48184.450,46894.000,45122.120,-0.155,0.916,-0.341,-3.754,2.167,-1.160,66.667,220.000,1.000,6.247,0.000
45409.140,44058.620,50311.450,46494.180,44144.410,47887.820,46603.620,44838.790,-0.156,0.917,-0.343,-3.723,1.892,-1.343,66.667,221.000,1.000,9.337,0.000
45132.050,43796.280,50004.400,46214.890,43873.090,47589.820,46314.300,44558.820,-0.157,0.918,-0.342,-3.632,1.465,-1.495,66.667,222.000,1.000,0.011,0.000
44853.700,43531.430,49695.830,45926.800,43601.200,47294.570,46023.800,44280.230,-0.158,0.923,-0.345,-3.510,1.038,-1.465,66.667,223.000,1.000,2.501,0.000
44566.720,43240.590,49377.560,45627.160,43322.750,46995.250,45730.660,43999.520,-0.160,0.925,-0.342,-3.540,0.610,-1.495,66.667,224.000,1.000,0.009,0.000
44277.050,42939.760,49056.400,45329.340,43041.910,46689.930,45437.420,43717.160,-0.162,0.927,-0.342,-3.540,0.183,-1.556,66.667,225.000,1.000,8.136,0.000
43994.250,42663.280,48743.560,45037.750,42767.640,46390.160,45148.500,43437.350,-0.167,0.931,-0.342,-3.571,-0.397,-1.526,66.667,226.000,1.000,2.539,0.000
43714.830,42394.780,48434.140,44744.720,42496.550,46096.410,44863.070,43161.010,-0.168,0.936,-0.343,-3.723,-0.824,-1.709,66.667,227.000,1.000,3.669,0.000
43438.220,42123.910,48126.770,44460.630,42226.610,45803.980,44579.690,42888.750,-0.166,0.942,-0.344,-3.784,-1.312,-1.709,66.667,228.000,1.000,14.366,0.000
43170.510,41870.070,47829.300,44192.260,41965.140,45520.360,44302.690,42622.760,-0.163,0.945,-0.342,-4.059,-2.106,-1.801,66.667,229.000,1.000,0.010,0.000
42910.180,41632.370,47540.770,43930.890,41712.260,45245.210,44032.180,42361.600,-0.161,0.947,-0.341,-4.272,-2.655,-1.984,66.667,230.000,1.000,1.944,0.000
42643.510,41379.720,47247.350,43667.090,41455.820,44963.960,43759.150,42099.160,-0.153,0.948,-0.341,-4.608,-3.082,-2.014,66.667,231.000,1.000,2.548,0.000
42371.520,41112.690,46946.510,43395.180,41191.880,44673.170,43480.430,41832.210,-0.146,0.946,-0.345,-4.852,-3.296,-1.923,66.667,232.000,1.000,2.407,0.000
42105.440,40868.860,46649.740,43121.170,40930.130,44386.860,43202.780,41564.540,-0.143,0.947,-0.346,-5.157,-3.326,-1.709,66.667,233.000,1.000,9.374,0.000
41832.750,40615.220,46347.490,42836.160,40665.870,44105.820,42923.870,41293.810,-0.141,0.947,-0.344,-5.432,-3.601,-1.617,66.667,234.000,1.000,0.010,0.000
41549.140,40318.710,46032.770,42534.340,40392.490,43818.610,42639.790,41017.290,-0.142,0.945,-0.343,-5.707,-3.723,-1.587,66.667,235.000,1.000,1.887,0.000
41273.230,40029.950,45724.620,42241.440,40123.300,43529.640,42359.520,40745.010,-0.143,0.945,-0.342,-6.073,-3.937,-1.556,66.667,236.000,1.000,8.820,0.000
41005.030,39764.100,45427.290,41968.950,39862.980,43244.470,42085.900,40481.400,-0.143,0.943,-0.341,-6.165,-3.998,-1.556,66.667,237.000,1.000,3.035,0.000
40732.070,39494.750,45127.550,41699.530,39602.030,42958.230,41811.320,40218.800,-0.143,0.944,-0.339,-6.378,-3.937,-1.495,66.667,238.000,1.000,0.008,0.000
40462.970,39237.890,44830.370,41429.620,39343.160,42675.370,41537.450,39956.800,-0.139,0.944,-0.338,-6.653,-3.967,-1.526,66.667,239.000,1.000,1.931,0.000
40208.430,39012.910,44546.380,41169.410,39093.500,42403.380,41270.100,39700.460,-0.138,0.941,-0.338,-6.866,-3.967,-1.404,66.667,240.000,1.000,8.714,0.000
39957.540,38791.030,44267.710,40922.110,38847.400,42136.120,41005.130,39448.130,-0.138,0.938,-0.339,-6.927,-4.028,-1.495,66.667,241.000,1.000,3.000,0.000
39694.160,38542.120,43979.100,40669.000,38593.690,41861.590,40734.490,39191.660,-0.139,0.935,-0.340,-7.111,-3.876,-1.495,66.667,242.000,1.000,0.006,0.000
39413.940,38264.720,43671.800,40375.010,38324.960,41572.020,40454.030,38922.430,-0.137,0.931,-0.339,-7.172,-3.815,-1.373,66.667,243.000,1.000,1.930,0.000
39131.150,37978.550,43358.210,40061.400,38050.540,41276.790,40170.750,38647.130,-0.140,0.926,-0.336,-7.141,-3.693,-1.465,66.667,244.000,1.000,8.837,0.000
38858.680,37698.340,43053.500,39775.960,37782.450,40986.330,39891.150,38377.630,-0.137,0.922,-0.338,-7.111,-3.510,-1.434,66.667,245.000,1.000,9.195,0.000
38593.270,37425.470,42754.930,39505.560,37519.500,40700.020,39614.690,38112.320,-0.139,0.918,-0.338,-6.897,-3.387,-1.617,66.667,246.000,1.000,0.015,0.000
38332.170,37171.310,42462.160,39234.040,37263.910,40425.020,39345.300,37850.510,-0.141,0.915,-0.337,-6.683,-3.174,-1.678,66.667,247.000,1.000,1.865,0.000
38074.730,36931.670,42176.550,38972.610,37015.900,40160.350,39081.510,37593.890,-0.141,0.912,-0.335,-6.256,-3.174,-1.617,66.667,248.000,1.000,3.784,0.000
37818.800,36697.250,41894.910,38718.040,36769.300,39892.700,38816.700,37339.230,-0.141,0.907,-0.333,-5.829,-2.960,-1.678,66.667,249.000,1.000,11.909,0.000
37564.650,36465.970,41614.730,38463.040,36521.200,39618.320,38549.540,37083.060,-0.141,0.905,-0.336,-5.432,-2.838,-1.709,66.667,250.000,1.000,0.014,0.000
37310.110,36226.520,41332.610,38202.760,36271.480,39343.780,38282.480,36825.650,-0.142,0.902,-0.334,-4.944,-2.655,-1.770,66.667,251.000,1.000,1.921,0.000
37055.580,35983.890,41051.990,37940.030,36025.490,39075.700,38020.250,36573.670,-0.140,0.904,-0.333,-4.395,-2.350,-1.740,66.667,252.000,1.000,3.668,0.000
36802.750,35727.340,40773.610,37687.660,35783.580,38809.000,37762.460,36329.910,-0.137,0.906,-0.335,-3.906,-2.136,-1.740,66.667,253.000,1.000,9.327,0.000
36543.290,35442.790,40485.260,37428.280,35533.220,38532.610,37499.210,36079.540,-0.138,0.907,-0.333,-3.448,-1.984,-1.801,66.667,254.000,1.000,0.014,0.000
36281.870,35182.510,40193.730,37145.850,35278.430,38256.560,37231.920,35818.860,-0.138,0.910,-0.333,-3.052,-1.617,-1.648,66.667,255.000,1.000,14.928,0.000
36029.230,34956.630,39913.350,36868.320,35031.990,37991.520,36970.640,35565.300,-0.138,0.914,-0.334,-2.625,-1.404,-1.648,66.667,256.000,1.000,0.014,0.000
35774.380,34708.600,39631.780,36606.310,34783.950,37724.130,36708.460,35316.280,-0.138,0.917,-0.335,-2.472,-1.221,-1.617,66.667,257.000,1.000,0.004,0.000
35515.230,34456.020,39345.110,36346.180,34530.140,37452.520,36441.070,35061.640,-0.140,0.920,-0.334,-2.136,-1.007,-1.556,66.667,258.000,1.000,0.004,0.000
35261.570,34233.840,39063.680,36089.860,34279.880,37184.090,36175.860,34806.770,-0.142,0.922,-0.330,-1.862,-0.671,-1.404,66.667,259.000,1.000,4.465,0.000
35003.840,33987.290,38777.210,35834.130,34028.220,36911.300,35912.130,34553.550,-0.142,0.925,-0.331,-1.617,-0.427,-1.343,66.667,260.000,1.000,2.482,0.000
34739.900,33702.960,38483.480,35572.120,33773.310,36635.300,35648.750,34300.340,-0.143,0.928,-0.333,-1.465,-0.183,-1.343,66.667,261.000,1.000,2.472,0.000
34486.510,33444.210,38200.960,35312.490,33525.720,36366.210,35389.880,34051.450,-0.142,0.931,-0.331,-1.312,0.000,-1.282,66.667,262.000,1.000,2.536,0.000
34246.600,33213.420,37932.460,35063.660,33287.380,36103.620,35137.240,33809.880,-0.143,0.936,-0.333,-1.068,0.153,-1.373,66.667,263.000,1.000,12.494,0.000
34011.180,32985.750,37669.820,34823.390,33055.940,35850.070,34892.040,33574.730,-0.142,0.936,-0.333,-1.160,0.458,-1.343,66.667,264.000,1.000,3.137,0.000
33766.530,32753.560,37400.220,34572.790,32821.080,35598.920,34644.840,33334.700,-0.142,0.936,-0.336,-1.129,0.763,-1.434,66.667,265.000,1.000,0.007,0.000
33506.220,32502.110,37113.980,34297.040,32570.620,35332.900,34383.300,33078.780,-0.142,0.936,-0.340,-1.099,1.068,-1.526,66.667,266.000,1.000,1.887,0.000
33241.920,32238.090,36821.100,34011.750,32312.460,35055.360,34113.790,32816.150,-0.143,0.938,-0.335,-1.129,1.282,-1.495,66.667,267.000,1.000,2.491,0.000
32984.290,31991.690,36536.050,33739.470,32060.760,34783.400,33848.780,32558.790,-0.145,0.942,-0.332,-1.129,1.617,-1.556,66.667,268.000,1.000,8.782,0.000
32738.840,31769.560,36265.380,33491.590,31821.820,34525.690,33593.420,32311.640,-0.146,0.943,-0.334,-1.221,1.770,-1.495,66.667,269.000,1.000,2.978,0.000
32500.890,31549.620,36002.660,33259.840,31591.170,34276.620,33344.810,32073.030,-0.145,0.943,-0.333,-1.312,2.045,-1.434,66.667,270.000,1.000,0.006,0.000
32258.930,31320.110,35736.720,33023.580,31359.090,34024.370,33096.430,31835.110,-0.145,0.941,-0.334,-1.495,2.289,-1.587,66.667,271.000,1.000,1.953,0.000
32011.900,31073.840,35464.650,32773.300,31121.600,33763.200,32845.440,31594.580,-0.145,0.937,-0.337,-1.709,2.594,-1.556,66.667,272.000,1.000,8.809,0.000
31763.620,30820.640,35190.870,32514.550,30883.000,33501.210,32595.600,31354.580,-0.145,0.933,-0.335,-1.770,2.777,-1.495,66.667,273.000,1.000,2.457,0.000
31518.700,30582.210,34922.180,32263.020,30649.000,33245.000,32350.130,31119.390,-0.144,0.930,-0.337,-1.678,2.991,-1.404,66.667,274.000,1.000,6.200,0.000
31281.460,30352.700,34660.150,32028.660,30419.610,32988.500,32107.220,30889.870,-0.145,0.928,-0.340,-1.526,3.113,-1.434,66.667,275.000,1.000,9.413,0.000
31051.630,30135.010,34404.140,31804.900,30193.900,32734.430,31865.710,30660.710,-0.145,0.928,-0.341,-1.465,3.265,-1.373,66.667,276.000,1.000,0.010,0.000
30816.960,29917.880,34143.240,31563.300,29964.000,32484.360,31620.530,30421.560,-0.148,0.928,-0.336,-1.465,3.479,-1.404,66.667,277.000,1.000,1.832,0.000
30565.820,29669.790,33864.640,31287.060,29720.880,32227.450,31366.210,30169.480,-0.152,0.929,-0.337,-1.556,3.662,-1.312,66.667,278.000,1.000,2.542,0.000
30311.000,29417.160,33583.100,31012.980,29475.370,31966.790,31110.340,29918.460,-0.152,0.926,-0.339,-1.465,3.754,-1.190,66.667,279.000,1.000,11.247,0.000
30063.480,29180.030,33310.700,30765.830,29236.270,31708.750,30858.570,29677.260,-0.152,0.924,-0.339,-1.495,3.784,-1.129,66.667,280.000,1.000,3.038,0.000
29819.670,28938.810,33040.030,30522.840,28998.980,31450.350,30607.970,29440.400,-0.150,0.926,-0.340,-1.526,3.784,-1.007,66.667,281.000,1.000,0.007,0.000
29581.950,28706.700,32773.780,30277.260,28766.640,31196.940,30361.740,29206.800,-0.152,0.924,-0.337,-1.373,3.815,-1.068,66.667,282.000,1.000,1.889,0.000
29350.800,28486.710,32514.400,30040.030,28539.970,30950.060,30120.190,28975.730,-0.154,0.924,-0.338,-1.343,3.906,-1.038,66.667,283.000,1.000,8.793,0.000
29119.200,28251.800,32253.020,29805.200,28310.270,30698.680,29877.110,28742.910,-0.158,0.927,-0.333,-1.404,3.815,-0.946,66.667,284.000,1.000,3.158,0.000
28883.560,28018.460,31988.540,29564.030,28077.480,30445.120,29631.810,28508.140,-0.159,0.927,-0.337,-1.556,3.815,-0.946,66.667,285.000,1.000,0.018,0.000
28647.570,27799.540,31726.930,29322.260,27847.850,30198.620,29389.080,28275.340,-0.158,0.929,-0.336,-1.434,3.876,-0.977,66.667,286.000,1.000,1.830,0.000
28416.200,27571.730,31469.150,29084.290,27621.910,29954.110,29151.860,28047.120,-0.156,0.930,-0.337,-1.587,3.754,-0.977,66.667,287.000,1.000,13.817,0.000
28185.110,27340.780,31210.440,28840.890,27394.490,29705.510,28913.910,27816.490,-0.155,0.930,-0.338,-1.556,3.693,-0.946,66.667,288.000,1.000,3.010,0.000
27947.550,27116.960,30946.780,28589.240,27162.230,29454.950,28669.620,27578.550,-0.158,0.930,-0.337,-1.617,3.723,-0.824,66.667,289.000,1.000,0.005,0.000
27709.110,26891.380,30683.420,28344.850,26930.470,29208.330,28425.680,27342.760,-0.161,0.933,-0.338,-1.709,3.662,-0.732,66.667,290.000,1.000,1.758,0.000
27470.790,26653.690,30420.360,28106.290,26700.610,28964.370,28186.050,27113.570,-0.162,0.936,-0.341,-1.923,3.601,-0.732,66.667,291.000,1.000,6.431,0.000
27228.200,26410.030,30153.510,27860.620,26469.600,28717.340,27947.230,26884.850,-0.162,0.936,-0.339,-2.167,3.387,-0.824,66.667,292.000,1.000,2.483,0.000
26993.160,26188.960,29894.540,27622.070,26244.870,28473.860,27711.070,26657.380,-0.161,0.937,-0.339,-2.319,3.174,-0.793,66.667,293.000,1.000,2.432,0.000
26771.480,25999.810,29649.210,27395.920,26029.260,28239.120,27478.600,26431.960,-0.160,0.937,-0.340,-2.563,2.960,-0.793,66.667,294.000,1.000,11.333,0.000
26548.710,25805.270,29403.910,27166.960,25813.190,28005.840,27246.290,26205.860,-0.159,0.938,-0.342,-2.747,2.899,-0.793,66.667,295.000,1.000,3.040,0.000
26317.670,25567.620,29149.690,26932.950,25591.880,27767.890,27014.710,25982.380,-0.158,0.939,-0.336,-3.021,2.747,-0.763,66.667,296.000,1.000,0.010,0.000
26088.820,25320.190,28895.660,26703.100,25371.280,27526.740,26784.390,25763.090,-0.159,0.937,-0.338,-3.296,2.686,-0.763,66.667,297.000,1.000,1.907,0.000
25862.000,25090.610,28643.300,26474.100,25150.100,27279.540,26547.950,25540.320,-0.159,0.936,-0.339,-3.601,2.533,-0.702,66.667,298.000,1.000,8.775,0.000
25624.730,24847.950,28380.400,26230.790,24919.130,27023.190,26301.810,25308.000,-0.161,0.937,-0.337,-3.784,2.472,-0.702,66.667,299.000,1.000,2.535,0.000
25387.050,24610.380,28117.490,25983.570,24687.770,26772.170,26057.480,25074.900,-0.163,0.937,-0.335,-3.906,2.380,-0.702,66.667,300.000,1.000,6.257,0.000
25162.810,24411.060,27869.000,25750.310,24467.650,26536.000,25821.600,24848.370,-0.163,0.936,-0.334,-4.059,2.167,-0.641,66.667,301.000,1.000,3.013,0.000
24942.520,24215.090,27624.090,25523.310,24250.480,26303.770,25587.580,24623.930,-0.164,0.935,-0.337,-4.181,1.953,-0.549,66.667,302.000,1.000,0.012,0.000
24717.690,23994.510,27374.490,25294.290,24029.640,26066.040,25353.930,24400.250,-0.164,0.932,-0.331,-4.364,1.831,-0.458,66.667,303.000,1.000,1.959,0.000
24492.040,23768.490,27125.580,25064.420,23809.460,25825.110,25123.800,24178.630,-0.161,0.926,-0.333,-4.578,1.617,-0.336,66.667,304.000,1.000,16.823,0.000
24270.970,23552.640,26882.200,24837.820,23594.150,25587.310,24896.420,23958.970,-0.162,0.921,-0.337,-4.456,1.465,-0.183,66.667,305.000,1.000,0.015,0.000
24054.910,23345.710,26642.350,24614.260,23381.530,25355.080,24669.660,23739.220,-0.161,0.921,-0.336,-4.395,1.190,-0.061,66.667,306.000,1.000,1.867,0.000
23833.420,23129.400,26395.440,24383.030,23163.970,25122.250,24441.480,23516.120,-0.163,0.918,-0.334,-4.211,1.068,0.061,66.667,307.000,1.000,2.499,0.000
23604.720,22899.700,26142.350,24148.810,22944.130,24886.840,24214.320,23294.960,-0.163,0.919,-0.331,-3.937,0.977,0.183,66.667,308.000,1.000,2.432,0.000
23382.440,22686.390,25897.670,23927.070,22733.020,24658.080,23992.780,23082.380,-0.163,0.918,-0.331,-3.723,0.854,0.427,66.667,309.000,1.000,3.865,0.000
23166.800,22489.000,25659.220,23708.560,22526.520,24432.330,23772.510,22871.510,-0.160,0.917,-0.332,-3.601,0.549,0.641,66.667,310.000,1.000,9.305,0.000
22946.050,22276.410,25414.650,23480.460,22313.320,24197.430,23546.370,22653.820,-0.160,0.920,-0.332,-3.571,0.610,0.854,66.667,311.000,1.000,0.009,0.000
22720.160,22049.250,25166.160,23250.200,22095.580,23959.880,23317.090,22432.730,-0.161,0.918,-0.334,-3.296,0.580,0.824,66.667,312.000,1.000,1.827,0.000
22498.410,21833.850,24922.840,23024.230,21881.220,23731.070,23091.450,22215.150,-0.156,0.923,-0.335,-3.143,0.458,1.129,66.667,313.000,1.000,3.835,0.000
22279.640,21621.110,24681.180,22799.890,21668.020,23503.630,22867.490,22000.640,-0.152,0.924,-0.333,-2.991,0.458,1.190,66.667,314.000,1.000,15.570,0.000
22059.870,21398.190,24437.120,22575.420,21453.500,23269.500,22641.770,21786.780,-0.153,0.924,-0.331,-2.808,0.519,1.251,66.667,315.000,1.000,0.014,0.000
21846.810,21193.290,24200.880,22357.800,21246.410,23038.480,22420.780,21578.490,-0.151,0.924,-0.328,-2.716,0.641,1.343,66.667,316.000,1.000,2.504,0.000
21639.330,21007.930,23972.130,22146.660,21046.770,22817.310,22206.310,21374.650,-0.149,0.925,-0.331,-2.563,0.641,1.434,66.667,317.000,1.000,0.014,0.000
21427.010,20810.870,23737.500,21929.820,20842.880,22597.260,21989.590,21165.660,-0.149,0.927,-0.332,-2.411,0.732,1.373,66.667,318.000,1.000,1.873,0.000
21209.120,20594.900,23494.700,21706.530,20631.650,22370.270,21767.060,20950.270,-0.148,0.925,-0.329,-2.441,0.916,1.465,66.667,319.000,1.000,25.097,0.000
20987.840,20379.770,23249.090,21480.950,20417.560,22140.670,21542.070,20732.080,-0.148,0.925,-0.331,-2.258,1.068,1.373,66.667,320.000,1.000,2.420,0.000
20766.160,20179.120,23004.910,21253.180,20204.170,21914.760,21318.330,20514.110,-0.146,0.926,-0.334,-2.319,1.221,1.465,66.667,321.000,1.000,2.495,0.000
20548.110,19973.680,22762.710,21026.940,19991.140,21686.990,21096.960,20299.130,-0.145,0.925,-0.332,-2.197,1.251,1.495,66.667,322.000,1.000,2.481,0.000
20333.440,19750.650,22521.670,20806.550,19777.660,21454.440,20876.000,20086.180,-0.146,0.927,-0.333,-2.197,1.404,1.343,66.667,323.000,1.000,2.492,0.000
20123.660,19538.710,22286.400,20591.270,19568.330,21226.000,20655.740,19874.920,-0.144,0.928,-0.335,-2.167,1.648,1.190,66.667,324.000,1.000,2.590,0.000
19921.950,19355.770,22061.300,20379.970,19367.210,21006.670,20440.520,19667.550,-0.144,0.927,-0.334,-2.197,1.923,1.251,66.667,325.000,1.000,2.405,0.000
19718.380,19154.570,21833.800,20168.280,19165.080,20787.110,20226.680,19460.370,-0.145,0.928,-0.333,-2.197,2.045,1.160,66.667,326.000,1.000,2.544,0.000
19505.260,18919.610,21595.050,19952.110,18955.800,20562.040,20008.550,19250.070,-0.143,0.930,-0.332,-2.167,2.289,0.977,66.667,327.000,1.000,2.466,0.000
19294.730,18713.060,21360.070,19737.620,18750.280,20339.820,19791.830,19042.190,-0.143,0.931,-0.332,-2.228,2.472,0.854,66.667,328.000,1.000,3.099,0.000
19088.340,18523.450,21129.540,19524.620,18548.330,20118.450,19577.740,18836.860,-0.142,0.929,-0.332,-2.228,2.655,0.885,66.667,329.000,1.000,0.018,0.000
18878.300,18305.580,20893.720,19307.870,18343.110,19895.130,19363.540,18629.970,-0.142,0.929,-0.334,-2.380,2.991,0.885,66.667,330.000,1.000,1.896,0.000
18670.990,18099.440,20662.430,19093.280,18141.830,19678.770,19152.380,18424.560,-0.142,0.931,-0.336,-2.411,3.357,0.916,66.667,331.000,1.000,8.764,0.000
18468.380,17927.230,20439.880,18884.260,17946.740,19469.130,18942.990,18221.380,-0.141,0.929,-0.334,-2.472,3.479,0.885,66.667,332.000,1.000,3.039,0.000
18262.170,17745.870,20214.920,18675.140,17750.140,19256.530,18731.410,18017.570,-0.142,0.928,-0.334,-2.441,3.754,0.824,66.667,333.000,1.000,0.008,0.000
18052.690,17539.460,19985.240,18465.150,17550.670,19037.800,18518.980,17814.750,-0.141,0.928,-0.332,-2.411,3.967,0.854,66.667,334.000,1.000,4.384,0.000
17842.040,17315.450,19752.550,18257.090,17348.430,18814.150,18306.730,17613.380,-0.142,0.928,-0.331,-2.380,4.181,0.885,66.667,335.000,1.000,4.346,0.000
17630.910,17092.840,19519.100,18048.030,17144.480,18590.720,18094.920,17411.510,-0.140,0.929,-0.332,-2.533,4.395,0.763,66.667,336.000,1.000,0.009,0.000
17425.510,16904.810,19293.650,17835.430,16946.180,18377.150,17887.320,17210.750,-0.142,0.932,-0.332,-2.380,4.517,0.793,66.667,337.000,1.000,8.203,0.000
17226.250,16735.320,19076.130,17626.660,16754.880,18173.050,17685.180,17014.050,-0.143,0.933,-0.333,-2.350,4.761,0.916,66.667,338.000,1.000,2.463,0.000
17025.710,16545.250,18856.010,17423.250,16562.840,17967.920,17483.660,16819.200,-0.144,0.933,-0.333,-2.350,4.883,0.977,66.667,339.000,1.000,3.709,0.000
16822.070,16334.450,18629.660,17216.850,16365.980,17756.140,17278.960,16622.700,-0.146,0.932,-0.334,-2.411,5.005,0.946,66.667,340.000,1.000,9.411,0.000
16619.930,16131.670,18403.650,17008.520,16167.590,17540.990,17071.630,16424.550,-0.146,0.930,-0.332,-2.411,5.066,1.007,66.667,341.000,1.000,0.014,0.000
16419.050,15944.230,18179.580,16802.150,15967.810,17323.340,16860.220,16223.210,-0.146,0.930,-0.333,-2.350,5.188,1.007,66.667,342.000,1.000,2.471,0.000
16218.560,15751.430,17954.560,16596.580,15765.980,17105.190,16645.470,16018.810,-0.145,0.929,-0.332,-2.441,5.371,1.038,66.667,343.000,1.000,0.015,0.000
16019.330,15548.440,17729.360,16388.370,15565.600,16891.810,16433.040,15815.250,-0.145,0.929,-0.331,-2.411,5.341,1.099,66.667,344.000,1.000,6.872,0.000
15818.490,15347.860,17504.950,16175.730,15367.640,16681.330,16225.310,15614.540,-0.146,0.929,-0.329,-2.350,5.402,1.190,66.667,345.000,1.000,3.810,0.000
15615.480,15151.230,17281.560,15965.310,15171.000,16470.230,16020.390,15416.640,-0.146,0.927,-0.330,-2.441,5.341,1.190,66.667,346.000,1.000,8.672,0.000
15414.560,14954.620,17060.230,15762.950,14976.170,16259.960,15816.610,15221.110,-0.148,0.928,-0.330,-2.472,5.463,1.099,66.667,347.000,1.000,3.141,0.000
15215.530,14760.030,16839.670,15562.640,14782.780,16050.390,15613.130,15025.990,-0.150,0.927,-0.331,-2.502,5.341,1.038,66.667,348.000,1.000,0.011,0.000
15016.720,14568.020,16619.670,15359.920,14591.310,15842.130,15411.170,14830.880,-0.150,0.927,-0.327,-2.502,5.341,0.977,66.667,349.000,1.000,1.841,0.000
14824.250,14390.010,16407.650,15162.800,14407.510,15641.710,15214.700,14639.740,-0.147,0.927,-0.335,-2.502,5.371,1.038,66.667,350.000,1.000,11.343,0.000
14637.560,14223.480,16202.000,14972.040,14230.270,15446.350,15023.060,14453.690,-0.145,0.930,-0.335,-2.380,5.341,0.977,66.667,351.000,1.000,3.027,0.000
14447.490,14039.750,15990.690,14777.390,14049.430,15246.010,14830.220,14268.050,-0.144,0.933,-0.332,-2.441,5.310,0.885,66.667,352.000,1.000,0.008,0.000
14250.920,13835.870,15770.950,14574.260,13860.310,15038.740,14632.150,14077.980,-0.146,0.937,-0.330,-2.502,5.310,0.854,66.667,353.000,1.000,1.957,0.000
14050.770,13636.010,15548.970,14366.640,13667.100,14830.540,14430.490,13883.400,-0.146,0.939,-0.332,-2.563,5.371,0.824,66.667,354.000,1.000,13.702,0.000
13852.170,13449.920,15330.560,14161.620,13475.650,14627.070,14229.360,13688.480,-0.145,0.940,-0.333,-2.747,5.127,0.793,66.667,355.000,1.000,3.065,0.000
13657.450,13266.610,15116.610,13963.080,13286.780,14425.360,14030.440,13496.220,-0.145,0.938,-0.334,-2.991,5.157,0.671,66.667,356.000,1.000,0.014,0.000
13466.860,13087.580,14907.820,13771.790,13100.970,14221.960,13834.260,13307.300,-0.144,0.940,-0.333,-3.113,5.005,0.671,66.667,357.000,1.000,1.959,0.000
13277.910,12911.470,14701.720,13581.630,12917.040,14018.740,13638.900,13119.530,-0.143,0.939,-0.332,-3.235,4.974,0.732,66.667,358.000,1.000,2.458,0.000
13087.040,12721.620,14492.210,13386.530,12730.470,13816.040,13441.670,12930.590,-0.145,0.941,-0.333,-3.357,5.005,0.732,66.667,359.000,1.000,8.717,0.000
12893.330,12521.280,14277.230,13187.330,12539.680,13611.900,13242.100,12739.820,-0.144,0.942,-0.333,-3.510,4.944,0.763,66.667,360.000,1.000,3.140,0.000
12700.750,12334.550,14062.470,12988.180,12349.450,13409.610,13042.870,12549.400,-0.142,0.943,-0.334,-3.723,4.883,0.763,66.667,361.000,1.000,0.008,0.000
12515.560,12172.320,13856.150,12796.240,12166.800,13215.480,12849.410,12364.290,-0.144,0.944,-0.331,-3.723,4.883,0.824,66.667,362.000,1.000,1.907,0.000
12332.480,11999.320,13651.920,12607.060,11986.550,13022.140,12659.390,12181.430,-0.143,0.944,-0.334,-3.906,4.730,0.824,66.667,363.000,1.000,8.855,0.000
12147.780,11801.230,13444.960,12416.440,11804.460,12822.910,12469.210,11997.630,-0.141,0.942,-0.333,-4.120,4.791,0.824,66.667,364.000,1.000,2.329,0.000
11966.060,11609.100,13240.600,12228.550,11625.370,12622.770,12279.500,11815.250,-0.141,0.941,-0.332,-4.242,4.761,0.793,66.667,365.000,1.000,6.311,0.000
11783.870,11428.860,13035.840,12038.710,11447.110,12421.990,12087.750,11630.530,-0.140,0.940,-0.330,-4.303,4.761,0.793,66.667,366.000,1.000,19.977,0.000
11597.330,11251.210,12828.280,11845.640,11267.180,12222.620,11894.980,11441.800,-0.143,0.940,-0.332,-4.333,4.852,0.732,66.667,367.000,1.000,0.017,0.000
11410.220,11076.500,12621.360,11653.190,11087.970,12030.200,11705.360,11254.860,-0.146,0.942,-0.330,-4.425,4.791,0.671,66.667,368.000,1.000,0.004,0.000
11224.860,10903.680,12415.500,11461.870,10909.320,11840.760,11517.870,11071.280,-0.148,0.941,-0.330,-4.395,4.791,0.641,66.667,369.000,1.000,2.555,0.000
11038.870,10723.660,12208.250,11270.200,10728.440,11645.640,11329.110,10887.130,-0.151,0.939,-0.330,-4.517,4.730,0.580,66.667,370.000,1.000,2.430,0.000
10855.100,10539.910,12003.650,11080.170,10548.890,11449.140,11140.930,10703.850,-0.151,0.938,-0.329,-4.547,4.608,0.702,66.667,371.000,1.000,2.537,0.000
10676.420,10360.260,11804.990,10897.370,10374.290,11257.460,10954.750,10524.940,-0.151,0.936,-0.326,-4.669,4.608,0.671,66.667,372.000,1.000,2.463,0.000
10499.280,10184.900,11608.600,10720.400,10201.960,11067.150,10768.840,10349.790,-0.150,0.934,-0.329,-4.608,4.578,0.549,66.667,373.000,1.000,2.526,0.000
10321.010,10015.600,11411.260,10538.810,10028.470,10875.070,10582.570,10174.450,-0.147,0.932,-0.327,-4.517,4.608,0.610,66.667,374.000,1.000,4.975,0.000
10142.480,9855.167,11213.310,10349.760,9854.045,10685.500,10397.190,9995.915,-0.141,0.930,-0.327,-4.395,4.669,0.702,66.667,375.000,1.000,2.481,0.000
9966.015,9693.565,11016.900,10166.440,9682.111,10502.980,10215.450,9818.929,-0.136,0.928,-0.328,-4.242,4.761,0.702,66.667,376.000,1.000,4.329,0.000
9786.822,9500.085,10815.360,9986.047,9506.416,10315.600,10032.460,9643.455,-0.134,0.928,-0.329,-4.181,4.913,0.824,66.667,377.000,1.000,0.009,0.000
9603.131,9294.089,10608.660,9798.948,9324.978,10119.430,9845.909,9466.145,-0.133,0.926,-0.327,-3.998,5.096,1.038,66.667,378.000,1.000,13.211,0.000
9422.300,9123.666,10408.350,9614.075,9148.019,9928.929,9662.447,9290.645,-0.131,0.922,-0.328,-3.876,5.280,1.251,66.667,379.000,1.000,7.382,0.000
9243.906,8972.147,10212.510,9432.690,8974.938,9745.188,9481.408,9116.330,-0.133,0.920,-0.333,-3.754,5.554,1.312,66.667,380.000,1.000,0.010,0.000
9064.392,8806.853,10015.390,9250.194,8800.700,9561.454,9298.706,8940.733,-0.135,0.917,-0.333,-3.601,5.737,1.282,66.667,381.000,1.000,0.004,0.000
8885.978,8632.337,9820.026,9069.246,8627.582,9377.279,9116.110,8766.610,-0.134,0.915,-0.334,-3.387,5.768,1.099,66.667,382.000,1.000,5.690,0.000
8709.908,8461.036,9626.667,8887.587,8455.806,9190.640,8934.214,8593.300,-0.132,0.914,-0.334,-2.991,5.829,0.977,66.667,383.000,1.000,0.017,0.000
8535.733,8289.603,9433.191,8705.782,8284.430,9000.888,8751.121,8419.153,-0.130,0.912,-0.334,-2.686,6.073,0.885,66.667,384.000,1.000,1.862,0.000
8362.491,8111.409,9239.582,8530.243,8114.383,8810.669,8567.954,8246.905,-0.131,0.909,-0.336,-2.411,6.348,0.824,66.667,385.000,1.000,13.773,0.000
8187.764,7939.763,9045.063,8353.208,7944.234,8621.997,8385.138,8074.155,-0.135,0.908,-0.336,-1.984,6.531,0.610,66.667,386.000,1.000,2.998,0.000
8011.317,7778.031,8848.605,8166.220,7773.086,8437.479,8202.514,7898.313,-0.141,0.910,-0.333,-1.617,6.653,0.397,66.667,387.000,1.000,0.015,0.000
7834.753,7603.818,8649.854,7978.683,7601.465,8254.210,8022.020,7723.409,-0.144,0.915,-0.335,-1.465,6.622,0.275,66.667,388.000,1.000,2.514,0.000
7659.401,7420.833,8452.196,7799.870,7430.452,8068.012,7843.539,7551.013,-0.146,0.921,-0.337,-1.099,6.561,0.000,66.667,389.000,1.000,0.011,0.000
7483.918,7246.128,8258.265,7625.245,7261.300,7881.600,7664.921,7379.706,-0.145,0.924,-0.339,-0.885,6.439,-0.336,66.667,390.000,1.000,13.181,0.000
7307.588,7081.268,8066.992,7446.947,7094.284,7698.547,7486.456,7208.857,-0.143,0.929,-0.338,-0.885,6.317,-0.519,66.667,391.000,1.000,9.774,0.000
7134.458,6923.633,7878.466,7267.701,6929.788,7519.682,7310.961,7038.803,-0.142,0.930,-0.334,-0.824,6.195,-0.702,66.667,392.000,1.000,0.011,0.000
6965.905,6763.752,7692.404,7095.706,6767.553,7342.664,7139.565,6872.025,-0.141,0.932,-0.335,-0.916,5.951,-0.916,66.667,393.000,1.000,0.005,0.000
6799.148,6605.752,7508.655,6928.078,6607.218,7167.436,6971.235,6709.034,-0.143,0.932,-0.333,-0.885,5.829,-1.038,66.667,394.000,1.000,8.294,0.000
6630.293,6451.341,7324.350,6755.733,6445.514,6992.996,6801.619,6544.344,-0.146,0.935,-0.338,-0.916,5.554,-1.099,66.667,395.000,1.000,0.007,0.000
6457.513,6276.764,7133.851,6581.048,6277.521,6811.686,6626.481,6375.270,-0.147,0.936,-0.340,-0.885,5.310,-1.282,66.667,396.000,1.000,1.874,0.000
6286.669,6089.571,6941.603,6410.125,6108.427,6626.215,6450.917,6207.886,-0.151,0.938,-0.337,-1.007,5.096,-1.343,66.667,397.000,1.000,9.278,0.000
6122.343,5926.311,6757.236,6242.986,5947.542,6450.425,6282.070,6046.605,-0.149,0.940,-0.335,-1.007,4.761,-1.465,66.667,398.000,1.000,0.016,0.000
5959.115,5781.575,6576.587,6075.440,5789.612,6281.785,6114.924,5886.133,-0.146,0.940,-0.335,-1.099,4.395,-1.495,66.667,399.000,1.000,6.219,0.000
5797.067,5629.983,6393.732,5906.204,5626.906,6107.323,5942.177,5721.400,-0.145,0.938,-0.336,-1.160,4.059,-1.404,66.667,400.000,1.000,0.006,0.000
5639.847,5471.428,6212.061,5741.671,5464.114,5929.974,5767.143,5555.429,-0.147,0.939,-0.334,-1.251,3.845,-1.251,66.667,401.000,1.000,2.561,0.000
5480.952,5315.949,6029.951,5576.274,5303.292,5756.366,5592.973,5389.142,-0.149,0.938,-0.336,-1.404,3.540,-1.068,66.667,402.000,1.000,0.003,0.000
5318.001,5156.433,5843.496,5401.875,5140.526,5581.953,5419.122,5221.387,-0.153,0.939,-0.335,-1.343,3.143,-0.885,66.667,403.000,1.000,10.690,0.000
5156.624,4987.292,5657.460,5228.204,4978.411,5406.163,5249.701,5057.456,-0.157,0.938,-0.334,-1.434,2.777,-0.610,66.667,404.000,1.000,3.063,0.000
5000.017,4827.062,5478.648,5062.332,4822.115,5235.842,5086.188,4900.004,-0.160,0.936,-0.332,-1.556,2.380,-0.519,66.667,405.000,1.000,1.122,0.000
4842.364,4671.992,5301.789,4896.632,4667.169,5066.688,4921.226,4742.910,-0.160,0.934,-0.331,-1.556,2.228,-0.458,66.667,406.000,1.000,7.031,0.000
4678.004,4504.339,5119.609,4726.620,4507.733,4889.688,4750.029,4581.714,-0.156,0.927,-0.330,-1.404,1.709,-0.214,66.667,407.000,1.000,6.244,0.000
4514.432,4343.892,4939.020,4559.629,4348.634,4711.870,4577.235,4418.390,-0.157,0.921,-0.331,-1.251,1.404,0.000,66.667,408.000,1.000,2.544,0.000
4356.914,4201.790,4764.562,4397.562,4193.794,4542.938,4408.927,4255.644,-0.157,0.918,-0.333,-0.916,1.099,0.092,66.667,409.000,1.000,2.516,0.000
4202.051,4054.989,4590.806,4236.944,4040.222,4377.731,4246.040,4096.582,-0.156,0.912,-0.332,-0.580,0.916,0.366,66.667,410.000,1.000,2.410,0.000
4048.245,3897.751,4416.539,4077.549,3886.964,4210.689,4086.584,3942.523,-0.155,0.909,-0.333,-0.214,0.671,0.732,66.667,411.000,1.000,6.343,0.000
3894.870,3741.727,4244.843,3921.469,3736.188,4045.838,3929.198,3790.705,-0.153,0.909,-0.338,0.336,0.397,0.977,66.667,412.000,1.000,3.033,0.000
3740.320,3597.066,4075.698,3766.723,3588.125,3885.213,3771.913,3637.862,-0.147,0.907,-0.331,0.793,0.275,1.404,66.667,413.000,1.000,0.008,0.000
3582.292,3449.374,3901.983,3605.319,3436.799,3720.249,3610.465,3481.417,-0.145,0.908,-0.332,1.312,0.305,1.862,66.667,414.000,1.000,15.704,0.000
3420.869,3274.007,3719.664,3438.344,3279.140,3545.621,3445.622,3323.249,-0.143,0.909,-0.331,1.770,0.336,2.167,66.667,415.000,1.000,3.034,0.000
3262.636,3097.630,3538.839,3273.928,3122.914,3372.521,3283.487,3167.477,-0.138,0.908,-0.335,2.197,0.427,2.594,66.667,416.000,1.000,0.015,0.000
3110.661,2949.876,3366.473,3115.281,2971.698,3208.162,3124.482,3013.734,-0.135,0.909,-0.338,2.594,0.519,3.052,66.667,417.000,1.000,1.904,0.000
2959.685,2811.672,3197.443,2958.201,2821.252,3047.328,2964.986,2859.587,-0.134,0.910,-0.337,3.082,0.641,3.204,66.667,418.000,1.000,2.434,0.000
2806.901,2667.663,3028.581,2798.103,2670.699,2885.138,2803.545,2704.540,-0.131,0.914,-0.337,3.479,0.885,3.448,66.667,419.000,1.000,2.585,0.000
2653.457,2527.822,2861.343,2639.463,2522.169,2721.683,2642.518,2550.465,-0.130,0.918,-0.338,3.815,1.129,3.662,66.667,420.000,1.000,13.697,0.000
2499.081,2391.986,2694.747,2485.330,2376.385,2561.836,2487.206,2400.632,-0.127,0.921,-0.336,4.120,1.526,3.967,66.667,421.000,1.000,5.604,0.000
2344.003,2246.110,2526.166,2330.381,2230.737,2404.714,2335.323,2253.214,-0.126,0.924,-0.337,4.242,1.923,3.967,66.667,422.000,1.000,0.008,0.000
2187.837,2088.868,2354.210,2171.977,2081.168,2242.206,2177.753,2101.131,-0.125,0.927,-0.339,4.272,2.167,4.028,66.667,423.000,1.000,1.910,0.000
2027.590,1929.894,2178.371,2009.441,1926.791,2074.128,2014.879,1943.531,-0.123,0.928,-0.340,4.181,2.563,4.120,66.667,424.000,1.000,2.529,0.000
1864.334,1770.591,2000.573,1841.029,1769.869,1907.125,1853.443,1785.560,-0.120,0.929,-0.344,4.272,2.808,4.120,66.667,425.000,1.000,2.387,0.000
1704.516,1615.662,1826.511,1673.610,1614.679,1742.507,1693.610,1631.060,-0.118,0.930,-0.343,4.272,3.235,4.028,66.667,426.000,1.000,2.603,0.000
1552.949,1474.881,1660.628,1516.812,1465.356,1581.364,1534.661,1480.843,-0.116,0.932,-0.345,4.242,3.510,3.937,66.667,427.000,1.000,3.731,0.000
1408.139,1338.925,1499.492,1369.092,1321.390,1426.213,1379.914,1333.547,-0.115,0.929,-0.343,4.150,3.998,3.876,66.667,428.000,1.000,9.316,0.000
1260.873,1187.476,1331.928,1218.940,1174.748,1266.957,1225.063,1184.972,-0.112,0.928,-0.345,4.089,4.578,3.693,66.667,429.000,1.000,0.014,0.000
1104.456,1020.496,1152.753,1059.250,1019.830,1096.660,1062.937,1031.749,-0.112,0.927,-0.346,4.028,5.035,3.387,66.667,430.000,1.000,1.896,0.000
945.056,860.107,972.384,896.542,863.916,927.940,899.294,877.741,-0.114,0.927,-0.344,3.906,5.371,3.204,66.667,431.000,1.000,8.785,0.000
791.476,721.942,802.521,739.921,716.485,770.461,744.426,729.485,-0.116,0.927,-0.347,3.784,5.890,2.991,66.667,432.000,1.000,3.031,0.000
642.164,587.723,640.754,589.245,575.760,618.140,595.852,586.327,-0.120,0.925,-0.347,3.632,6.165,2.838,66.667,433.000,1.000,0.008,0.000
490.807,436.179,478.780,438.724,434.538,462.672,444.598,441.738,-0.117,0.925,-0.349,3.601,6.287,2.686,66.667,434.000,1.000,1.909,0.000
340.367,289.674,318.949,288.985,294.533,308.188,292.944,295.637,-0.115,0.922,-0.352,3.540,6.439,2.380,66.667,435.000,1.000,13.791,0.000
195.011,157.613,163.214,142.833,158.064,158.475,145.911,151.940,-0.113,0.925,-0.357,3.571,6.805,2.136,66.667,436.000,1.000,2.985,0.000
47.764,16.643,2.398,-5.724,17.514,4.497,-2.420,7.665,-0.114,0.927,-0.354,3.571,7.294,2.014,66.667,437.000,1.000,0.010,0.000
-105.410,-133.466,-166.625,-160.762,-131.367,-156.915,-157.673,-141.170,-0.115,0.929,-0.353,3.387,7.416,1.709,66.667,438.000,1.000,1.936,0.000
-255.778,-276.411,-333.853,-315.435,-280.233,-313.962,-313.212,-290.350,-0.117,0.929,-0.356,3.204,7.629,1.556,66.667,439.000,1.000,3.698,0.000
-399.424,-413.337,-494.167,-464.970,-422.358,-462.495,-462.748,-434.823,-0.117,0.928,-0.354,3.021,7.904,1.251,66.667,440.000,1.000,15.594,0.000
-542.248,-552.550,-651.566,-612.105,-559.761,-609.979,-608.816,-575.427,-0.116,0.930,-0.354,2.808,8.057,0.854,66.667,441.000,1.000,0.014,0.000
-684.790,-691.588,-807.394,-757.990,-694.338,-758.444,-753.878,-714.926,-0.115,0.933,-0.357,2.716,8.240,0.671,66.667,442.000,1.000,1.921,0.000
-826.983,-835.037,-965.887,-904.803,-830.887,-911.035,-900.524,-856.075,-0.115,0.936,-0.360,2.441,8.392,0.610,66.667,443.000,1.000,2.543,0.000
-968.906,-974.072,-1126.858,-1051.165,-969.199,-1063.399,-1047.925,-996.141,-0.117,0.938,-0.359,2.319,8.484,0.275,66.667,444.000,1.000,2.471,0.000
-1111.431,-1101.064,-1286.190,-1194.129,-1105.967,-1209.224,-1193.740,-1133.547,-0.120,0.940,-0.358,2.014,8.514,0.061,66.667,445.000,1.000,2.522,0.000
-1259.381,-1234.763,-1447.284,-1339.452,-1245.162,-1357.388,-1339.972,-1273.645,-0.122,0.943,-0.355,1.709,8.606,-0.397,66.667,446.000,1.000,15.014,0.000
-1410.007,-1378.089,-1609.272,-1488.503,-1385.144,-1509.954,-1484.605,-1414.841,-0.123,0.943,-0.357,1.373,8.667,-0.702,66.667,447.000,1.000,3.051,0.000
-1556.771,-1517.863,-1767.147,-1635.307,-1521.497,-1661.968,-1626.124,-1552.687,-0.126,0.944,-0.359,1.068,8.545,-1.068,66.667,448.000,1.000,0.011,0.000
-1698.281,-1644.282,-1919.147,-1777.176,-1654.754,-1811.830,-1767.906,-1689.472,-0.128,0.940,-0.359,0.793,8.514,-1.282,66.667,449.000,1.000,1.907,0.000
-1840.407,-1778.020,-2071.962,-1919.651,-1789.967,-1960.705,-1911.625,-1828.812,-0.129,0.934,-0.363,0.549,8.362,-1.556,66.667,450.000,1.000,2.494,0.000
-1985.009,-1932.381,-2230.281,-2067.252,-1930.381,-2111.137,-2057.478,-1972.135,-0.130,0.930,-0.363,0.336,8.240,-1.709,66.667,451.000,1.000,2.447,0.000
-2125.928,-2073.456,-2386.629,-2213.954,-2070.248,-2259.358,-2203.021,-2114.987,-0.133,0.927,-0.360,0.275,8.026,-1.831,66.667,452.000,1.000,3.791,0.000
-2262.682,-2198.709,-2538.449,-2355.116,-2205.931,-2402.309,-2344.242,-2250.890,-0.132,0.925,-0.359,0.275,7.843,-1.923,66.667,453.000,1.000,4.344,0.000
-2399.211,-2336.375,-2691.249,-2494.433,-2341.900,-2546.363,-2484.315,-2383.684,-0.135,0.925,-0.361,0.275,7.660,-2.075,66.667,454.000,1.000,0.006,0.000
-2536.327,-2477.294,-2845.444,-2634.678,-2479.723,-2695.143,-2628.279,-2520.555,-0.135,0.924,-0.360,0.153,7.416,-2.319,66.667,455.000,1.000,13.226,0.000
-2675.214,-2610.574,-3000.587,-2777.521,-2617.564,-2843.975,-2773.830,-2660.142,-0.131,0.924,-0.358,0.092,7.141,-2.380,66.667,456.000,1.000,3.018,0.000
-2817.550,-2750.093,-3159.245,-2923.733,-2756.393,-2992.101,-2918.628,-2798.671,-0.128,0.919,-0.357,0.122,6.989,-2.350,66.667,457.000,1.000,0.006,0.000
-2960.070,-2892.002,-3318.438,-3068.708,-2895.352,-3140.172,-3062.336,-2935.322,-0.129,0.916,-0.359,0.336,6.836,-2.502,66.667,458.000,1.000,1.955,0.000
-3099.020,-3026.640,-3473.417,-3209.104,-3031.289,-3284.870,-3203.125,-3070.771,-0.134,0.918,-0.359,0.397,6.805,-2.563,66.667,459.000,1.000,3.686,0.000
-3233.166,-3157.129,-3623.167,-3346.780,-3162.932,-3426.175,-3341.258,-3205.448,-0.133,0.921,-0.359,0.580,6.592,-2.533,66.667,460.000,1.000,8.826,0.000
-3362.968,-3282.851,-3768.970,-3484.146,-3291.804,-3567.000,-3479.025,-3339.628,-0.130,0.922,-0.354,0.702,6.439,-2.533,66.667,461.000,1.000,4.284,0.000
-3492.342,-3407.054,-3914.431,-3621.426,-3421.264,-3709.770,-3617.121,-3473.575,-0.128,0.923,-0.354,0.732,6.378,-2.563,66.667,462.000,1.000,0.008,0.000
-3625.589,-3536.604,-4061.841,-3758.976,-3551.607,-3852.134,-3752.757,-3605.748,-0.130,0.925,-0.357,0.824,6.256,-2.411,66.667,463.000,1.000,11.256,0.000
-3761.969,-3669.321,-4209.662,-3896.922,-3680.783,-3990.940,-3886.264,-3736.462,-0.129,0.925,-0.359,0.824,6.348,-2.289,66.667,464.000,1.000,0.009,0.000
-3894.903,-3794.657,-4354.180,-4032.215,-3807.693,-4129.060,-4022.168,-3868.237,-0.129,0.926,-0.356,0.824,6.409,-2.075,66.667,465.000,1.000,13.750,0.000
-4021.728,-3909.748,-4494.401,-4162.220,-3931.265,-4266.682,-4158.328,-3999.151,-0.126,0.925,-0.359,0.946,6.317,-1.831,66.667,466.000,1.000,0.016,0.000
-4150.453,-4033.312,-4636.784,-4292.560,-4054.755,-4403.383,-4292.433,-4128.933,-0.127,0.923,-0.360,1.007,6.378,-1.617,66.667,467.000,1.000,3.053,0.000
-4286.267,-4171.477,-4785.277,-4428.984,-4182.200,-4543.191,-4428.452,-4260.936,-0.127,0.924,-0.359,1.160,6.409,-1.465,66.667,468.000,1.000,0.008,0.000
-4422.457,-4303.810,-4933.457,-4566.886,-4309.415,-4683.170,-4564.164,-4391.222,-0.126,0.922,-0.357,1.282,6.378,-1.343,66.667,469.000,1.000,0.005,0.000
-4553.162,-4425.326,-5076.865,-4701.085,-4431.720,-4816.319,-4693.573,-4514.858,-0.125,0.923,-0.357,1.282,6.378,-1.129,66.667,470.000,1.000,9.390,0.000
-4680.863,-4551.832,-5219.654,-4832.420,-4553.333,-4948.348,-4820.136,-4635.809,-0.123,0.923,-0.356,1.343,6.531,-1.007,66.667,471.000,1.000,0.013,0.000
-4807.255,-4683.643,-5363.022,-4963.668,-4677.704,-5084.688,-4949.408,-4759.247,-0.124,0.923,-0.359,1.373,6.714,-0.824,66.667,472.000,1.000,1.919,0.000
-4931.730,-4807.440,-5502.595,-5094.639,-4800.743,-5218.177,-5079.468,-4884.462,-0.125,0.923,-0.362,1.343,6.805,-0.610,66.667,473.000,1.000,2.431,0.000
-5055.735,-4926.786,-5638.284,-5223.085,-4920.667,-5346.798,-5206.797,-5007.656,-0.126,0.923,-0.362,1.434,6.744,-0.519,66.667,474.000,1.000,10.024,0.000
-5179.667,-5044.368,-5772.553,-5350.509,-5039.866,-5474.900,-5332.743,-5128.717,-0.127,0.921,-0.362,1.465,6.866,-0.366,66.667,475.000,1.000,9.883,0.000
-5304.910,-5160.843,-5908.433,-5479.251,-5160.666,-5605.342,-5461.011,-5250.884,-0.126,0.924,-0.359,1.587,6.958,-0.305,66.667,476.000,1.000,0.011,0.000
-5433.515,-5282.649,-6048.190,-5607.933,-5283.171,-5737.835,-5591.310,-5374.945,-0.125,0.923,-0.363,1.678,6.897,-0.305,66.667,477.000,1.000,0.003,0.000
-5564.577,-5404.399,-6190.805,-5738.187,-5406.915,-5871.204,-5722.718,-5502.258,-0.123,0.921,-0.364,1.495,7.019,-0.183,66.667,478.000,1.000,3.230,0.000
-5697.139,-5526.366,-6335.946,-5870.819,-5533.213,-6009.193,-5856.490,-5633.462,-0.125,0.920,-0.364,1.495,7.019,-0.061,66.667,479.000,1.000,0.005,0.000
-5827.751,-5650.935,-6480.311,-6000.877,-5659.267,-6150.407,-5990.667,-5763.476,-0.126,0.918,-0.365,1.465,7.050,-0.061,66.667,480.000,1.000,24.410,0.000
-5954.462,-5772.248,-6620.982,-6130.628,-5782.825,-6287.519,-6123.240,-5890.576,-0.126,0.917,-0.366,1.465,7.111,-0.153,66.667,481.000,1.000,3.059,0.000
-6079.852,-5887.791,-6759.371,-6262.823,-5905.619,-6419.738,-6254.079,-6016.674,-0.124,0.917,-0.365,1.495,7.202,-0.061,66.667,482.000,1.000,0.007,0.000
-6204.600,-6000.382,-6895.768,-6391.873,-6026.993,-6550.612,-6381.913,-6140.052,-0.123,0.918,-0.370,1.587,7.294,-0.092,66.667,483.000,1.000,2.463,0.000
-6330.036,-6124.125,-7033.186,-6517.780,-6148.471,-6682.795,-6509.098,-6262.074,-0.125,0.917,-0.370,1.648,7.355,-0.061,66.667,484.000,1.000,0.004,0.000
-6456.549,-6266.716,-7174.973,-6644.934,-6273.770,-6817.734,-6639.813,-6386.584,-0.122,0.919,-0.367,1.556,7.385,0.031,66.667,485.000,1.000,1.948,0.000
-6578.229,-6406.764,-7315.382,-6769.887,-6398.519,-6951.544,-6770.363,-6509.896,-0.123,0.920,-0.367,1.465,7.416,0.031,66.667,486.000,1.000,2.507,0.000
-6690.875,-6522.106,-7446.899,-6886.867,-6514.650,-7077.230,-6893.294,-6625.699,-0.123,0.919,-0.364,1.465,7.477,0.122,66.667,487.000,1.000,14.243,0.000
-6801.319,-6624.804,-7574.172,-7002.019,-6625.520,-7197.313,-7011.217,-6738.544,-0.124,0.919,-0.369,1.343,7.385,0.153,66.667,488.000,1.000,0.011,0.000
-6920.176,-6737.850,-7708.146,-7127.375,-6742.118,-7322.249,-7134.093,-6858.402,-0.123,0.922,-0.369,1.282,7.507,0.061,66.667,489.000,1.000,1.932,0.000
-7048.255,-6857.656,-7849.935,-7261.745,-6866.795,-7454.043,-7264.323,-6985.668,-0.122,0.924,-0.373,1.221,7.507,-0.092,66.667,490.000,1.000,2.554,0.000
-7175.438,-6969.344,-7989.995,-7394.567,-6991.584,-7585.239,-7395.519,-7113.124,-0.122,0.927,-0.369,1.099,7.507,-0.183,66.667,491.000,1.000,2.490,0.000
-7295.591,-7082.427,-8123.280,-7521.059,-7110.843,-7713.494,-7522.652,-7235.534,-0.121,0.929,-0.368,1.007,7.538,-0.183,66.667,492.000,1.000,8.773,0.000
-7411.460,-7207.033,-8252.514,-7640.846,-7225.199,-7839.294,-7645.152,-7351.470,-0.124,0.930,-0.369,0.885,7.599,-0.122,66.667,493.000,1.000,2.429,0.000
-7524.802,-7328.451,-8379.239,-7754.489,-7336.393,-7961.503,-7764.375,-7462.438,-0.123,0.929,-0.368,0.732,7.385,-0.275,66.667,494.000,1.000,3.134,0.000
-7637.820,-7440.000,-8505.641,-7868.354,-7447.755,-8084.775,-7883.101,-7573.960,-0.125,0.928,-0.370,0.702,7.263,-0.214,66.667,495.000,1.000,0.014,0.000
-7753.474,-7552.855,-8635.171,-7988.915,-7562.486,-8212.636,-8003.590,-7690.507,-0.124,0.929,-0.370,0.458,7.233,-0.244,66.667,496.000,1.000,1.834,0.000
-7872.345,-7673.781,-8769.320,-8114.733,-7681.830,-8342.869,-8127.429,-7811.990,-0.127,0.928,-0.372,0.214,7.141,-0.275,66.667,497.000,1.000,9.365,0.000
-7992.168,-7795.211,-8905.513,-8240.457,-7804.153,-8473.354,-8253.952,-7935.800,-0.127,0.929,-0.366,0.031,7.019,-0.397,66.667,498.000,1.000,0.015,0.000
-8108.204,-7905.207,-9037.332,-8361.791,-7923.078,-8600.537,-8377.904,-8056.765,-0.129,0.928,-0.371,-0.153,6.714,-0.427,66.667,499.000,1.000,2.473,0.000
-8221.086,-8006.105,-9163.323,-8479.413,-8035.412,-8721.738,-8496.312,-8171.950,-0.128,0.927,-0.373,-0.336,6.470,-0.458,66.667,500.000,1.000,0.007,0.000
-8337.472,-8116.008,-9290.722,-8597.519,-8147.960,-8842.997,-8614.926,-8287.427,-0.130,0.928,-0.371,-0.519,6.256,-0.610,66.667,501.000,1.000,13.130,0.000
-8459.713,-8239.387,-9423.783,-8719.363,-8265.908,-8969.858,-8739.358,-8409.460,-0.128,0.929,-0.370,-0.641,6.042,-0.702,66.667,502.000,1.000,2.542,0.000
-8581.100,-8358.211,-9555.450,-8841.361,-8381.869,-9095.497,-8863.740,-8530.960,-0.128,0.930,-0.373,-0.824,5.890,-0.671,66.667,503.000,1.000,2.482,0.000
-8696.049,-8461.292,-9679.470,-8958.216,-8488.729,-9211.162,-8979.586,-8643.020,-0.126,0.930,-0.374,-0.885,5.646,-0.824,66.667,504.000,1.000,2.535,0.000
-8804.831,-8554.182,-9796.568,-9066.620,-8587.744,-9316.975,-9085.488,-8744.796,-0.127,0.930,-0.375,-1.068,5.432,-0.885,66.667,505.000,1.000,2.427,0.000
-8912.864,-8655.409,-9914.069,-9169.529,-8687.603,-9426.456,-9190.736,-8843.777,-0.128,0.929,-0.376,-1.373,5.249,-0.977,66.667,506.000,1.000,9.389,0.000
-9028.290,-8778.334,-10042.150,-9283.013,-8798.695,-9550.506,-9307.268,-8952.165,-0.128,0.928,-0.375,-1.495,4.974,-1.038,66.667,507.000,1.000,0.016,0.000
-9146.217,-8902.441,-10174.390,-9407.045,-8914.433,-9675.691,-9428.809,-9066.861,-0.129,0.927,-0.373,-1.648,4.608,-1.099,66.667,508.000,1.000,1.845,0.000
-9257.828,-9008.064,-10299.290,-9525.577,-9023.765,-9791.938,-9544.553,-9177.508,-0.130,0.925,-0.372,-1.892,4.364,-1.221,66.667,509.000,1.000,8.808,0.000
-9368.511,-9111.306,-10422.110,-9639.070,-9131.115,-9908.809,-9658.416,-9286.767,-0.129,0.925,-0.373,-2.045,4.120,-1.282,66.667,510.000,1.000,2.989,0.000
-9482.136,-9222.068,-10547.060,-9752.858,-9239.697,-10027.170,-9772.775,-9397.462,-0.130,0.925,-0.374,-2.197,3.693,-1.282,66.667,511.000,1.000,0.010,0.000
-9592.611,-9329.367,-10669.040,-9864.554,-9345.605,-10140.580,-9883.738,-9505.550,-0.131,0.924,-0.376,-2.350,3.326,-1.312,66.667,512.000,1.000,1.909,0.000
-9698.672,-9431.462,-10788.430,-9975.517,-9450.580,-10255.080,-9994.567,-9611.868,-0.130,0.924,-0.376,-2.533,3.021,-1.465,66.667,513.000,1.000,14.292,0.000
-9804.032,-9536.355,-10908.210,-10086.850,-9556.440,-10374.320,-10107.770,-9719.007,-0.130,0.925,-0.373,-2.808,2.747,-1.556,66.667,514.000,1.000,0.009,0.000
-9910.087,-9644.151,-11027.200,-10196.870,-9660.423,-10490.900,-10217.530,-9824.947,-0.130,0.923,-0.371,-2.869,2.380,-1.526,66.667,515.000,1.000,1.867,0.000
-10016.930,-9746.377,-11145.260,-10307.740,-9763.235,-10603.610,-10324.100,-9930.233,-0.131,0.924,-0.371,-2.960,2.136,-1.526,66.667,516.000,1.000,2.612,0.000
-10123.620,-9845.354,-11263.900,-10418.950,-9867.908,-10717.950,-10433.910,-10037.000,-0.133,0.925,-0.370,-2.991,2.014,-1.526,66.667,517.000,1.000,3.650,0.000
-10230.090,-9953.380,-11384.750,-10529.570,-9976.527,-10836.730,-10548.030,-10145.170,-0.133,0.925,-0.367,-3.113,1.495,-1.617,66.667,518.000,1.000,11.836,0.000
-10335.910,-10066.270,-11505.750,-10640.500,-10086.510,-10955.700,-10662.400,-10253.470,-0.131,0.928,-0.369,-3.296,1.282,-1.556,66.667,519.000,1.000,0.016,0.000
-10440.560,-10170.120,-11623.070,-10749.970,-10191.910,-11068.470,-10772.650,-10359.410,-0.130,0.927,-0.370,-3.479,1.068,-1.465,66.667,520.000,1.000,4.518,0.000
-10548.750,-10269.210,-11740.750,-10861.590,-10294.740,-11176.950,-10880.200,-10464.210,-0.129,0.927,-0.370,-3.510,0.671,-1.343,66.667,521.000,1.000,2.367,0.000
-10661.970,-10371.450,-11862.050,-10977.210,-10399.000,-11284.990,-10988.480,-10570.280,-0.128,0.924,-0.368,-3.754,0.427,-1.282,66.667,522.000,1.000,3.177,0.000
-10773.240,-10471.200,-11981.710,-11089.080,-10501.340,-11390.810,-11095.540,-10674.940,-0.127,0.925,-0.367,-3.876,0.305,-1.190,66.667,523.000,1.000,0.009,0.000
-10879.520,-10569.210,-12097.870,-11194.360,-10600.290,-11495.120,-11199.880,-10776.590,-0.126,0.924,-0.364,-3.876,0.122,-1.099,66.667,524.000,1.000,8.149,0.000
-10983.610,-10675.460,-12214.290,-11296.330,-10699.940,-11603.360,-11305.210,-10877.590,-0.126,0.922,-0.370,-3.876,-0.092,-1.038,66.667,525.000,1.000,4.337,0.000
-11087.020,-10787.790,-12331.900,-11397.900,-10801.550,-11715.800,-11413.360,-10979.060,-0.124,0.919,-0.368,-3.845,-0.244,-0.854,66.667,526.000,1.000,0.010,0.000
-11188.740,-10892.100,-12447.540,-11500.330,-10901.510,-11826.550,-11520.420,-11079.180,-0.123,0.918,-0.367,-3.815,-0.427,-0.854,66.667,527.000,1.000,10.655,0.000
-11289.850,-10986.970,-12561.370,-11605.530,-11000.330,-11935.270,-11626.240,-11179.220,-0.122,0.919,-0.368,-3.693,-0.427,-0.824,66.667,528.000,1.000,3.056,0.000
-11393.080,-11083.680,-12676.290,-11715.690,-11101.150,-12044.590,-11733.710,-11281.040,-0.120,0.917,-0.365,-3.571,-0.549,-0.519,66.667,529.000,1.000,0.010,0.000
-11495.860,-11182.430,-12789.770,-11824.970,-11201.170,-12152.420,-11840.190,-11381.650,-0.116,0.915,-0.369,-3.387,-0.610,-0.488,66.667,530.000,1.000,3.233,0.000
-11598.900,-11279.940,-12901.680,-11930.460,-11300.010,-12258.800,-11944.070,-11481.670,-0.114,0.916,-0.370,-3.204,-0.671,-0.397,66.667,531.000,1.000,9.189,0.000
-11708.140,-11380.890,-13016.870,-12037.790,-11401.950,-12367.600,-12048.350,-11584.200,-0.113,0.915,-0.368,-3.082,-0.641,-0.244,66.667,532.000,1.000,0.019,0.000
-11821.720,-11486.460,-13134.630,-12146.810,-11506.210,-12480.760,-12154.620,-11687.590,-0.113,0.914,-0.371,-2.930,-0.519,-0.153,66.667,533.000,1.000,1.973,0.000
-11931.930,-11589.490,-13249.880,-12253.000,-11608.650,-12594.920,-12261.800,-11790.300,-0.115,0.914,-0.370,-2.899,-0.366,0.031,66.667,534.000,1.000,14.929,0.000
-12035.190,-11683.000,-13360.370,-12354.910,-11707.110,-12703.490,-12367.520,-11891.750,-0.114,0.913,-0.368,-2.838,-0.336,0.122,66.667,535.000,1.000,3.737,0.000
-12132.790,-11774.400,-13467.960,-12454.340,-11802.680,-12807.340,-12470.040,-11989.710,-0.114,0.914,-0.370,-2.777,-0.214,0.214,66.667,536.000,1.000,0.010,0.000
-12228.920,-11875.650,-13577.220,-12555.780,-11900.270,-12915.620,-12572.420,-12086.170,-0.115,0.915,-0.373,-2.563,-0.122,0.061,66.667,537.000,1.000,0.003,0.000
-12327.600,-11982.050,-13690.240,-12660.580,-12001.960,-13028.970,-12677.830,-12185.330,-0.114,0.917,-0.374,-2.472,0.000,0.122,66.667,538.000,1.000,2.543,0.000
-12425.700,-12079.180,-13801.880,-12763.970,-12101.640,-13137.560,-12781.920,-12285.580,-0.114,0.921,-0.371,-2.350,0.000,-0.092,66.667,539.000,1.000,6.267,0.000
-12522.460,-12170.540,-13911.630,-12866.100,-12198.300,-13242.060,-12883.840,-12386.130,-0.112,0.923,-0.371,-2.258,-0.031,-0.153,66.667,540.000,1.000,9.413,0.000
-12622.040,-12268.070,-14023.190,-12967.950,-12295.690,-13348.810,-12987.090,-12486.400,-0.112,0.922,-0.375,-2.258,0.153,-0.092,66.667,541.000,1.000,0.010,0.000
-12721.020,-12363.950,-14131.870,-13066.700,-12390.430,-13452.950,-13089.040,-12583.770,-0.108,0.922,-0.375,-2.167,0.214,-0.244,66.667,542.000,1.000,8.672,0.000
-12815.550,-12452.290,-14234.770,-13164.960,-12480.600,-13551.200,-13188.190,-12680.550,-0.107,0.922,-0.372,-2.167,0.458,-0.244,66.667,543.000,1.000,0.010,0.000
-12908.720,-12541.240,-14336.000,-13262.610,-12569.140,-13647.170,-13285.680,-12778.140,-0.110,0.924,-0.373,-2.136,0.549,-0.244,66.667,544.000,1.000,2.471,0.000
-13005.970,-12635.690,-14441.160,-13360.730,-12660.310,-13745.740,-13384.470,-12876.110,-0.110,0.924,-0.376,-2.106,0.702,-0.366,66.667,545.000,1.000,0.008,0.000
-13104.570,-12727.980,-14548.260,-13460.290,-12753.280,-13846.860,-13485.060,-12972.360,-0.112,0.921,-0.374,-2.106,0.854,-0.519,66.667,546.000,1.000,10.643,0.000
-13194.330,-12809.590,-14647.120,-13550.090,-12839.490,-13941.380,-13579.160,-13059.700,-0.108,0.918,-0.376,-1.923,1.068,-0.641,66.667,547.000,1.000,4.397,0.000
-13277.680,-12888.300,-14739.740,-13630.650,-12919.900,-14028.520,-13665.830,-13139.080,-0.109,0.913,-0.376,-1.892,1.282,-0.732,66.667,548.000,1.000,0.009,0.000
-13368.680,-12979.800,-14841.400,-13720.460,-13008.250,-14122.210,-13757.680,-13223.320,-0.109,0.911,-0.372,-1.770,1.465,-0.824,66.667,549.000,1.000,13.488,0.000
-13471.600,-13090.710,-14958.460,-13829.260,-13111.270,-14230.380,-13861.790,-13320.640,-0.111,0.912,-0.373,-1.648,1.495,-1.038,66.667,550.000,1.000,0.013,0.000
-13574.650,-13201.270,-15077.620,-13943.880,-13217.350,-14341.420,-13968.970,-13422.930,-0.115,0.915,-0.371,-1.587,1.648,-1.190,66.667,551.000,1.000,7.747,0.000
-13667.730,-13292.050,-15185.220,-14045.130,-13313.780,-14443.000,-14068.850,-13518.260,-0.120,0.918,-0.370,-1.526,1.709,-1.343,66.667,552.000,1.000,0.023,0.000
-13755.270,-13376.730,-15285.720,-14135.780,-13403.610,-14539.780,-14162.710,-13608.110,-0.124,0.919,-0.371,-1.526,1.709,-1.526,66.667,553.000,1.000,1.850,0.000
-13843.360,-13467.300,-15386.590,-14227.990,-13493.700,-14639.310,-14255.880,-13699.130,-0.126,0.922,-0.370,-1.465,1.678,-1.678,66.667,554.000,1.000,9.257,0.000
-13930.880,-13554.730,-15485.980,-14321.060,-13583.000,-14738.890,-14349.630,-13791.090,-0.128,0.924,-0.370,-1.373,1.556,-1.923,66.667,555.000,1.000,0.012,0.000
-14016.720,-13634.130,-15581.130,-14409.520,-13667.800,-14832.720,-14440.760,-13879.650,-0.125,0.926,-0.368,-1.526,1.526,-1.953,66.667,556.000,1.000,9.295,0.000
-14102.820,-13712.070,-15674.590,-14495.470,-13749.140,-14921.840,-14528.460,-13964.800,-0.124,0.927,-0.368,-1.648,1.465,-1.984,66.667,557.000,1.000,0.008,0.000
-14188.890,-13792.450,-15767.810,-14581.040,-13829.150,-15010.780,-14614.550,-14048.270,-0.124,0.929,-0.366,-1.648,1.465,-1.953,66.667,558.000,1.000,0.004,0.000
-14276.080,-13877.500,-15862.060,-14667.260,-13909.400,-15101.760,-14700.160,-14130.870,-0.123,0.930,-0.370,-1.801,1.343,-1.923,66.667,559.000,1.000,3.198,0.000
-14367.210,-13966.780,-15961.610,-14760.130,-13993.760,-15194.340,-14788.450,-14216.640,-0.126,0.931,-0.374,-1.892,1.282,-1.892,66.667,560.000,1.000,0.016,0.000
-14461.620,-14054.450,-16067.200,-14860.710,-14083.540,-15287.170,-14882.060,-14308.340,-0.128,0.930,-0.369,-2.106,1.221,-1.831,66.667,561.000,1.000,10.645,0.000
-14557.830,-14141.590,-16174.530,-14961.460,-14174.980,-15380.420,-14978.280,-14403.070,-0.131,0.932,-0.369,-2.167,1.282,-1.709,66.667,562.000,1.000,3.099,0.000
-14652.570,-14230.490,-16278.580,-15056.290,-14263.710,-15473.730,-15072.830,-14496.180,-0.131,0.930,-0.368,-2.441,1.190,-1.587,66.667,563.000,1.000,0.014,0.000
-14744.040,-14317.980,-16378.850,-15147.610,-14350.380,-15566.490,-15165.670,-14587.170,-0.130,0.929,-0.369,-2.594,1.099,-1.587,66.667,564.000,1.000,1.954,0.000
-14831.950,-14399.550,-16474.700,-15236.000,-14435.030,-15656.850,-15255.320,-14673.930,-0.128,0.929,-0.371,-2.625,1.038,-1.617,66.667,565.000,1.000,8.750,0.000
-14915.810,-14474.750,-16565.320,-15318.730,-14516.260,-15743.610,-15339.920,-14754.030,-0.128,0.928,-0.368,-2.777,0.916,-1.526,66.667,566.000,1.000,2.461,0.000
-14999.250,-14551.610,-16656.490,-15401.320,-14598.250,-15830.350,-15424.370,-14833.500,-0.129,0.927,-0.369,-2.960,0.854,-1.343,66.667,567.000,1.000,3.676,0.000
-15085.910,-14640.880,-16753.410,-15489.410,-14685.430,-15922.940,-15514.200,-14918.690,-0.128,0.925,-0.367,-3.204,0.732,-1.312,66.667,568.000,1.000,9.340,0.000
-15175.280,-14739.910,-16854.160,-15581.760,-14775.510,-16021.340,-15607.960,-15007.280,-0.130,0.923,-0.365,-3.387,0.610,-1.190,66.667,569.000,1.000,0.008,0.000
-15265.490,-14833.230,-16953.780,-15675.100,-14862.810,-16117.400,-15699.670,-15093.470,-0.131,0.921,-0.363,-3.510,0.549,-1.038,66.667,570.000,1.000,4.387,0.000
-15353.820,-14917.100,-17049.440,-15765.670,-14945.780,-16207.650,-15787.100,-15176.870,-0.133,0.919,-0.365,-3.571,0.397,-0.885,66.667,571.000,1.000,2.477,0.000
-15438.420,-14997.220,-17141.540,-15852.620,-15025.890,-16294.740,-15871.750,-15259.710,-0.133,0.920,-0.370,-3.815,0.214,-0.824,66.667,572.000,1.000,3.814,0.000
-15521.410,-15075.520,-17232.900,-15937.390,-15104.060,-16379.540,-15954.420,-15340.520,-0.135,0.920,-0.370,-3.967,0.061,-0.763,66.667,573.000,1.000,8.700,0.000
-15605.680,-15153.520,-17325.660,-16021.780,-15182.500,-16463.370,-16036.750,-15419.390,-0.135,0.919,-0.368,-4.089,-0.122,-0.732,66.667,574.000,1.000,3.124,0.000
-15690.090,-15230.140,-17417.170,-16105.590,-15261.010,-16547.170,-16119.420,-15498.500,-0.135,0.916,-0.370,-4.059,-0.275,-0.671,66.667,575.000,1.000,0.011,0.000
-15772.540,-15306.720,-17505.090,-16186.160,-15337.860,-16631.880,-16202.730,-15578.110,-0.135,0.915,-0.371,-4.150,-0.427,-0.763,66.667,576.000,1.000,5.642,0.000
-15854.110,-15388.540,-17593.260,-16265.970,-15416.260,-16721.560,-16289.630,-15660.310,-0.133,0.914,-0.373,-4.150,-0.366,-0.854,66.667,577.000,1.000,9.149,0.000
-15936.070,-15472.460,-17684.680,-16350.990,-15498.850,-16815.230,-16379.840,-15746.490,-0.131,0.914,-0.370,-4.181,-0.641,-0.763,66.667,578.000,1.000,0.007,0.000
-16017.740,-15552.960,-17777.730,-16440.420,-15583.840,-16908.300,-16469.660,-15833.760,-0.128,0.915,-0.371,-4.211,-0.793,-0.763,66.667,579.000,1.000,6.368,0.000
-16095.700,-15631.450,-17867.980,-16524.210,-15666.610,-16998.670,-16555.630,-15917.290,-0.127,0.914,-0.370,-4.242,-0.885,-0.702,66.667,580.000,1.000,0.008,0.000
-16170.550,-15713.230,-17955.630,-16601.890,-15745.800,-17087.050,-16638.370,-15996.800,-0.125,0.917,-0.371,-4.150,-0.854,-0.610,66.667,581.000,1.000,1.973,0.000
-16248.820,-15798.500,-18046.460,-16684.750,-15825.600,-17176.500,-16722.880,-16077.590,-0.124,0.917,-0.370,-4.242,-0.916,-0.641,66.667,582.000,1.000,3.696,0.000
-16332.750,-15880.610,-18141.240,-16773.360,-15907.210,-17265.830,-16809.260,-16160.860,-0.124,0.917,-0.368,-4.364,-0.793,-0.397,66.667,583.000,1.000,8.822,0.000
-16416.360,-15956.680,-18234.310,-16859.470,-15986.270,-17351.050,-16892.220,-16241.220,-0.122,0.920,-0.372,-4.456,-0.793,-0.427,66.667,584.000,1.000,4.326,0.000
-16494.140,-16028.960,-18321.650,-16939.800,-16060.220,-17432.040,-16970.600,-16316.660,-0.120,0.921,-0.372,-4.456,-0.671,-0.427,66.667,585.000,1.000,0.011,0.000
-16568.380,-16101.130,-18404.950,-17016.100,-16130.960,-17510.170,-17046.140,-16390.050,-0.122,0.920,-0.373,-4.456,-0.610,-0.305,66.667,586.000,1.000,8.667,0.000
-16642.460,-16173.720,-18486.960,-17091.500,-16200.590,-17586.780,-17120.080,-16462.490,-0.124,0.920,-0.374,-4.608,-0.641,-0.305,66.667,587.000,1.000,0.012,0.000
-16718.560,-16246.390,-18570.820,-17170.450,-16272.900,-17665.860,-17196.990,-16537.210,-0.121,0.921,-0.374,-4.700,-0.458,-0.275,66.667,588.000,1.000,1.989,0.000
-16795.150,-16318.210,-18656.860,-17251.670,-16348.940,-17747.170,-17277.120,-16615.020,-0.115,0.917,-0.376,-4.730,-0.305,-0.183,66.667,589.000,1.000,3.697,0.000
-16867.490,-16387.670,-18741.510,-17329.640,-16424.680,-17825.590,-17355.390,-16691.340,-0.115,0.915,-0.379,-4.791,-0.244,-0.275,66.667,590.000,1.000,14.390,0.000
-16937.440,-16458.500,-18825.220,-17406.330,-16499.810,-17901.640,-17433.400,-16766.560,-0.113,0.913,-0.377,-4.883,-0.061,-0.275,66.667,591.000,1.000,0.019,0.000
-17010.320,-16535.290,-18911.180,-17486.300,-16577.160,-17979.870,-17515.090,-16844.420,-0.112,0.914,-0.381,-4.761,0.214,-0.275,66.667,592.000,1.000,1.936,0.000
-17085.620,-16615.420,-18997.650,-17565.220,-16654.940,-18059.920,-17597.010,-16922.660,-0.107,0.916,-0.385,-4.669,0.427,-0.336,66.667,593.000,1.000,2.407,0.000
-17160.120,-16690.380,-19081.380,-17639.360,-16729.670,-18137.540,-17675.270,-16998.020,-0.097,0.919,-0.385,-4.639,0.732,-0.336,66.667,594.000,1.000,2.484,0.000
-17235.950,-16761.800,-19165.620,-17715.360,-16803.860,-18214.570,-17752.460,-17073.540,-0.092,0.921,-0.383,-4.608,1.221,-0.214,66.667,595.000,1.000,8.777,0.000
-17314.620,-16836.900,-19252.520,-17796.520,-16879.490,-18295.260,-17830.000,-17149.640,-0.088,0.922,-0.381,-4.669,1.801,-0.244,66.667,596.000,1.000,3.048,0.000
-17393.670,-16911.730,-19339.050,-17878.710,-16954.420,-18377.480,-17906.010,-17222.930,-0.091,0.926,-0.383,-4.730,2.350,-0.153,66.667,597.000,1.000,0.026,0.000
-17472.220,-16982.520,-19423.890,-17958.730,-17028.020,-18457.820,-17980.370,-17293.490,-0.093,0.929,-0.387,-4.913,2.960,-0.122,66.667,598.000,1.000,1.883,0.000
-17548.870,-17053.560,-19506.230,-18034.220,-17099.800,-18536.570,-18054.040,-17363.290,-0.095,0.933,-0.390,-5.188,3.418,-0.153,66.667,599.000,1.000,8.744,0.000
-17623.740,-17128.840,-19587.620,-18107.690,-17171.790,-18617.590,-18129.640,-17435.770,-0.098,0.937,-0.395,-5.341,3.967,-0.366,66.667,600.000,1.000,4.340,0.000
-17700.050,-17206.860,-19672.420,-18184.690,-17248.160,-18703.370,-18210.140,-17514.180,-0.103,0.937,-0.399,-5.615,4.486,-0.763,66.667,601.000,1.000,0.010,0.000
-17777.540,-17281.020,-19759.060,-18265.330,-17326.420,-18790.120,-18293.400,-17596.330,-0.113,0.933,-0.401,-5.829,4.791,-1.434,66.667,602.000,1.000,8.183,0.000
-17852.230,-17350.080,-19842.060,-18344.690,-17399.890,-18871.530,-18373.680,-17675.260,-0.125,0.931,-0.405,-6.012,5.096,-2.136,66.667,603.000,1.000,2.507,0.000
-17923.130,-17420.910,-19921.090,-18417.780,-17468.220,-18948.020,-18448.980,-17747.100,-0.138,0.927,-0.410,-6.073,5.188,-3.143,66.667,604.000,1.000,3.706,0.000
-17994.100,-17492.090,-19998.760,-18487.910,-17535.100,-19023.510,-18521.930,-17816.230,-0.146,0.924,-0.416,-5.951,5.188,-4.181,66.667,605.000,1.000,12.561,0.000
-18065.180,-17556.540,-20074.550,-18560.530,-17601.290,-19099.220,-18594.790,-17887.360,-0.146,0.920,-0.420,-5.798,5.035,-5.219,66.667,606.000,1.000,4.813,0.000
-18134.960,-17618.800,-20149.410,-18633.500,-17667.940,-19175.960,-18668.400,-17959.500,-0.139,0.916,-0.423,-5.524,4.913,-6.195,66.667,607.000,1.000,0.010,0.000
-18206.880,-17687.530,-20226.720,-18705.510,-17736.210,-19251.820,-18741.630,-18030.430,-0.124,0.912,-0.428,-5.371,5.005,-6.775,66.667,608.000,1.000,0.005,0.000
-18283.050,-17761.160,-20307.540,-18780.730,-17805.580,-19326.010,-18814.720,-18101.020,-0.115,0.908,-0.431,-4.913,5.157,-7.080,66.667,609.000,1.000,2.645,0.000
-18361.440,-17834.890,-20390.570,-18860.140,-17875.950,-19401.450,-18889.920,-18172.510,-0.108,0.906,-0.438,-4.547,5.524,-7.050,66.667,610.000,1.000,2.441,0.000
-18437.810,-17908.060,-20472.520,-18936.250,-17946.020,-19477.830,-18965.880,-18243.070,-0.104,0.905,-0.445,-4.242,5.951,-6.805,66.667,611.000,1.000,3.775,0.000
-18508.850,-17976.060,-20550.470,-19004.320,-18013.540,-19550.330,-19038.590,-18309.700,-0.110,0.911,-0.448,-3.845,6.470,-6.470,66.667,612.000,1.000,8.760,0.000
-18575.080,-18033.110,-20623.810,-19069.970,-18077.820,-19614.850,-19105.750,-18372.580,-0.113,0.916,-0.443,-3.540,6.744,-5.981,66.667,613.000,1.000,3.072,0.000
-18641.580,-18090.750,-20695.590,-19137.840,-18141.120,-19675.480,-19169.840,-18435.140,-0.119,0.917,-0.435,-3.296,7.141,-5.615,66.667,614.000,1.000,0.009,0.000
-18711.360,-18158.750,-20768.100,-19202.890,-18204.210,-19737.970,-19233.560,-18496.570,-0.127,0.914,-0.435,-3.052,7.416,-5.157,66.667,615.000,1.000,1.909,0.000
-18781.890,-18225.750,-20840.280,-19263.210,-18265.440,-19801.580,-19296.350,-18554.920,-0.136,0.914,-0.432,-3.052,7.568,-4.730,66.667,616.000,1.000,13.732,0.000
-18854.250,-18291.830,-20915.770,-19329.750,-18329.240,-19870.050,-19362.060,-18616.390,-0.145,0.913,-0.431,-3.021,7.538,-4.364,66.667,617.000,1.000,3.097,0.000
-18930.460,-18364.560,-20997.860,-19410.460,-18400.550,-19947.320,-19435.400,-18687.440,-0.154,0.920,-0.429,-2.960,7.385,-4.059,66.667,618.000,1.000,0.013,0.000
-19005.820,-18436.030,-21080.840,-19495.010,-18474.770,-20026.290,-19512.390,-18763.710,-0.162,0.927,-0.425,-2.869,7.080,-3.937,66.667,619.000,1.000,1.896,0.000
-19074.800,-18501.320,-21158.300,-19569.110,-18545.470,-20102.320,-19587.290,-18836.740,-0.171,0.931,-0.417,-2.960,6.500,-3.845,66.667,620.000,1.000,3.696,0.000
-19137.980,-18563.070,-21230.790,-19634.610,-18612.290,-20177.660,-19659.350,-18905.690,-0.179,0.936,-0.413,-3.235,5.920,-3.815,66.667,621.000,1.000,8.880,0.000
-19200.010,-18625.050,-21302.580,-19700.140,-18678.190,-20253.140,-19729.930,-18975.170,-0.184,0.939,-0.410,-3.448,5.219,-3.937,66.667,622.000,1.000,2.916,0.000
-19261.760,-18691.220,-21374.130,-19764.100,-18742.690,-20327.630,-19798.420,-19044.950,-0.186,0.939,-0.409,-3.845,4.364,-3.906,66.667,623.000,1.000,0.010,0.000
-19319.940,-18754.050,-21441.550,-19823.000,-18801.860,-20397.530,-19862.310,-19110.210,-0.181,0.937,-0.405,-4.303,3.601,-3.998,66.667,624.000,1.000,1.972,0.000
-19375.450,-18807.890,-21505.810,-19882.850,-18856.870,-20462.110,-19922.180,-19170.390,-0.176,0.932,-0.404,-4.852,2.808,-3.937,66.667,625.000,1.000,10.030,0.000
-19436.620,-18867.470,-21574.850,-19950.190,-18915.590,-20527.230,-19983.400,-19231.160,-0.171,0.928,-0.397,-5.188,2.228,-3.967,66.667,626.000,1.000,3.009,0.000
-19506.010,-18938.680,-21650.140,-20021.510,-18980.510,-20597.460,-20051.170,-19296.240,-0.165,0.920,-0.395,-5.554,1.648,-3.876,66.667,627.000,1.000,0.006,0.000
-19576.300,-19008.100,-21725.440,-20090.570,-19047.360,-20673.930,-20126.930,-19364.700,-0.161,0.911,-0.393,-5.737,1.190,-3.845,66.667,628.000,1.000,1.944,0.000
-19644.190,-19071.980,-21798.820,-20156.200,-19113.600,-20754.000,-20205.380,-19433.240,-0.154,0.905,-0.388,-5.768,0.854,-3.784,66.667,629.000,1.000,11.323,0.000
-19708.660,-19134.220,-21869.380,-20217.820,-19176.170,-20829.170,-20276.930,-19496.920,-0.150,0.901,-0.384,-5.920,0.580,-3.601,66.667,630.000,1.000,3.030,0.000
-19769.220,-19195.730,-21936.830,-20279.640,-19234.750,-20895.800,-20340.580,-19556.220,-0.148,0.896,-0.382,-5.798,0.336,-3.296,66.667,631.000,1.000,0.009,0.000
-19828.560,-19255.820,-22003.860,-20344.520,-19292.520,-20957.120,-20399.720,-19613.490,-0.146,0.894,-0.377,-5.768,0.244,-3.174,66.667,632.000,1.000,10.697,0.000
-19887.500,-19311.950,-22071.420,-20408.020,-19350.970,-21016.150,-20456.250,-19669.610,-0.146,0.893,-0.375,-5.768,0.214,-2.960,66.667,633.000,1.000,3.035,0.000
-19947.010,-19369.880,-22140.590,-20470.730,-19412.410,-21077.210,-20515.010,-19727.900,-0.146,0.890,-0.371,-5.798,0.214,-2.777,66.667,634.000,1.000,0.009,0.000
-20008.790,-19434.550,-22212.030,-20535.160,-19477.050,-21141.690,-20577.040,-19788.690,-0.148,0.890,-0.370,-5.768,0.214,-2.594,66.667,635.000,1.000,1.887,0.000
-20071.670,-19496.840,-22283.150,-20602.660,-19540.710,-21204.990,-20638.490,-19849.190,-0.151,0.893,-0.371,-5.768,-0.031,-2.472,66.667,636.000,1.000,3.797,0.000
-20133.300,-19553.410,-22351.140,-20672.060,-19600.140,-21263.830,-20696.790,-19907.560,-0.154,0.896,-0.374,-5.829,-0.092,-2.167,66.667,637.000,1.000,32.562,0.000
-20194.430,-19612.580,-22417.640,-20736.830,-19657.540,-21321.110,-20754.170,-19964.220,-0.154,0.903,-0.371,-5.737,-0.427,-2.075,66.667,638.000,1.000,4.100,0.000
-20257.940,-19675.500,-22486.380,-20797.670,-19717.680,-21382.090,-20816.160,-20023.120,-0.154,0.911,-0.370,-5.737,-0.641,-2.014,66.667,639.000,1.000,0.008,0.000
-20322.540,-19734.700,-22555.680,-20859.900,-19779.450,-21446.250,-20881.930,-20084.970,-0.149,0.917,-0.365,-5.798,-0.763,-1.953,66.667,640.000,1.000,0.003,0.000
-20384.140,-19790.850,-22622.010,-20921.020,-19838.320,-21509.550,-20945.480,-20145.230,-0.146,0.924,-0.359,-6.012,-0.916,-1.984,66.667,641.000,1.000,0.003,0.000
-20443.410,-19851.380,-22687.760,-20978.860,-19895.310,-21572.850,-21006.310,-20203.130,-0.144,0.929,-0.356,-6.378,-1.068,-1.923,66.667,642.000,1.000,3.214,0.000
-20501.780,-19911.290,-22753.810,-21035.320,-19951.860,-21637.410,-21065.880,-20259.730,-0.145,0.935,-0.356,-6.897,-1.038,-1.740,66.667,643.000,1.000,0.004,0.000
-20557.140,-19963.310,-22816.150,-21090.230,-20005.530,-21699.850,-21123.820,-20314.630,-0.145,0.937,-0.353,-7.538,-1.068,-1.740,66.667,644.000,1.000,0.003,0.000
-20613.050,-20016.810,-22877.610,-21148.380,-20058.600,-21759.740,-21182.070,-20370.960,-0.143,0.938,-0.350,-8.087,-1.068,-1.648,66.667,645.000,1.000,3.115,0.000
-20673.210,-20075.220,-22941.820,-21211.320,-20114.010,-21819.360,-21239.450,-20428.430,-0.142,0.936,-0.350,-8.728,-1.129,-1.587,66.667,646.000,1.000,0.006,0.000
-20732.040,-20130.720,-23004.560,-21270.150,-20168.830,-21877.770,-21292.730,-20481.930,-0.143,0.935,-0.348,-9.399,-1.221,-1.434,66.667,647.000,1.000,1.921,0.000
-20786.770,-20184.040,-23065.530,-21325.640,-20223.100,-21936.080,-21347.350,-20535.040,-0.142,0.934,-0.345,-10.040,-1.221,-1.404,66.667,648.000,1.000,3.822,0.000
-20841.520,-20236.670,-23128.500,-21384.510,-20279.410,-21997.750,-21408.260,-20592.990,-0.142,0.931,-0.344,-10.559,-1.343,-1.251,66.667,649.000,1.000,11.254,0.000
-20899.200,-20290.790,-23194.830,-21446.880,-20339.000,-22064.030,-21474.130,-20655.670,-0.142,0.930,-0.344,-11.139,-1.312,-1.221,66.667,650.000,1.000,6.817,0.000
-20959.840,-20350.560,-23263.580,-21510.550,-20400.990,-22132.000,-21542.680,-20723.300,-0.139,0.928,-0.337,-11.688,-1.343,-1.160,66.667,651.000,1.000,0.022,0.000
-21019.610,-20408.430,-23329.120,-21570.420,-20459.290,-22195.310,-21607.290,-20789.540,-0.142,0.927,-0.333,-12.238,-1.404,-1.160,66.667,652.000,1.000,2.345,0.000
-21074.700,-20460.690,-23387.600,-21622.470,-20510.200,-22251.450,-21662.150,-20845.400,-0.141,0.927,-0.334,-12.543,-1.495,-0.916,66.667,653.000,1.000,0.006,0.000
-21127.430,-20512.690,-23443.140,-21672.180,-20557.580,-22302.890,-21710.630,-20894.170,-0.143,0.927,-0.331,-13.062,-1.526,-0.916,66.667,654.000,1.000,1.977,0.000
-21182.950,-20564.080,-23501.450,-21728.030,-20606.530,-22353.760,-21760.890,-20944.600,-0.140,0.927,-0.330,-13.580,-1.526,-0.732,66.667,655.000,1.000,11.232,0.000
-21244.150,-20618.070,-23565.370,-21789.380,-20660.220,-22410.110,-21818.250,-20998.480,-0.139,0.926,-0.328,-14.069,-1.495,-0.458,66.667,656.000,1.000,9.395,0.000
-21308.740,-20678.510,-23633.960,-21851.580,-20719.010,-22473.720,-21881.800,-21054.940,-0.137,0.924,-0.327,-14.465,-1.556,-0.336,66.667,657.000,1.000,0.012,0.000
-21368.930,-20737.010,-23700.450,-21910.480,-20776.170,-22535.030,-21940.970,-21109.020,-0.137,0.922,-0.324,-14.679,-1.556,-0.275,66.667,658.000,1.000,4.936,0.000
-21418.310,-20784.380,-23757.050,-21961.690,-20823.890,-22584.670,-21987.140,-21153.670,-0.135,0.920,-0.322,-14.862,-1.465,-0.214,66.667,659.000,1.000,0.011,0.000
-21463.470,-20829.080,-23808.900,-22010.180,-20869.010,-22632.540,-22032.300,-21196.800,-0.135,0.918,-0.320,-14.893,-1.343,0.061,66.667,660.000,1.000,1.963,0.000
-21515.780,-20881.160,-23866.790,-22063.840,-20922.160,-22690.290,-22089.520,-21249.300,-0.136,0.915,-0.319,-14.984,-1.343,0.275,66.667,661.000,1.000,2.421,0.000
-21571.410,-20932.500,-23926.290,-22118.900,-20976.590,-22747.590,-22148.740,-21303.620,-0.137,0.911,-0.317,-14.862,-1.312,0.427,66.667,662.000,1.000,3.825,0.000
-21624.960,-20979.370,-23981.460,-22173.580,-21024.900,-22796.980,-22199.720,-21352.310,-0.136,0.908,-0.314,-14.801,-1.221,0.610,66.667,663.000,1.000,19.333,0.000
-21680.750,-21031.270,-24039.230,-22233.890,-21074.370,-22848.910,-22249.780,-21402.000,-0.136,0.908,-0.313,-14.771,-1.190,0.763,66.667,664.000,1.000,0.014,0.000
-21736.080,-21086.660,-24101.520,-22296.220,-21128.580,-22906.840,-22304.040,-21455.620,-0.135,0.908,-0.313,-14.618,-1.160,1.038,66.667,665.000,1.000,1.920,0.000
-21784.460,-21139.820,-24161.260,-22351.360,-21181.130,-22962.990,-22357.070,-21507.310,-0.135,0.911,-0.314,-14.343,-1.068,1.373,66.667,666.000,1.000,2.439,0.000
-21830.150,-21193.990,-24217.810,-22400.820,-21230.680,-23016.910,-22407.750,-21557.070,-0.135,0.911,-0.319,-14.038,-0.854,1.526,66.667,667.000,1.000,5.011,0.000
-21878.960,-21247.310,-24274.030,-22450.080,-21280.030,-23072.470,-22459.720,-21608.310,-0.136,0.913,-0.316,-13.916,-0.763,1.740,66.667,668.000,1.000,2.475,0.000
-21928.990,-21295.960,-24328.700,-22498.620,-21328.370,-23128.600,-22512.070,-21658.310,-0.136,0.915,-0.319,-13.519,-0.732,1.892,66.667,669.000,1.000,5.023,0.000
-21979.920,-21344.600,-24383.690,-22547.210,-21377.160,-23185.040,-22564.560,-21707.710,-0.138,0.918,-0.321,-13.184,-0.702,1.953,66.667,670.000,1.000,2.484,0.000
-22032.250,-21395.230,-24441.220,-22598.000,-21427.810,-23241.380,-22619.020,-21760.230,-0.139,0.922,-0.322,-13.031,-0.488,2.106,66.667,671.000,1.000,4.997,0.000
-22082.850,-21442.490,-24497.600,-22648.890,-21477.100,-23294.240,-22673.230,-21812.890,-0.140,0.922,-0.322,-12.726,-0.366,2.167,66.667,672.000,1.000,3.033,0.000
-22134.550,-21489.350,-24553.820,-22700.140,-21527.190,-23347.070,-22727.680,-21865.430,-0.140,0.922,-0.322,-12.451,-0.244,2.289,66.667,673.000,1.000,0.010,0.000
-22192.030,-21542.230,-24614.670,-22756.030,-21582.910,-23406.700,-22786.390,-21921.950,-0.141,0.926,-0.322,-12.238,-0.183,2.289,66.667,674.000,1.000,1.940,0.000
-22249.480,-21596.540,-24675.780,-22811.720,-21639.300,-23467.970,-22844.800,-21978.170,-0.138,0.927,-0.318,-12.024,-0.214,2.228,66.667,675.000,1.000,6.160,0.000
-22299.190,-21643.730,-24730.150,-22857.970,-21688.430,-23521.050,-22895.500,-22027.740,-0.137,0.932,-0.320,-11.902,-0.183,2.289,66.667,676.000,1.000,9.401,0.000
-22341.420,-21682.900,-24778.080,-22897.410,-21729.280,-23565.370,-22938.290,-22070.920,-0.132,0.932,-0.320,-11.658,-0.092,2.441,66.667,677.000,1.000,0.017,0.000
-22382.670,-21722.450,-24825.300,-22940.100,-21768.350,-23608.650,-22979.940,-22113.360,-0.129,0.933,-0.322,-11.414,0.031,2.655,66.667,678.000,1.000,2.460,0.000
-22428.780,-21767.930,-24875.460,-22988.250,-21811.240,-23656.060,-23026.050,-22159.790,-0.124,0.934,-0.321,-11.383,0.122,2.808,66.667,679.000,1.000,0.007,0.000
-22476.280,-21813.680,-24924.120,-23032.970,-21853.220,-23702.520,-23071.720,-22204.210,-0.122,0.933,-0.320,-11.292,0.336,2.960,66.667,680.000,1.000,8.121,0.000
-22518.780,-21852.760,-24967.470,-23071.680,-21890.300,-23744.050,-23112.590,-22241.430,-0.121,0.932,-0.318,-11.353,0.519,3.174,66.667,681.000,1.000,2.519,0.000
-22558.700,-21889.550,-25011.230,-23111.780,-21929.140,-23786.960,-23154.750,-22279.360,-0.119,0.930,-0.318,-11.383,0.702,3.326,66.667,682.000,1.000,3.704,0.000
-22601.410,-21931.210,-25061.080,-23157.040,-21974.040,-23835.020,-23202.230,-22323.390,-0.120,0.930,-0.318,-11.414,0.824,3.540,66.667,683.000,1.000,7.580,0.000
-22648.390,-21977.450,-25116.130,-23207.360,-22022.430,-23885.030,-23253.730,-22371.420,-0.118,0.930,-0.318,-11.414,1.099,3.601,66.667,684.000,1.000,3.039,0.000
-22697.160,-22024.270,-25171.020,-23257.360,-22070.360,-23934.040,-23306.750,-22420.030,-0.118,0.931,-0.318,-11.353,1.343,3.571,66.667,685.000,1.000,0.006,0.000
-22742.520,-22067.360,-25219.880,-23300.360,-22113.160,-23979.510,-23354.160,-22463.140,-0.119,0.932,-0.319,-11.292,1.526,3.479,66.667,686.000,1.000,13.138,0.000
-22784.420,-22106.190,-25264.070,-23340.440,-22151.920,-24022.090,-23395.610,-22501.080,-0.115,0.932,-0.320,-11.292,1.617,3.479,66.667,687.000,1.000,3.066,0.000
-22827.970,-22147.440,-25310.810,-23385.350,-22193.930,-24068.140,-23441.070,-22542.380,-0.115,0.932,-0.324,-11.230,1.770,3.235,66.667,688.000,1.000,0.007,0.000
-22874.820,-22194.120,-25362.590,-23433.740,-22240.620,-24119.450,-23491.610,-22588.710,-0.114,0.934,-0.328,-11.230,1.953,3.021,66.667,689.000,1.000,1.870,0.000
-22922.660,-22238.990,-25414.540,-23480.410,-22284.910,-24166.300,-23536.960,-22633.330,-0.110,0.939,-0.330,-11.139,2.167,2.899,66.667,690.000,1.000,2.590,0.000
-22971.100,-22280.100,-25464.250,-23526.170,-22324.320,-24204.790,-23574.060,-22674.120,-0.111,0.947,-0.326,-11.169,2.289,2.747,66.667,691.000,1.000,6.290,0.000
-23019.630,-22322.740,-25513.280,-23571.830,-22363.690,-24243.830,-23610.740,-22715.070,-0.106,0.952,-0.329,-11.230,2.472,2.747,66.667,692.000,1.000,2.414,0.000
-23064.590,-22367.360,-25561.100,-23613.760,-22405.750,-24289.940,-23654.210,-22758.980,-0.103,0.959,-0.332,-11.261,2.655,2.533,66.667,693.000,1.000,6.294,0.000
-23106.760,-22411.840,-25608.870,-23655.440,-22450.290,-24341.290,-23703.720,-22806.180,-0.099,0.963,-0.333,-11.414,2.930,2.472,66.667,694.000,1.000,3.052,0.000
-23150.030,-22454.990,-25658.740,-23704.400,-22495.670,-24391.820,-23750.920,-22853.580,-0.098,0.963,-0.330,-11.536,3.265,2.289,66.667,695.000,1.000,0.006,0.000
-23192.230,-22494.930,-25707.130,-23753.770,-22537.840,-24437.210,-23790.500,-22896.090,-0.098,0.962,-0.332,-11.536,3.632,2.197,66.667,696.000,1.000,8.206,0.000
-23232.770,-22534.350,-25752.340,-23796.370,-22576.170,-24479.360,-23827.420,-22933.870,-0.101,0.959,-0.334,-11.536,3.937,2.045,66.667,697.000,1.000,2.490,0.000
-23276.550,-22576.690,-25799.200,-23839.570,-22615.360,-24522.080,-23868.460,-22972.180,-0.104,0.958,-0.331,-11.444,4.364,1.801,66.667,698.000,1.000,3.726,0.000
-23323.700,-22620.980,-25849.530,-23886.730,-22657.750,-24566.260,-23913.870,-23013.740,-0.110,0.955,-0.329,-11.414,4.578,1.831,66.667,699.000,1.000,11.838,0.000
-23368.780,-22664.900,-25899.590,-23932.270,-22701.020,-24612.090,-23960.920,-23057.000,-0.117,0.954,-0.323,-11.261,4.669,1.678,66.667,700.000,1.000,0.008,0.000
-23409.020,-22703.080,-25945.840,-23973.740,-22742.530,-24657.410,-24008.410,-23099.890,-0.121,0.952,-0.321,-11.108,4.608,1.526,66.667,701.000,1.000,1.924,0.000
-23448.110,-22737.430,-25990.190,-24014.510,-22783.590,-24699.920,-24055.730,-23142.200,-0.130,0.951,-0.319,-10.986,4.425,1.251,66.667,702.000,1.000,2.525,0.000
-23487.300,-22774.020,-26033.660,-24054.340,-22824.010,-24739.790,-24099.460,-23182.170,-0.139,0.948,-0.320,-10.895,4.059,0.946,66.667,703.000,1.000,8.656,0.000
-23522.710,-22809.320,-26072.670,-24089.390,-22859.630,-24776.590,-24136.890,-23217.090,-0.147,0.946,-0.320,-10.773,3.845,0.641,66.667,704.000,1.000,3.108,0.000
-23554.900,-22841.030,-26107.840,-24121.870,-22890.750,-24811.010,-24171.010,-23248.740,-0.153,0.944,-0.319,-10.590,3.357,0.458,66.667,705.000,1.000,0.008,0.000
-23589.110,-22877.100,-26145.470,-24155.910,-22923.650,-24848.990,-24207.070,-23282.310,-0.156,0.944,-0.317,-10.468,2.716,0.244,66.667,706.000,1.000,4.452,0.000
-23627.590,-22920.680,-26188.580,-24193.160,-22961.230,-24893.610,-24245.910,-23319.230,-0.156,0.943,-0.315,-10.162,2.228,0.031,66.667,707.000,1.000,3.761,0.000
-23666.070,-22958.680,-26231.550,-24232.210,-22997.770,-24935.570,-24282.770,-23355.220,-0.152,0.942,-0.319,-10.010,1.587,-0.122,66.667,708.000,1.000,14.311,0.000
-23702.990,-22989.990,-26271.980,-24270.310,-23031.130,-24970.940,-24317.320,-23390.090,-0.147,0.942,-0.321,-9.705,1.221,-0.275,66.667,709.000,1.000,0.013,0.000
-23740.650,-23026.640,-26313.240,-24306.290,-23065.020,-25007.760,-24352.430,-23426.110,-0.141,0.941,-0.325,-9.460,0.763,-0.244,66.667,710.000,1.000,1.874,0.000
-23778.520,-23066.290,-26355.660,-24341.650,-23100.820,-25049.150,-24390.150,-23464.170,-0.135,0.936,-0.325,-9.125,0.427,-0.122,66.667,711.000,1.000,2.464,0.000
-23818.910,-23106.060,-26401.550,-24383.570,-23141.080,-25093.750,-24434.370,-23508.130,-0.130,0.932,-0.321,-8.728,0.275,0.000,66.667,712.000,1.000,2.498,0.000
-23862.400,-23147.370,-26449.650,-24429.990,-23182.870,-25137.000,-24478.680,-23552.680,-0.127,0.924,-0.325,-8.179,0.153,0.214,66.667,713.000,1.000,2.556,0.000
-23902.920,-23183.940,-26492.390,-24469.230,-23218.540,-25174.150,-24514.170,-23588.070,-0.123,0.918,-0.328,-7.721,0.214,0.641,66.667,714.000,1.000,3.688,0.000
-23940.720,-23218.400,-26532.170,-24503.190,-23252.780,-25213.080,-24550.550,-23621.030,-0.118,0.911,-0.329,-7.141,0.305,1.068,66.667,715.000,1.000,16.938,0.000
-23978.980,-23258.380,-26574.730,-24540.720,-23291.820,-25259.050,-24595.770,-23659.920,-0.116,0.908,-0.330,-6.439,0.427,1.160,66.667,716.000,1.000,0.017,0.000
-24015.750,-23297.670,-26617.170,-24583.590,-23330.820,-25303.540,-24640.550,-23700.880,-0.114,0.910,-0.329,-5.798,0.610,1.373,66.667,717.000,1.000,4.924,0.000
-24050.340,-23330.210,-26656.820,-24628.440,-23365.890,-25341.010,-24677.390,-23739.300,-0.113,0.914,-0.324,-5.219,0.793,1.709,66.667,718.000,1.000,0.009,0.000
-24082.540,-23358.070,-26693.810,-24669.100,-23397.880,-25373.460,-24707.780,-23773.720,-0.116,0.918,-0.323,-4.852,0.824,1.984,66.667,719.000,1.000,2.437,0.000
-24113.450,-23388.940,-26730.050,-24703.840,-23429.360,-25406.020,-24736.750,-23805.170,-0.117,0.921,-0.319,-4.517,1.038,1.923,66.667,720.000,1.000,0.011,0.000
-24148.110,-23427.420,-26769.150,-24738.970,-23463.890,-25443.900,-24770.210,-23837.590,-0.116,0.926,-0.317,-4.242,1.099,1.770,66.667,721.000,1.000,4.476,0.000
-24187.270,-23465.030,-26809.910,-24776.840,-23500.650,-25486.060,-24809.600,-23872.770,-0.115,0.931,-0.315,-4.089,1.007,1.648,66.667,722.000,1.000,3.747,0.000
-24223.740,-23494.120,-26846.090,-24810.160,-23533.260,-25524.430,-24847.210,-23906.030,-0.114,0.936,-0.313,-3.876,1.007,1.465,66.667,723.000,1.000,6.191,0.000
-24252.200,-23520.030,-26875.190,-24834.590,-23558.570,-25554.320,-24875.420,-23932.040,-0.118,0.946,-0.309,-3.906,1.038,1.221,66.667,724.000,1.000,9.412,0.000
-24278.040,-23549.440,-26903.420,-24858.100,-23583.060,-25580.420,-24900.390,-23956.170,-0.118,0.957,-0.300,-4.059,0.977,0.977,66.667,725.000,1.000,0.015,0.000
-24309.720,-23580.850,-26938.840,-24891.570,-23615.200,-25611.360,-24933.350,-23988.140,-0.120,0.965,-0.300,-4.395,0.854,0.610,66.667,726.000,1.000,19.426,0.000
-24344.400,-23611.910,-26978.680,-24929.250,-23651.450,-25647.930,-24970.690,-24023.490,-0.120,0.968,-0.298,-4.913,0.732,0.153,66.667,727.000,1.000,0.027,0.000
-24375.170,-23642.570,-27015.660,-24960.460,-23683.840,-25684.000,-25003.590,-24054.110,-0.123,0.970,-0.295,-5.524,0.610,-0.336,66.667,728.000,1.000,0.011,0.000
-24404.320,-23671.090,-27051.220,-24991.280,-23714.810,-25719.030,-25034.860,-24084.350,-0.123,0.973,-0.299,-6.073,0.488,-0.671,66.667,729.000,1.000,7.441,0.000
-24437.330,-23701.480,-27089.850,-25029.960,-23749.740,-25756.810,-25071.040,-24119.780,-0.125,0.973,-0.297,-6.561,0.305,-1.007,66.667,730.000,1.000,8.600,0.000
-24473.350,-23740.040,-27130.270,-25072.080,-23786.630,-25796.200,-25111.070,-24157.580,-0.128,0.970,-0.301,-7.141,0.092,-1.526,66.667,731.000,1.000,0.019,0.000
-24506.970,-23777.850,-27167.050,-25107.530,-23820.070,-25832.190,-25148.350,-24191.790,-0.129,0.962,-0.302,-7.538,-0.153,-2.075,66.667,732.000,1.000,0.011,0.000
-24536.950,-23806.700,-27199.080,-25134.370,-23849.140,-25863.570,-25179.910,-24220.910,-0.132,0.956,-0.300,-7.843,-0.214,-2.594,66.667,733.000,1.000,11.356,0.000
-24566.650,-23832.710,-27230.350,-25159.150,-23876.250,-25892.490,-25207.250,-24246.830,-0.131,0.952,-0.300,-8.057,-0.488,-3.113,66.667,734.000,1.000,2.537,0.000
-24598.190,-23859.020,-27264.160,-25187.440,-23904.090,-25921.780,-25234.150,-24272.820,-0.133,0.947,-0.304,-8.209,-0.641,-3.632,66.667,735.000,1.000,4.972,0.000
-24631.320,-23885.410,-27300.580,-25220.570,-23933.970,-25953.710,-25264.170,-24301.250,-0.134,0.943,-0.303,-8.301,-0.824,-4.028,66.667,736.000,1.000,2.454,0.000
-24664.810,-23916.330,-27338.000,-25257.770,-23965.790,-25988.240,-25297.960,-24332.610,-0.133,0.937,-0.306,-8.362,-1.038,-4.364,66.667,737.000,1.000,14.965,0.000
-24697.590,-23952.440,-27375.440,-25297.260,-23999.510,-26024.000,-25335.110,-24367.610,-0.134,0.933,-0.307,-8.240,-1.160,-4.669,66.667,738.000,1.000,5.031,0.000
-24728.850,-23988.130,-27411.800,-25334.880,-24034.070,-26060.310,-25375.040,-24404.960,-0.135,0.928,-0.308,-8.026,-1.221,-4.944,66.667,739.000,1.000,8.691,0.000
-24755.790,-24014.880,-27443.160,-25365.830,-24064.730,-26094.030,-25411.530,-24439.160,-0.137,0.929,-0.307,-7.629,-1.282,-5.157,66.667,740.000,1.000,5.670,0.000
-24777.720,-24033.530,-27468.010,-25389.170,-24087.690,-26121.080,-25437.080,-24463.560,-0.139,0.932,-0.304,-7.446,-1.343,-5.341,66.667,741.000,1.000,0.012,0.000
-24801.810,-24057.480,-27493.940,-25411.190,-24108.380,-26146.070,-25457.890,-24481.640,-0.144,0.936,-0.302,-7.202,-1.251,-5.432,66.667,742.000,1.000,1.866,0.000
-24833.130,-24090.360,-27526.970,-25437.940,-24134.040,-26176.040,-25484.680,-24504.570,-0.149,0.940,-0.300,-6.897,-1.434,-5.432,66.667,743.000,1.000,2.452,0.000
-24867.230,-24125.230,-27562.820,-25469.290,-24163.450,-26208.450,-25516.380,-24534.340,-0.155,0.941,-0.298,-6.744,-1.648,-5.493,66.667,744.000,1.000,3.117,0.000
-24898.860,-24155.850,-27595.410,-25502.460,-24191.630,-26237.500,-25546.680,-24564.790,-0.159,0.940,-0.299,-6.531,-1.831,-5.371,66.667,745.000,1.000,0.009,0.000
-24926.480,-24178.370,-27623.000,-25533.380,-24215.900,-26261.890,-25572.290,-24591.920,-0.166,0.939,-0.297,-6.409,-2.136,-5.280,66.667,746.000,1.000,1.912,0.000
-24952.140,-24198.340,-27650.120,-25560.370,-24239.560,-26286.010,-25596.600,-24618.290,-0.168,0.940,-0.296,-6.104,-2.411,-5.280,66.667,747.000,1.000,11.255,0.000
-24978.240,-24223.390,-27681.230,-25586.360,-24266.730,-26314.830,-25624.820,-24647.430,-0.166,0.941,-0.297,-5.798,-2.563,-5.341,66.667,748.000,1.000,2.527,0.000
-25003.450,-24247.430,-27712.350,-25612.980,-24294.040,-26345.140,-25654.400,-24676.410,-0.166,0.941,-0.297,-5.646,-2.838,-5.219,66.667,749.000,1.000,5.023,0.000
-25026.530,-24267.940,-27739.860,-25637.870,-24317.810,-26372.240,-25680.380,-24700.930,-0.163,0.941,-0.294,-5.402,-3.113,-5.127,66.667,750.000,1.000,2.429,0.000
-25048.180,-24293.180,-27766.720,-25660.100,-24340.490,-26397.960,-25703.590,-24722.460,-0.161,0.939,-0.292,-5.310,-3.326,-4.944,66.667,751.000,1.000,2.557,0.000
-25067.310,-24319.720,-27793.710,-25680.130,-24364.090,-26424.250,-25726.820,-24744.260,-0.160,0.935,-0.296,-5.066,-3.296,-4.669,66.667,752.000,1.000,4.995,0.000
-25086.680,-24342.560,-27820.470,-25703.600,-24388.870,-26451.350,-25751.450,-24768.160,-0.153,0.933,-0.294,-4.852,-3.418,-4.303,66.667,753.000,1.000,5.546,0.000
-25113.330,-24368.680,-27852.190,-25736.920,-24418.400,-26482.230,-25780.940,-24797.600,-0.151,0.929,-0.298,-4.547,-3.326,-3.845,66.667,754.000,1.000,0.013,0.000
-25143.010,-24397.830,-27887.410,-25770.930,-24450.910,-26515.240,-25814.280,-24829.960,-0.148,0.929,-0.299,-4.272,-3.143,-3.540,66.667,755.000,1.000,1.902,0.000
-25167.970,-24422.940,-27918.150,-25797.580,-24479.720,-26545.570,-25845.690,-24858.690,-0.147,0.928,-0.302,-3.906,-3.021,-3.174,66.667,756.000,1.000,9.986,0.000
-25189.480,-24443.940,-27943.100,-25822.680,-24503.630,-26572.350,-25872.850,-24882.790,-0.148,0.929,-0.299,-3.510,-2.899,-2.869,66.667,757.000,1.000,2.489,0.000
-25209.600,-24462.700,-27964.670,-25848.530,-24523.990,-26595.460,-25896.740,-24903.590,-0.147,0.932,-0.302,-3.265,-2.594,-2.625,66.667,758.000,1.000,2.490,0.000
-25230.350,-24482.260,-27986.250,-25872.500,-24543.350,-26617.510,-25920.590,-24924.220,-0.147,0.933,-0.298,-3.052,-2.441,-2.472,66.667,759.000,1.000,7.552,0.000
-25254.820,-24505.200,-28011.680,-25898.210,-24565.390,-26642.100,-25946.480,-24948.220,-0.147,0.932,-0.297,-2.930,-2.167,-2.258,66.667,760.000,1.000,2.358,0.000
-25283.580,-24529.350,-28040.750,-25928.560,-24589.960,-26667.570,-25971.730,-24974.570,-0.144,0.931,-0.301,-2.838,-2.045,-2.075,66.667,761.000,1.000,2.561,0.000
-25312.930,-24554.140,-28068.750,-25956.170,-24612.550,-26690.640,-25992.440,-24997.870,-0.143,0.930,-0.298,-2.838,-1.740,-1.862,66.667,762.000,1.000,3.059,0.000
-25339.040,-24580.800,-28094.460,-25977.340,-24632.710,-26713.420,-26011.340,-25016.940,-0.142,0.929,-0.298,-2.777,-1.465,-1.678,66.667,763.000,1.000,0.012,0.000
-25363.810,-24608.560,-28121.410,-26000.260,-24654.600,-26738.560,-26033.730,-25036.260,-0.141,0.932,-0.299,-2.808,-1.221,-1.526,66.667,764.000,1.000,1.887,0.000
-25387.340,-24633.130,-28147.850,-26026.880,-24676.830,-26763.010,-26057.600,-25057.840,-0.137,0.937,-0.296,-2.899,-0.885,-1.343,66.667,765.000,1.000,2.454,0.000
-25405.100,-24649.510,-28169.510,-26050.230,-24696.320,-26784.240,-26080.110,-25081.890,-0.133,0.940,-0.294,-3.021,-0.427,-1.068,66.667,766.000,1.000,2.559,0.000
-25420.280,-24661.310,-28190.260,-26072.970,-24717.010,-26805.880,-26104.900,-25109.490,-0.131,0.945,-0.291,-3.296,0.000,-0.763,66.667,767.000,1.000,2.458,0.000
-25440.070,-24679.530,-28215.600,-26100.210,-24742.960,-26833.310,-26134.210,-25138.670,-0.129,0.949,-0.288,-3.662,0.519,-0.427,66.667,768.000,1.000,2.464,0.000
-25461.370,-24707.390,-28241.800,-26125.980,-24769.350,-26864.680,-26163.560,-25163.980,-0.125,0.952,-0.291,-4.150,0.885,-0.153,66.667,769.000,1.000,2.525,0.000
-25480.770,-24734.400,-28265.210,-26148.540,-24791.590,-26893.320,-26189.390,-25184.830,-0.126,0.957,-0.291,-4.608,1.343,0.183,66.667,770.000,1.000,3.038,0.000
-25501.400,-24752.810,-28288.230,-26172.170,-24811.910,-26916.370,-26211.370,-25204.930,-0.126,0.959,-0.294,-4.974,1.953,0.397,66.667,771.000,1.000,0.008,0.000
