EEG 1, EEG 2, EEG 3, EEG 4, EEG 5, EEG 6, EEG 7, EEG 8, ACC X, ACC Y, ACC Z, GYR X, GYR Y, GYR Z, BAT, CNT, VALID, DT, TRIG
136578.600,136578.600,27731.700,121126.700,136578.600,136578.600,136578.600,136578.600,-0.126,0.900,-0.330,0.000,0.000,0.000,73.333,1.000,1.000,0.000,0.000
469382.100,469382.100,102608.800,398552.800,427387.300,460295.000,469382.100,469382.100,-0.122,0.913,-0.341,0.000,0.000,0.000,73.333,2.000,1.000,19.398,0.000
696105.700,731059.300,209912.900,600678.200,462927.200,631027.900,731059.300,720629.300,-0.122,0.920,-0.342,0.000,0.000,0.000,73.333,3.000,1.000,2.396,0.000
667698.100,801568.300,371054.800,678386.000,114846.200,493989.800,801568.300,753565.100,-0.122,0.924,-0.342,0.000,0.000,0.000,73.333,4.000,1.000,2.505,0.000
584616.900,811127.600,546318.800,750588.800,-248050.700,327779.200,814894.100,726581.800,-0.122,0.926,-0.346,-5.768,5.310,-7.721,73.333,5.000,1.000,2.438,0.000
515088.800,729076.300,638746.500,780498.600,-514683.500,289205.300,797996.100,713646.400,-0.125,0.928,-0.352,-5.829,4.974,-6.195,73.333,6.000,1.000,3.772,0.000
400796.500,475713.500,677080.100,739526.100,-764889.600,321858.500,731418.800,685219.100,-0.124,0.929,-0.352,-3.387,2.563,-2.350,73.333,7.000,1.000,8.852,0.000
396426.300,296616.700,719993.100,717533.600,-690309.800,415547.800,695083.400,680971.000,-0.124,0.933,-0.356,-2.502,1.587,-0.824,73.333,8.000,1.000,3.026,0.000
590203.900,421084.300,741727.200,741165.500,-84290.530,583854.000,725707.700,730582.100,-0.125,0.935,-0.356,-2.289,1.282,-0.427,73.333,9.000,1.000,0.011,0.000
774850.300,656799.300,740049.900,768991.100,580591.800,762119.100,775234.200,790341.200,-0.125,0.938,-0.352,-2.289,1.007,-0.275,73.333,10.000,1.000,5.597,0.000
809566.200,764156.600,746608.800,764772.200,851287.100,815993.300,781121.700,791679.100,-0.125,0.939,-0.352,-2.411,0.763,-0.183,73.333,11.000,1.000,9.439,0.000
753867.500,766923.800,754167.300,723882.300,838567.100,729654.200,727119.200,723420.100,-0.124,0.940,-0.354,-2.594,0.763,-0.305,73.333,12.000,1.000,0.013,0.000
711818.800,762391.900,750235.400,708275.900,795694.500,675257.000,693304.600,682564.800,-0.121,0.941,-0.355,-2.655,0.641,-0.366,73.333,13.000,1.000,1.833,0.000
713550.300,743048.900,734525.900,728668.200,758192.100,725214.600,704589.900,710736.800,-0.118,0.941,-0.353,-2.869,0.580,-0.427,73.333,14.000,1.000,3.707,0.000
742826.100,717280.800,722691.500,750318.400,708371.800,767083.100,697868.100,735582.900,-0.116,0.940,-0.359,-3.113,0.610,-0.305,73.333,15.000,1.000,7.558,0.000
746753.300,694119.100,730040.000,746339.600,657077.700,694233.200,619365.500,668154.500,-0.116,0.940,-0.358,-3.235,0.580,-0.397,73.333,16.000,1.000,9.376,0.000
679270.900,643357.900,738562.400,714127.400,594920.300,530540.600,484509.600,520329.000,-0.118,0.938,-0.355,-3.387,0.702,-0.458,73.333,17.000,1.000,0.021,0.000
578717.600,571449.800,735582.000,701397.100,527191.900,408293.900,376225.000,400925.400,-0.116,0.938,-0.356,-3.387,0.793,-0.397,73.333,18.000,1.000,2.456,0.000
491860.200,475671.600,722367.900,716143.900,431639.800,374826.900,325407.500,350351.000,-0.116,0.936,-0.356,-3.601,0.885,-0.397,73.333,19.000,1.000,0.010,0.000
433424.600,378345.500,712240.300,731844.100,333771.300,361611.800,305340.700,331830.600,-0.113,0.935,-0.356,-3.754,0.946,-0.244,73.333,20.000,1.000,8.116,0.000
380741.300,315140.800,717193.300,728412.700,289711.800,316496.800,276919.000,298486.300,-0.113,0.932,-0.356,-3.845,1.068,-0.275,73.333,21.000,1.000,2.489,0.000
322941.100,292757.900,723263.700,704032.600,286712.200,241337.900,223174.800,237062.100,-0.114,0.927,-0.358,-3.906,1.160,-0.275,73.333,22.000,1.000,2.453,0.000
289309.300,295336.900,720512.800,693865.800,290177.600,200262.800,184929.900,196288.900,-0.119,0.925,-0.353,-3.937,1.282,-0.153,73.333,23.000,1.000,3.780,0.000
281849.400,279377.300,709941.600,703704.400,261808.200,216273.000,182320.800,197703.900,-0.121,0.928,-0.358,-3.784,1.251,-0.153,73.333,24.000,1.000,10.617,0.000
286755.900,248593.800,701624.800,714258.900,221647.500,239468.300,197549.600,216011.100,-0.123,0.927,-0.357,-3.723,1.282,-0.214,73.333,25.000,1.000,0.019,0.000
284137.200,233472.000,704517.300,711265.300,217640.000,234304.900,202596.500,218834.300,-0.123,0.926,-0.354,-3.754,1.160,-0.275,73.333,26.000,1.000,1.964,0.000
265787.500,239652.800,708378.200,693537.100,237738.900,199420.400,181574.800,193369.800,-0.121,0.924,-0.355,-3.632,1.221,-0.366,73.333,27.000,1.000,2.434,0.000
250517.900,251253.700,705787.800,685575.100,249374.300,176914.200,160335.000,170883.900,-0.119,0.921,-0.355,-3.418,1.160,-0.458,73.333,28.000,1.000,13.787,0.000
243955.500,239170.700,697499.000,691320.300,226690.000,186720.700,157009.300,170448.000,-0.120,0.922,-0.353,-3.265,1.251,-0.336,73.333,29.000,1.000,3.178,0.000
244483.500,213810.800,690762.800,697576.400,193560.900,200494.600,165606.000,180997.400,-0.117,0.921,-0.352,-3.082,1.373,-0.214,73.333,30.000,1.000,0.015,0.000
242120.500,201875.200,691927.100,694917.100,190365.000,197080.200,169294.400,183095.200,-0.120,0.925,-0.348,-2.899,1.373,-0.183,73.333,31.000,1.000,1.794,0.000
230886.900,207789.200,693903.300,682659.700,207617.300,174857.000,156205.300,167098.100,-0.122,0.927,-0.348,-2.777,1.526,-0.031,73.333,32.000,1.000,2.475,0.000
221032.400,217142.800,691431.500,676535.900,217252.000,159687.000,141729.800,151882.800,-0.120,0.926,-0.347,-2.747,1.556,0.122,73.333,33.000,1.000,2.500,0.000
215136.800,207981.000,685051.700,678981.100,199447.900,164321.700,137887.800,149893.800,-0.118,0.923,-0.343,-2.747,1.678,0.275,73.333,34.000,1.000,8.693,0.000
213574.500,188717.100,679649.800,681759.800,173867.000,171580.800,142197.000,155270.300,-0.118,0.923,-0.344,-2.716,1.678,0.397,73.333,35.000,1.000,3.164,0.000
211504.200,179658.200,679411.400,679343.000,171415.700,169574.700,144767.400,156760.800,-0.118,0.924,-0.345,-2.594,1.831,0.519,73.333,36.000,1.000,0.014,0.000
205266.000,184509.000,679831.900,671440.300,185271.700,156923.500,137503.200,147788.200,-0.120,0.927,-0.347,-2.472,1.892,0.610,73.333,37.000,1.000,1.884,0.000
199181.100,191311.100,677442.900,666802.900,192541.400,147248.800,128122.700,138040.500,-0.121,0.928,-0.345,-2.380,1.984,0.610,73.333,38.000,1.000,8.676,0.000
193668.800,184369.100,672610.700,666682.600,178782.300,147702.800,123833.500,134757.900,-0.120,0.933,-0.344,-2.289,1.953,0.580,73.333,39.000,1.000,3.806,0.000
190383.200,170094.300,668301.800,666743.200,159572.600,149749.800,124671.900,135964.200,-0.121,0.936,-0.347,-2.319,2.014,0.580,73.333,40.000,1.000,6.936,0.000
188300.900,163220.400,666965.200,664491.700,157510.700,148583.400,126098.700,136707.800,-0.121,0.937,-0.349,-2.380,1.984,0.702,73.333,41.000,1.000,0.007,0.000
185577.100,166754.400,666144.100,659932.100,167997.300,143072.600,123088.100,132901.500,-0.122,0.939,-0.352,-2.411,2.045,0.763,73.333,42.000,1.000,8.073,0.000
182171.300,171107.800,663808.500,656457.400,172984.500,137547.800,117581.300,127291.500,-0.122,0.939,-0.354,-2.563,2.106,0.702,73.333,43.000,1.000,6.894,0.000
176985.300,165859.200,660189.900,654377.900,162587.200,134865.500,113037.100,123100.000,-0.121,0.938,-0.353,-2.563,2.228,0.702,73.333,44.000,1.000,0.010,0.000
172444.300,155632.000,656748.500,650923.400,148667.400,132961.800,111226.200,121143.900,-0.121,0.936,-0.347,-2.563,2.197,0.488,73.333,45.000,1.000,1.838,0.000
170248.900,150456.000,654586.900,644074.300,146805.800,132261.500,111609.600,121152.900,-0.119,0.934,-0.349,-2.625,2.411,0.397,73.333,46.000,1.000,3.707,0.000
169950.600,152741.900,652811.800,634933.800,154221.500,131909.700,111600.400,121025.700,-0.117,0.935,-0.352,-2.594,2.319,0.458,73.333,47.000,1.000,3.738,0.000
168457.200,155046.700,650506.600,624921.800,157211.300,129478.400,108987.200,118496.900,-0.114,0.933,-0.352,-2.563,2.197,0.275,73.333,48.000,1.000,19.424,0.000
163632.500,151116.100,647804.400,614368.900,149599.000,124638.100,104408.700,113784.900,-0.117,0.933,-0.351,-2.472,2.289,0.122,73.333,49.000,1.000,0.022,0.000
158299.300,144112.600,645028.300,604344.900,140004.300,119952.800,100734.900,109600.600,-0.117,0.929,-0.352,-2.441,2.350,0.000,73.333,50.000,1.000,3.006,0.000
156006.000,140300.400,642278.300,596676.600,138285.800,119505.200,100270.700,108985.100,-0.117,0.926,-0.353,-2.319,2.411,-0.092,73.333,51.000,1.000,0.013,0.000
157289.400,141455.300,639802.400,591310.800,143063.100,122687.800,102274.100,111340.000,-0.119,0.925,-0.351,-2.197,2.380,-0.275,73.333,52.000,1.000,0.006,0.000
157084.000,142042.400,637510.900,584265.400,144387.500,122457.800,101737.500,111008.700,-0.123,0.926,-0.354,-2.045,2.319,-0.427,73.333,53.000,1.000,2.533,0.000
152658.700,139137.100,634817.600,574677.800,139033.900,116273.100,97297.680,106100.800,-0.124,0.926,-0.355,-1.892,2.350,-0.519,73.333,54.000,1.000,3.711,0.000
146933.600,134641.100,630040.100,565182.600,132880.100,109781.700,92424.790,100486.200,-0.125,0.927,-0.355,-1.678,2.289,-0.702,73.333,55.000,1.000,13.107,0.000
144577.500,131866.600,622590.000,558811.300,131268.300,109437.100,91310.220,99381.740,-0.124,0.929,-0.356,-1.678,2.136,-0.732,73.333,56.000,1.000,0.011,0.000
146813.000,132128.700,614630.100,555735.000,133875.600,114866.100,94557.330,103291.000,-0.126,0.930,-0.353,-1.556,1.923,-0.824,73.333,57.000,1.000,2.462,0.000
147438.400,131444.000,607338.300,550344.500,133889.600,116142.400,95455.660,104467.000,-0.127,0.931,-0.355,-1.434,1.770,-0.824,73.333,58.000,1.000,0.011,0.000
143435.800,129320.500,601011.400,541507.200,130328.500,109292.500,91299.420,99627.870,-0.128,0.932,-0.354,-1.404,1.678,-0.946,73.333,59.000,1.000,5.783,0.000
137648.600,126750.200,594909.800,532616.100,126833.500,101805.600,85774.370,93232.790,-0.129,0.930,-0.352,-1.434,1.648,-1.038,73.333,60.000,1.000,11.800,0.000
135288.700,124793.900,587894.300,527230.600,125307.400,101464.200,84184.480,91759.740,-0.130,0.931,-0.354,-1.526,1.465,-1.068,73.333,61.000,1.000,0.013,0.000
137981.600,124300.300,581070.900,525643.700,126173.800,108101.800,88053.030,96469.270,-0.132,0.931,-0.351,-1.465,1.190,-0.885,73.333,62.000,1.000,2.394,0.000
139087.400,122652.400,575072.800,521431.700,125187.500,110302.800,89845.380,98573.790,-0.133,0.932,-0.351,-1.587,1.068,-1.038,73.333,63.000,1.000,0.007,0.000
135549.900,121131.500,570081.900,513357.200,123016.200,103305.300,86069.670,93997.170,-0.134,0.931,-0.353,-1.556,0.824,-1.038,73.333,64.000,1.000,8.179,0.000
129966.500,119983.600,565094.000,505135.500,121519.200,95463.880,80341.160,87346.950,-0.135,0.931,-0.353,-1.587,0.427,-0.946,73.333,65.000,1.000,7.502,0.000
127661.000,118654.300,558773.300,500493.400,120089.700,95082.640,78460.770,85642.350,-0.135,0.930,-0.351,-1.648,0.305,-0.885,73.333,66.000,1.000,0.007,0.000
130461.000,117616.500,552577.800,499800.000,119643.400,102165.100,82518.540,90616.110,-0.136,0.931,-0.350,-1.709,0.031,-0.763,73.333,67.000,1.000,0.003,0.000
131761.000,115300.300,547390.800,496402.300,117942.800,104845.400,84797.400,93213.910,-0.138,0.931,-0.349,-1.831,-0.305,-0.702,73.333,68.000,1.000,3.771,0.000
128651.500,114191.100,543341.000,489054.900,116796.300,98066.940,81443.660,89020.370,-0.139,0.931,-0.348,-1.923,-0.580,-0.610,73.333,69.000,1.000,8.775,0.000
123438.400,114050.800,539194.500,481514.200,116728.900,90341.510,75827.360,82498.800,-0.137,0.931,-0.351,-1.984,-0.885,-0.519,73.333,70.000,1.000,6.818,0.000
121243.400,113198.300,533496.700,477455.200,115413.000,89900.810,73801.600,80685.230,-0.136,0.930,-0.350,-2.167,-1.068,-0.336,73.333,71.000,1.000,0.008,0.000
123918.300,111777.100,527855.600,477256.500,114033.800,96878.650,77741.930,85545.450,-0.137,0.930,-0.348,-2.380,-1.343,-0.244,73.333,72.000,1.000,2.520,0.000
125249.600,109084.600,523302.500,474435.200,111876.600,99724.550,80213.430,88317.880,-0.135,0.928,-0.345,-2.472,-1.617,-0.061,73.333,73.000,1.000,0.019,0.000
122584.400,108312.000,519937.800,467819.300,111471.800,93436.620,77313.550,84587.340,-0.136,0.927,-0.345,-2.594,-1.801,0.031,73.333,74.000,1.000,8.136,0.000
117858.600,108831.100,516404.100,460974.700,112361.800,86159.380,72035.650,78454.780,-0.131,0.924,-0.348,-2.594,-1.953,0.244,73.333,75.000,1.000,9.287,0.000
115795.700,108299.100,511240.500,457341.600,111146.300,85652.800,69965.330,76603.530,-0.129,0.922,-0.349,-2.594,-2.014,0.488,73.333,76.000,1.000,0.006,0.000
118194.000,106648.200,506096.900,457307.800,109144.300,92153.520,73571.290,81082.560,-0.127,0.922,-0.348,-2.655,-2.075,0.732,73.333,77.000,1.000,2.524,0.000
119437.200,103792.800,502050.900,454872.400,106740.400,94931.290,76013.830,83803.470,-0.125,0.919,-0.348,-2.625,-2.014,0.885,73.333,78.000,1.000,0.013,0.000
117175.700,103244.900,499167.500,448964.400,106839.400,89284.910,73556.640,80572.910,-0.121,0.921,-0.347,-2.716,-2.014,1.129,73.333,79.000,1.000,10.570,0.000
112984.000,104145.200,496073.400,442802.700,108313.400,82662.090,68762.720,75006.410,-0.122,0.924,-0.344,-2.625,-1.892,1.251,73.333,80.000,1.000,3.220,0.000
111072.100,103821.500,491388.700,439500.100,107201.800,82093.590,66745.290,73197.120,-0.120,0.925,-0.343,-2.686,-1.831,1.434,73.333,81.000,1.000,0.008,0.000
113103.800,102067.800,486705.800,439445.500,104844.300,87893.480,69905.630,77145.270,-0.118,0.925,-0.347,-2.716,-1.648,1.495,73.333,82.000,1.000,1.813,0.000
114180.200,99228.970,483069.000,437276.300,102362.000,90463.270,72177.500,79656.410,-0.116,0.928,-0.343,-2.838,-1.495,1.526,73.333,83.000,1.000,11.261,0.000
112287.900,98831.510,480514.200,432035.200,102771.600,85549.120,70140.580,76917.920,-0.112,0.930,-0.343,-2.930,-1.343,1.648,73.333,84.000,1.000,2.535,0.000
108657.100,99907.920,477731.600,426528.600,104539.200,79704.960,65911.590,72008.460,-0.112,0.933,-0.348,-3.052,-1.160,1.770,73.333,85.000,1.000,2.507,0.000
106914.800,99718.520,473469.200,423482.800,103525.100,79077.330,64001.640,70285.610,-0.110,0.933,-0.344,-3.174,-0.824,1.801,73.333,86.000,1.000,2.458,0.000
108535.300,97941.220,469186.700,423259.200,100997.400,84022.890,66641.360,73613.180,-0.109,0.938,-0.346,-3.326,-0.427,1.801,73.333,87.000,1.000,3.695,0.000
109384.000,95191.460,465852.600,421229.700,98536.690,86256.940,68636.310,75810.190,-0.108,0.943,-0.345,-3.448,-0.244,1.740,73.333,88.000,1.000,11.941,0.000
107805.000,94863.300,463501.300,416591.200,99103.980,82081.070,66975.730,73536.380,-0.106,0.942,-0.342,-3.662,0.153,1.740,73.333,89.000,1.000,0.016,0.000
104728.500,95992.440,460946.500,411719.800,100963.600,77068.590,63345.870,69325.890,-0.106,0.943,-0.344,-3.876,0.427,1.648,73.333,90.000,1.000,4.954,0.000
103172.300,95901.410,457079.200,408913.300,100062.400,76420.530,61599.140,67739.770,-0.105,0.946,-0.342,-4.089,0.702,1.587,73.333,91.000,1.000,0.005,0.000
104389.200,94170.930,453176.000,408477.000,97536.390,80502.390,63724.110,70442.520,-0.104,0.948,-0.345,-4.456,1.129,1.404,73.333,92.000,1.000,15.622,0.000
105010.200,91606.200,450106.000,406545.200,95201.030,82374.320,65404.730,72286.390,-0.103,0.949,-0.346,-4.791,1.465,1.190,73.333,93.000,1.000,2.514,0.000
103714.300,91336.100,447900.100,402459.100,95824.810,78920.350,64075.030,70438.670,-0.104,0.948,-0.345,-5.066,1.862,1.068,73.333,94.000,1.000,2.495,0.000
101154.600,92405.620,445506.800,398153.900,97617.250,74726.510,61027.270,66909.520,-0.105,0.945,-0.342,-5.341,2.167,0.854,73.333,95.000,1.000,2.514,0.000
99775.220,92345.750,441984.500,395524.200,96810.270,74060.880,59453.990,65466.750,-0.105,0.941,-0.344,-5.554,2.411,0.671,73.333,96.000,1.000,2.453,0.000
100613.700,90721.580,438422.900,394830.300,94387.180,77285.730,61072.860,67556.200,-0.107,0.939,-0.343,-5.737,2.747,0.519,73.333,97.000,1.000,2.579,0.000
101005.300,88395.370,435565.000,392938.800,92226.130,78775.590,62418.360,69028.890,-0.108,0.935,-0.341,-5.768,3.143,0.275,73.333,98.000,1.000,2.458,0.000
99937.360,88139.050,433440.400,389335.600,92822.950,75988.860,61373.980,67558.910,-0.108,0.930,-0.343,-5.768,3.387,0.122,73.333,99.000,1.000,2.499,0.000
97841.870,89094.260,431156.900,385542.600,94444.250,72565.020,58874.410,64675.380,-0.105,0.925,-0.345,-5.829,3.815,-0.153,73.333,100.000,1.000,9.305,0.000
96620.530,89035.770,427929.900,383055.800,93712.190,71886.910,57475.490,63380.950,-0.105,0.924,-0.344,-5.615,4.150,-0.336,73.333,101.000,1.000,0.011,0.000
97102.400,87497.550,424655.400,382095.700,91449.380,74307.130,58623.970,64895.640,-0.104,0.922,-0.346,-5.493,4.395,-0.366,73.333,102.000,1.000,1.949,0.000
97278.830,85397.930,421965.700,380223.600,89490.460,75423.470,59639.640,66001.860,-0.105,0.923,-0.344,-5.188,4.486,-0.397,73.333,103.000,1.000,2.462,0.000
96401.390,85129.460,419887.200,377042.800,90007.050,73222.420,58827.690,64849.880,-0.108,0.922,-0.346,-5.096,4.730,-0.519,73.333,104.000,1.000,8.789,0.000
94705.510,85891.570,417671.100,373695.400,91390.240,70486.950,56823.740,62548.250,-0.112,0.923,-0.343,-4.944,4.974,-0.702,73.333,105.000,1.000,3.182,0.000
93626.680,85792.980,414696.600,371334.900,90725.910,69813.410,55606.980,61411.880,-0.117,0.923,-0.341,-4.700,5.096,-0.854,73.333,106.000,1.000,0.008,0.000
93815.520,84431.630,411689.500,370143.000,88682.940,71528.720,56351.020,62432.480,-0.119,0.921,-0.341,-4.456,5.157,-0.916,73.333,107.000,1.000,1.785,0.000
93813.110,82642.970,409156.800,368285.900,86956.460,72311.090,57066.330,63207.430,-0.121,0.919,-0.343,-4.120,5.096,-1.038,73.333,108.000,1.000,12.467,0.000
93090.770,82373.950,407114.800,365472.700,87375.160,70625.390,56450.530,62322.620,-0.120,0.919,-0.341,-3.937,5.188,-1.312,73.333,109.000,1.000,3.107,0.000
91744.730,82947.750,404961.000,362517.100,88505.500,68505.260,54891.270,60530.830,-0.126,0.919,-0.337,-3.632,5.127,-1.190,73.333,110.000,1.000,0.006,0.000
90804.270,82811.930,402216.700,360263.700,87909.040,67855.110,53852.110,59538.890,-0.136,0.923,-0.339,-3.418,5.005,-1.373,73.333,111.000,1.000,1.891,0.000
90750.620,81595.520,399441.600,358860.700,86105.320,68966.610,54254.890,60132.540,-0.146,0.927,-0.338,-3.235,4.639,-1.465,73.333,112.000,1.000,6.260,0.000
90591.080,80048.560,397029.900,357002.300,84602.840,69449.900,54700.880,60612.500,-0.150,0.928,-0.337,-3.052,4.303,-1.617,73.333,113.000,1.000,3.775,0.000
89982.690,79745.080,394995.200,354484.800,84897.060,68187.800,54228.090,59939.610,-0.153,0.931,-0.344,-2.808,3.815,-1.831,73.333,114.000,1.000,4.344,0.000
88919.800,80132.790,392875.200,351853.300,85758.910,66583.350,53032.700,58576.740,-0.150,0.934,-0.341,-2.594,3.174,-2.075,73.333,115.000,1.000,0.007,0.000
88096.050,79956.400,390321.200,349700.300,85216.370,65954.460,52147.520,57721.210,-0.146,0.937,-0.336,-2.472,2.625,-2.106,73.333,116.000,1.000,13.134,0.000
87849.130,78887.340,387746.500,348135.700,83652.840,66554.410,52268.870,57970.660,-0.143,0.940,-0.334,-2.319,2.228,-2.136,73.333,117.000,1.000,4.914,0.000
87565.900,77587.760,385445.100,346284.400,82364.950,66779.930,52484.380,58202.990,-0.137,0.943,-0.339,-2.441,1.953,-1.984,73.333,118.000,1.000,0.008,0.000
87048.800,77261.770,383426.300,344017.400,82535.970,65863.810,52122.380,57697.380,-0.137,0.945,-0.337,-2.472,1.465,-1.648,73.333,119.000,1.000,0.005,0.000
86215.360,77460.940,381343.300,341658.400,83142.340,64688.390,51232.910,56689.250,-0.135,0.943,-0.337,-2.563,1.251,-1.221,73.333,120.000,1.000,11.907,0.000
85485.220,77230.030,378953.500,339584.400,82641.370,64092.760,50488.630,55952.060,-0.136,0.942,-0.340,-2.563,1.007,-1.068,73.333,121.000,1.000,0.011,0.000
85083.020,76295.140,376548.300,337881.600,81301.950,64285.200,50389.920,55921.040,-0.137,0.944,-0.339,-2.563,0.641,-0.763,73.333,122.000,1.000,2.478,0.000
84696.600,75210.240,374338.500,336030.400,80206.120,64293.030,50412.690,55940.150,-0.140,0.943,-0.339,-2.655,0.275,-0.488,73.333,123.000,1.000,0.007,0.000
84240.230,74866.200,372329.200,333954.700,80256.560,63642.710,50124.850,55550.760,-0.140,0.944,-0.340,-2.716,0.000,-0.427,73.333,124.000,1.000,13.248,0.000
83588.110,74921.510,370275.900,331813.800,80628.880,62810.090,49476.000,54822.350,-0.138,0.943,-0.337,-2.777,-0.305,-0.366,73.333,125.000,1.000,2.423,0.000
82945.430,74654.050,368024.400,329824.700,80162.690,62248.300,48852.590,54193.090,-0.138,0.938,-0.337,-2.747,-0.580,-0.214,73.333,126.000,1.000,2.519,0.000
82434.260,73828.990,365761.800,328035.900,79030.460,62124.070,48589.050,53954.510,-0.135,0.937,-0.336,-2.838,-0.885,-0.183,73.333,127.000,1.000,2.473,0.000
81965.580,72914.550,363625.500,326189.000,78104.380,61962.420,48461.020,53809.030,-0.131,0.935,-0.334,-2.869,-1.099,-0.092,73.333,128.000,1.000,2.439,0.000
81543.220,72535.710,361620.400,324263.300,78044.420,61515.460,48229.000,53511.710,-0.130,0.934,-0.335,-2.869,-1.282,0.000,73.333,129.000,1.000,8.146,0.000
81021.300,72443.970,359592.600,322302.300,78214.360,60948.580,47773.430,53010.940,-0.128,0.932,-0.338,-3.052,-1.282,0.092,73.333,130.000,1.000,0.007,0.000
80443.530,72148.350,357460.100,320384.300,77781.810,60425.070,47254.790,52477.320,-0.125,0.931,-0.341,-3.113,-1.434,0.153,73.333,131.000,1.000,1.884,0.000
79856.000,71451.330,355324.400,318533.000,76839.680,60071.130,46875.100,52089.170,-0.124,0.933,-0.341,-3.052,-1.617,0.031,73.333,132.000,1.000,2.570,0.000
79330.960,70694.310,353260.500,316699.500,76064.380,59781.460,46633.300,51820.540,-0.120,0.933,-0.343,-3.113,-1.678,0.122,73.333,133.000,1.000,8.637,0.000
78931.200,70284.800,351268.200,314892.500,75904.840,59479.480,46430.770,51580.680,-0.119,0.931,-0.342,-3.296,-1.587,0.031,73.333,134.000,1.000,8.764,0.000
78504.800,70078.340,349264.800,313064.500,75891.590,59108.180,46107.800,51236.270,-0.115,0.931,-0.339,-3.296,-1.556,-0.061,73.333,135.000,1.000,27.601,0.000
77977.760,69747.350,347222.500,311199.800,75469.770,58618.110,45664.190,50769.900,-0.114,0.929,-0.340,-3.357,-1.465,-0.153,73.333,136.000,1.000,2.432,0.000
77339.800,69114.950,345178.900,309308.500,74674.030,58096.380,45197.660,50271.860,-0.114,0.928,-0.339,-3.357,-1.221,-0.275,73.333,137.000,1.000,2.497,0.000
76781.350,68469.050,343175.000,307496.900,74017.760,57708.020,44866.750,49909.920,-0.115,0.927,-0.344,-3.479,-1.160,-0.427,73.333,138.000,1.000,3.155,0.000
76407.800,68068.090,341215.200,305795.000,73786.590,57510.230,44684.990,49712.300,-0.116,0.926,-0.344,-3.448,-1.221,-0.458,73.333,139.000,1.000,0.008,0.000
76060.770,67793.480,339257.700,304086.500,73645.730,57287.580,44470.290,49491.950,-0.115,0.925,-0.345,-3.479,-1.068,-0.641,73.333,140.000,1.000,1.848,0.000
75580.940,67433.700,337303.800,302283.600,73253.400,56833.010,44099.570,49092.410,-0.113,0.927,-0.344,-3.510,-0.824,-0.763,73.333,141.000,1.000,2.478,0.000
74925.420,66876.940,335347.300,300383.600,72598.930,56205.660,43588.530,48534.170,-0.111,0.927,-0.346,-3.448,-0.671,-0.824,73.333,142.000,1.000,2.530,0.000
74354.040,66344.560,333398.000,298593.300,72049.410,55754.200,43198.750,48109.600,-0.112,0.928,-0.346,-3.540,-0.549,-0.977,73.333,143.000,1.000,2.401,0.000
73991.990,65948.270,331459.900,296961.000,71758.570,55620.620,43022.740,47931.180,-0.110,0.927,-0.345,-3.479,-0.305,-1.068,73.333,144.000,1.000,2.586,0.000
73690.160,65611.400,329531.200,295332.500,71506.730,55491.800,42874.320,47787.840,-0.110,0.929,-0.346,-3.448,-0.061,-1.129,73.333,145.000,1.000,3.187,0.000
73236.480,65215.620,327635.100,293574.800,71118.870,55065.920,42552.940,47431.820,-0.111,0.929,-0.347,-3.418,0.305,-1.160,73.333,146.000,1.000,0.009,0.000
72567.690,64694.900,325737.700,291682.300,70559.520,54378.500,42020.090,46836.840,-0.114,0.927,-0.346,-3.448,0.488,-1.129,73.333,147.000,1.000,1.789,0.000
71988.040,64230.520,323836.100,289923.400,70083.550,53888.350,41594.130,46373.360,-0.113,0.928,-0.347,-3.357,0.671,-1.038,73.333,148.000,1.000,2.488,0.000
71628.840,63821.200,321929.400,288349.700,69740.360,53786.930,41412.650,46200.920,-0.114,0.927,-0.348,-3.326,0.977,-0.916,73.333,149.000,1.000,2.508,0.000
71353.680,63426.120,320037.600,286787.600,69402.580,53708.870,41299.990,46099.760,-0.116,0.928,-0.347,-3.235,1.129,-0.824,73.333,150.000,1.000,3.089,0.000
70933.980,63032.270,318206.100,285080.600,69030.020,53306.890,41015.580,45779.870,-0.117,0.927,-0.347,-3.113,1.373,-0.702,73.333,151.000,1.000,0.006,0.000
70286.600,62588.130,316376.200,283214.500,68565.330,52596.450,40483.130,45182.040,-0.116,0.929,-0.344,-3.052,1.556,-0.641,73.333,152.000,1.000,8.117,0.000
69712.340,62188.790,314521.000,281482.100,68157.360,52083.760,40043.860,44701.160,-0.120,0.928,-0.348,-2.960,1.770,-0.488,73.333,153.000,1.000,6.936,0.000
69342.730,61762.710,312640.400,279941.000,67779.270,51987.900,39858.330,44524.620,-0.124,0.930,-0.350,-2.808,1.831,-0.427,73.333,154.000,1.000,0.009,0.000
69066.140,61316.690,310775.700,278418.400,67378.090,51934.070,39764.730,44445.930,-0.127,0.929,-0.354,-2.747,1.923,-0.519,73.333,155.000,1.000,1.862,0.000
68657.050,60906.100,308986.300,276749.900,67008.040,51558.970,39506.390,44153.030,-0.127,0.931,-0.350,-2.747,1.892,-0.519,73.333,156.000,1.000,3.727,0.000
68027.520,60496.480,307202.800,274919.000,66602.630,50856.190,38984.380,43562.750,-0.124,0.931,-0.349,-2.655,1.953,-0.336,73.333,157.000,1.000,14.335,0.000
67462.830,60134.240,305386.000,273220.500,66234.950,50340.830,38538.620,43074.590,-0.122,0.933,-0.351,-2.472,2.075,-0.336,73.333,158.000,1.000,0.011,0.000
67089.910,59712.100,303536.100,271708.400,65828.840,50243.550,38340.390,42886.460,-0.121,0.934,-0.352,-2.380,2.228,-0.214,73.333,159.000,1.000,5.714,0.000
66819.640,59266.000,301708.300,270218.000,65385.930,50197.780,38246.900,42807.910,-0.120,0.937,-0.350,-2.289,2.350,0.000,73.333,160.000,1.000,4.993,0.000
66430.520,58866.740,299964.400,268592.600,65022.490,49843.440,38005.180,42534.390,-0.119,0.936,-0.348,-2.411,2.411,0.061,73.333,161.000,1.000,2.470,0.000
65833.010,58486.980,298230.000,266815.200,64671.780,49167.540,37509.100,41975.510,-0.119,0.935,-0.349,-2.411,2.716,0.275,73.333,162.000,1.000,2.517,0.000
65286.130,58156.540,296457.700,265153.900,64343.780,48664.300,37072.180,41501.030,-0.116,0.936,-0.347,-2.411,2.686,0.305,73.333,163.000,1.000,2.453,0.000
64900.480,57734.800,294641.600,263657.900,63922.910,48548.630,36858.520,41300.620,-0.117,0.938,-0.349,-2.289,2.808,0.488,73.333,164.000,1.000,3.070,0.000
64611.430,57254.830,292844.200,262190.500,63453.040,48480.800,36754.170,41213.090,-0.116,0.937,-0.349,-2.228,2.991,0.549,73.333,165.000,1.000,0.013,0.000
64220.490,56827.870,291129.000,260600.700,63089.860,48131.650,36522.460,40952.690,-0.117,0.936,-0.349,-2.228,3.082,0.488,73.333,166.000,1.000,1.939,0.000
63645.390,56467.690,289426.300,258867.000,62769.800,47487.720,36053.490,40424.220,-0.122,0.936,-0.345,-2.319,3.174,0.397,73.333,167.000,1.000,15.567,0.000
63118.160,56166.340,287689.300,257240.300,62464.050,47001.910,35631.070,39962.720,-0.124,0.936,-0.345,-2.350,3.265,0.488,73.333,168.000,1.000,0.010,0.000
62734.690,55756.680,285908.500,255759.400,62037.220,46867.030,35409.650,39745.630,-0.127,0.935,-0.345,-2.380,3.235,0.244,73.333,169.000,1.000,1.828,0.000
62443.460,55284.440,284146.700,254303.800,61557.510,46781.750,35296.820,39638.930,-0.124,0.933,-0.348,-2.502,3.082,0.214,73.333,170.000,1.000,2.629,0.000
62067.600,54868.580,282467.700,252746.000,61200.640,46453.180,35075.450,39384.410,-0.125,0.935,-0.344,-2.502,2.991,0.031,73.333,171.000,1.000,2.459,0.000
61529.750,54526.720,280801.600,251064.300,60904.300,45855.680,34635.660,38888.570,-0.123,0.933,-0.345,-2.502,2.960,-0.122,73.333,172.000,1.000,3.700,0.000
61022.660,54230.890,279098.000,249471.500,60610.220,45384.940,34225.530,38444.520,-0.122,0.933,-0.346,-2.655,2.899,-0.275,73.333,173.000,1.000,14.459,0.000
60630.550,53820.270,277352.100,248005.600,60183.650,45219.830,33990.230,38212.750,-0.121,0.935,-0.345,-2.747,2.838,-0.183,73.333,174.000,1.000,0.015,0.000
60320.180,53353.840,275625.800,246568.700,59706.160,45107.500,33859.690,38085.400,-0.118,0.937,-0.342,-2.808,2.747,-0.214,73.333,175.000,1.000,4.300,0.000
59938.900,52948.680,273973.300,245044.100,59351.480,44791.750,33642.110,37836.250,-0.118,0.938,-0.348,-2.930,2.686,-0.214,73.333,176.000,1.000,2.478,0.000
59423.660,52613.520,272332.300,243408.800,59066.300,44240.390,33236.320,37376.660,-0.120,0.938,-0.345,-3.021,2.686,-0.092,73.333,177.000,1.000,2.549,0.000
58938.070,52308.860,270659.900,241849.800,58778.290,43790.270,32850.100,36956.740,-0.122,0.938,-0.343,-3.204,2.563,-0.122,73.333,178.000,1.000,2.553,0.000
58549.480,51899.380,268952.100,240402.700,58354.850,43599.760,32608.060,36717.840,-0.121,0.939,-0.341,-3.418,2.502,-0.061,73.333,179.000,1.000,4.355,0.000
58233.270,51449.200,267262.300,238979.400,57882.800,43461.610,32458.290,36571.430,-0.120,0.936,-0.342,-3.540,2.472,0.061,73.333,180.000,1.000,0.008,0.000
57857.040,51050.750,265632.000,237476.800,57525.730,43152.860,32236.910,36322.550,-0.120,0.936,-0.343,-3.754,2.380,0.153,73.333,181.000,1.000,8.083,0.000
57365.580,50713.880,264007.900,235884.500,57238.950,42640.960,31855.080,35894.780,-0.122,0.935,-0.343,-3.998,2.319,0.183,73.333,182.000,1.000,11.927,0.000
56893.860,50414.970,262358.900,234360.000,56949.370,42215.290,31487.360,35496.580,-0.122,0.936,-0.348,-3.998,2.289,0.214,73.333,183.000,1.000,0.010,0.000
56495.490,50022.260,260680.400,232925.500,56534.240,42007.090,31240.620,35246.130,-0.124,0.937,-0.344,-4.150,2.228,0.275,73.333,184.000,1.000,2.354,0.000
56155.680,49573.880,259016.900,231513.700,56076.250,41841.710,31074.750,35074.960,-0.124,0.938,-0.344,-4.364,2.167,0.275,73.333,185.000,1.000,0.009,0.000
55773.610,49170.600,257407.800,230039.800,55725.910,41540.280,30853.240,34823.240,-0.126,0.939,-0.344,-4.425,2.106,0.397,73.333,186.000,1.000,1.872,0.000
55309.870,48845.530,255811.000,228491.000,55448.120,41076.570,30503.060,34427.980,-0.123,0.939,-0.344,-4.700,1.923,0.488,73.333,187.000,1.000,14.395,0.000
54864.070,48554.830,254194.800,226994.500,55163.300,40677.640,30160.060,34053.770,-0.124,0.939,-0.344,-4.852,1.740,0.488,73.333,188.000,1.000,0.011,0.000
54471.660,48174.400,252550.600,225567.900,54757.180,40448.790,29907.160,33793.190,-0.123,0.937,-0.344,-4.852,1.465,0.488,73.333,189.000,1.000,9.418,0.000
54125.770,47744.090,250918.100,224161.700,54310.150,40257.660,29719.290,33598.340,-0.122,0.937,-0.342,-4.883,1.312,0.397,73.333,190.000,1.000,0.009,0.000
53748.820,47348.810,249331.700,222712.100,53957.570,39959.080,29489.270,33343.350,-0.124,0.933,-0.341,-5.035,1.312,0.366,73.333,191.000,1.000,0.003,0.000
53311.520,47023.420,247760.200,221209.300,53674.880,39530.020,29158.730,32975.410,-0.122,0.932,-0.344,-5.005,1.190,0.275,73.333,192.000,1.000,8.009,0.000
52886.610,46729.870,246177.300,219748.400,53388.500,39153.410,28834.370,32622.580,-0.121,0.933,-0.342,-5.096,1.160,0.366,73.333,193.000,1.000,0.006,0.000
52496.220,46357.590,244571.500,218339.500,52995.830,38907.350,28578.640,32357.340,-0.120,0.932,-0.341,-5.066,1.007,0.275,73.333,194.000,1.000,1.965,0.000
52139.570,45938.880,242973.000,216944.700,52566.390,38688.720,28374.480,32145.730,-0.120,0.932,-0.342,-5.035,1.068,0.305,73.333,195.000,1.000,2.445,0.000
51763.430,45553.750,241412.500,215520.100,52220.090,38395.290,28144.710,31894.020,-0.120,0.931,-0.338,-5.066,0.946,0.305,73.333,196.000,1.000,6.308,0.000
51346.910,45237.440,239867.700,214063.700,51941.380,38011.800,27844.030,31560.760,-0.121,0.930,-0.340,-5.005,0.885,0.427,73.333,197.000,1.000,11.775,0.000
50938.610,44949.070,238314.400,212641.900,51658.450,37665.190,27543.070,31235.400,-0.119,0.929,-0.338,-4.852,0.824,0.427,73.333,198.000,1.000,0.012,0.000
50553.770,44587.250,236741.300,211254.900,51282.310,37405.660,27287.420,30969.570,-0.117,0.927,-0.340,-4.913,0.824,0.275,73.333,199.000,1.000,2.526,0.000
50196.350,44181.140,235173.700,209874.500,50875.370,37166.800,27074.150,30744.790,-0.115,0.927,-0.339,-4.761,0.824,0.244,73.333,200.000,1.000,0.013,0.000
49825.740,43809.380,233636.100,208472.900,50536.780,36880.990,26845.750,30494.840,-0.117,0.927,-0.339,-4.761,0.885,0.305,73.333,201.000,1.000,1.857,0.000
49422.810,43487.320,232106.900,207048.700,50251.410,36526.670,26561.050,30183.110,-0.115,0.928,-0.335,-4.578,0.977,0.244,73.333,202.000,1.000,13.750,0.000
49020.110,43166.740,230566.500,205641.100,49955.520,36188.360,26270.280,29869.610,-0.115,0.930,-0.337,-4.425,1.038,0.305,73.333,203.000,1.000,7.486,0.000
48635.390,42797.440,229016.300,204258.800,49585.950,35913.670,26014.380,29599.710,-0.116,0.932,-0.339,-4.303,0.977,0.275,73.333,204.000,1.000,0.013,0.000
48277.110,42413.540,227480.500,202898.100,49199.040,35665.930,25795.200,29366.830,-0.117,0.933,-0.339,-4.303,1.038,0.458,73.333,205.000,1.000,0.006,0.000
47911.210,42053.660,225967.400,201528.200,48866.020,35387.700,25566.690,29117.920,-0.119,0.934,-0.337,-4.303,1.129,0.366,73.333,206.000,1.000,5.714,0.000
47523.050,41733.950,224459.200,200134.600,48574.660,35055.690,25297.100,28823.600,-0.119,0.934,-0.341,-4.333,1.038,0.366,73.333,207.000,1.000,0.010,0.000
47133.260,41426.800,222948.000,198753.100,48276.500,34732.680,25020.340,28524.620,-0.121,0.937,-0.339,-4.181,1.007,0.397,73.333,208.000,1.000,1.782,0.000
46750.400,41081.470,221432.400,197395.300,47921.640,34454.190,24767.650,28253.440,-0.124,0.940,-0.338,-4.181,1.068,0.366,73.333,209.000,1.000,8.751,0.000
46383.650,40713.580,219923.800,196050.200,47552.220,34197.200,24544.680,28010.810,-0.123,0.940,-0.337,-4.181,0.916,0.397,73.333,210.000,1.000,9.369,0.000
46017.430,40357.640,218429.400,194694.400,47223.870,33924.240,24317.070,27762.520,-0.123,0.935,-0.336,-4.242,0.977,0.427,73.333,211.000,1.000,0.015,0.000
45643.650,40034.900,216939.800,193325.800,46928.710,33616.910,24058.350,27485.360,-0.120,0.930,-0.338,-4.272,0.793,0.488,73.333,212.000,1.000,2.435,0.000
45267.150,39721.020,215448.200,191967.200,46622.380,33308.720,23786.050,27198.460,-0.120,0.927,-0.338,-4.242,0.824,0.488,73.333,213.000,1.000,0.009,0.000
44891.930,39376.620,213953.700,190623.700,46267.160,33020.210,23522.470,26920.900,-0.120,0.928,-0.339,-4.059,0.732,0.458,73.333,214.000,1.000,5.700,0.000
44528.180,39018.890,212467.500,189291.000,45901.230,32744.780,23279.390,26659.410,-0.120,0.926,-0.340,-3.937,0.763,0.488,73.333,215.000,1.000,2.559,0.000
44164.860,38671.060,210994.000,187954.700,45567.990,32464.570,23040.880,26398.670,-0.118,0.926,-0.342,-3.845,0.702,0.427,73.333,216.000,1.000,11.208,0.000
43797.820,38345.560,209526.700,186612.900,45265.610,32170.160,22794.890,26129.610,-0.117,0.927,-0.342,-3.784,0.732,0.488,73.333,217.000,1.000,5.614,0.000
43428.810,38030.390,208063.200,185278.500,44962.350,31878.280,22547.680,25860.530,-0.118,0.928,-0.341,-3.693,0.702,0.336,73.333,218.000,1.000,0.011,0.000
43057.110,37698.470,206600.800,183953.500,44627.340,31593.170,22302.980,25594.600,-0.119,0.928,-0.338,-3.632,0.641,0.214,73.333,219.000,1.000,1.819,0.000
42688.990,37349.690,205141.000,182635.600,44281.590,31312.430,22065.100,25334.770,-0.120,0.927,-0.339,-3.571,0.610,0.153,73.333,220.000,1.000,2.497,0.000
42324.180,37001.890,203685.700,181321.400,43955.300,31033.000,21829.950,25078.900,-0.121,0.929,-0.340,-3.540,0.641,-0.031,73.333,221.000,1.000,8.861,0.000
41966.660,36676.410,202235.800,180012.400,43652.270,30751.670,21594.280,24823.790,-0.120,0.930,-0.338,-3.662,0.549,-0.214,73.333,222.000,1.000,3.021,0.000
41609.030,36360.040,200790.400,178705.500,43345.550,30469.770,21352.560,24562.190,-0.118,0.930,-0.339,-3.632,0.519,-0.397,73.333,223.000,1.000,0.009,0.000
41245.240,36032.680,199348.300,177399.500,43015.360,30187.250,21105.430,24294.570,-0.119,0.930,-0.338,-3.540,0.519,-0.519,73.333,224.000,1.000,1.886,0.000
40884.770,35702.060,197915.400,176101.200,42683.830,29911.230,20865.640,24034.330,-0.120,0.932,-0.339,-3.571,0.336,-0.793,73.333,225.000,1.000,12.543,0.000
40531.290,35376.550,196491.700,174810.700,42369.670,29642.210,20635.210,23784.490,-0.120,0.934,-0.339,-3.754,0.336,-0.946,73.333,226.000,1.000,3.074,0.000
40185.790,35062.390,195075.400,173528.100,42072.980,29377.320,20412.360,23541.950,-0.119,0.935,-0.340,-3.845,0.244,-0.977,73.333,227.000,1.000,0.017,0.000
39835.040,34748.590,193662.700,172245.500,41771.450,29106.870,20183.970,23294.070,-0.120,0.937,-0.338,-3.998,0.092,-1.038,73.333,228.000,1.000,1.904,0.000
39469.260,34421.210,192246.200,170956.700,41447.880,28819.580,19939.770,23032.520,-0.122,0.937,-0.340,-4.028,0.000,-1.068,73.333,229.000,1.000,3.684,0.000
39098.310,34083.760,190827.600,169669.800,41116.470,28528.710,19691.080,22766.810,-0.123,0.937,-0.341,-4.120,0.000,-1.129,73.333,230.000,1.000,9.357,0.000
38735.530,33748.400,189411.600,168391.700,40792.660,28248.690,19449.430,22507.340,-0.124,0.936,-0.342,-4.181,0.031,-1.190,73.333,231.000,1.000,0.012,0.000
38385.930,33424.150,188001.900,167121.200,40482.190,27980.530,19218.030,22258.160,-0.124,0.935,-0.338,-4.242,-0.214,-1.160,73.333,232.000,1.000,5.572,0.000
38039.040,33107.230,186602.700,165854.200,40176.910,27713.780,18989.260,22011.670,-0.124,0.935,-0.340,-4.242,-0.244,-1.221,73.333,233.000,1.000,4.387,0.000
37689.450,32796.400,185214.900,164593.200,39870.890,27440.030,18757.390,21761.130,-0.125,0.937,-0.335,-4.211,-0.397,-1.190,73.333,234.000,1.000,0.005,0.000
37338.810,32484.940,183831.100,163337.100,39563.120,27166.170,18523.230,21507.760,-0.127,0.938,-0.338,-4.303,-0.458,-1.099,73.333,235.000,1.000,5.599,0.000
36995.130,32169.580,182446.300,162085.900,39255.450,26902.730,18295.000,21261.200,-0.128,0.939,-0.339,-4.333,-0.610,-1.129,73.333,236.000,1.000,3.797,0.000
36662.280,31855.490,181065.800,160845.000,38955.090,26649.860,18077.830,21026.740,-0.129,0.942,-0.336,-4.425,-0.671,-1.160,73.333,237.000,1.000,19.880,0.000
36324.720,31538.900,179690.800,159602.500,38652.220,26387.340,17855.270,20786.800,-0.130,0.944,-0.337,-4.486,-0.854,-1.007,73.333,238.000,1.000,0.012,0.000
35980.370,31227.030,178322.300,158355.300,38345.120,26109.590,17622.550,20534.120,-0.132,0.943,-0.337,-4.608,-1.007,-0.977,73.333,239.000,1.000,0.003,0.000
35638.000,30920.940,176962.000,157113.600,38040.150,25835.050,17389.320,20279.700,-0.131,0.943,-0.336,-4.761,-1.099,-0.946,73.333,240.000,1.000,2.611,0.000
35300.160,30608.880,175603.300,155879.700,37734.480,25573.460,17160.840,20033.460,-0.129,0.938,-0.333,-4.822,-1.190,-0.977,73.333,241.000,1.000,7.563,0.000
34966.660,30290.860,174244.500,154652.300,37430.300,25322.910,16940.680,19798.720,-0.128,0.931,-0.332,-4.761,-1.404,-0.793,73.333,242.000,1.000,10.007,0.000
34630.880,29974.770,172890.000,153423.600,37126.450,25066.860,16719.850,19561.380,-0.128,0.925,-0.332,-4.608,-1.495,-0.671,73.333,243.000,1.000,7.463,0.000
34292.230,29669.430,171544.400,152194.600,36827.550,24797.380,16492.070,19313.220,-0.127,0.919,-0.332,-4.486,-1.495,-0.580,73.333,244.000,1.000,8.752,0.000
33953.550,29367.840,170204.600,150973.200,36532.750,24527.170,16261.810,19062.460,-0.125,0.915,-0.333,-4.089,-1.373,-0.458,73.333,245.000,1.000,4.915,0.000
33619.100,29061.420,168861.700,149761.400,36233.300,24269.160,16038.490,18821.340,-0.120,0.915,-0.334,-3.723,-1.373,-0.366,73.333,246.000,1.000,8.771,0.000
33289.920,28751.660,167516.100,148554.600,35931.040,24023.590,15825.280,18592.460,-0.116,0.920,-0.333,-3.326,-1.282,-0.122,73.333,247.000,1.000,2.536,0.000
32956.980,28440.570,166174.300,147343.200,35627.750,23769.040,15608.000,18358.980,-0.113,0.927,-0.334,-2.960,-1.160,0.153,73.333,248.000,1.000,2.426,0.000
32618.900,28136.800,164842.800,146129.600,35331.540,23498.080,15380.940,18113.290,-0.113,0.932,-0.334,-2.716,-0.946,0.397,73.333,249.000,1.000,2.606,0.000
32280.510,27839.860,163522.100,144923.200,35042.740,23229.730,15153.000,17866.620,-0.109,0.929,-0.332,-2.686,-0.702,0.702,73.333,250.000,1.000,2.416,0.000
31950.820,27545.020,162209.500,143732.300,34754.630,22979.840,14937.320,17634.440,-0.110,0.925,-0.334,-2.594,-0.427,0.946,73.333,251.000,1.000,2.514,0.000
31629.870,27246.970,160902.300,142552.800,34464.860,22742.550,14732.460,17414.110,-0.113,0.927,-0.334,-2.472,-0.244,1.007,73.333,252.000,1.000,2.478,0.000
31304.860,26942.860,159597.400,141367.700,34169.700,22492.110,14519.890,17184.640,-0.118,0.931,-0.337,-2.258,-0.031,1.068,73.333,253.000,1.000,2.511,0.000
30975.150,26644.660,158295.700,140178.700,33879.590,22225.430,14297.750,16943.150,-0.122,0.935,-0.336,-2.197,0.122,1.129,73.333,254.000,1.000,2.479,0.000
30644.560,26352.170,156996.500,138995.000,33595.770,21962.260,14073.990,16699.270,-0.124,0.939,-0.328,-2.136,0.244,0.854,73.333,255.000,1.000,4.985,0.000
30319.060,26058.840,155696.700,137820.400,33308.620,21714.570,13856.520,16462.670,-0.127,0.941,-0.333,-2.167,0.214,0.702,73.333,256.000,1.000,27.643,0.000
30001.840,25762.920,154398.500,136655.000,33018.950,21479.430,13649.150,16237.770,-0.130,0.945,-0.332,-2.258,0.153,0.458,73.333,257.000,1.000,3.015,0.000
29684.890,25464.360,153104.000,135489.500,32729.050,21236.100,13440.790,16012.370,-0.129,0.946,-0.335,-2.289,0.000,0.214,73.333,258.000,1.000,0.005,0.000
29363.000,25170.650,151813.000,134320.500,32444.850,20976.080,13224.060,15777.420,-0.127,0.951,-0.332,-2.380,-0.031,-0.031,73.333,259.000,1.000,4.368,0.000
29035.900,24880.380,150524.600,133151.800,32164.120,20714.750,13004.360,15538.870,-0.121,0.954,-0.331,-2.502,-0.031,-0.244,73.333,260.000,1.000,2.532,0.000
28713.300,24591.790,149241.600,131992.400,31883.680,20471.390,12797.120,15313.140,-0.114,0.956,-0.330,-2.625,0.031,-0.366,73.333,261.000,1.000,2.457,0.000
28399.460,24303.000,147968.300,130844.600,31604.210,20245.370,12604.810,15102.880,-0.106,0.954,-0.331,-2.869,0.305,-0.336,73.333,262.000,1.000,2.503,0.000
28084.200,24009.070,146701.300,129695.700,31320.860,20009.720,12406.870,14885.830,-0.105,0.953,-0.331,-3.143,0.610,-0.183,73.333,263.000,1.000,2.490,0.000
27764.140,23716.600,145438.500,128543.700,31039.070,19755.920,12195.200,14652.680,-0.104,0.950,-0.333,-3.326,0.916,-0.061,73.333,264.000,1.000,2.582,0.000
27440.880,23426.460,144178.200,127395.200,30759.810,19498.400,11978.880,14415.980,-0.107,0.947,-0.334,-3.510,1.221,0.092,73.333,265.000,1.000,2.400,0.000
27119.580,23134.090,142916.600,126251.800,30476.540,19247.590,11768.170,14188.290,-0.111,0.945,-0.335,-3.571,1.495,0.000,73.333,266.000,1.000,2.582,0.000
26805.160,22840.570,141657.500,125113.600,30192.010,19007.790,11564.650,13969.720,-0.117,0.944,-0.332,-3.693,1.709,0.000,73.333,267.000,1.000,2.471,0.000
26495.680,22551.460,140406.800,123981.600,29912.370,18770.200,11361.210,13751.770,-0.120,0.942,-0.332,-3.815,1.923,-0.092,73.333,268.000,1.000,2.470,0.000
26186.180,22268.180,139162.500,122853.300,29639.570,18525.570,11154.270,13529.300,-0.118,0.936,-0.326,-3.876,1.984,-0.244,73.333,269.000,1.000,2.519,0.000
25873.970,21985.130,137919.900,121725.600,29364.980,18276.710,10943.010,13300.990,-0.116,0.930,-0.327,-3.937,2.197,-0.275,73.333,270.000,1.000,9.949,0.000
25565.940,21704.960,136680.800,120604.500,29086.060,18034.450,10733.990,13074.570,-0.116,0.928,-0.325,-3.876,2.319,-0.366,73.333,271.000,1.000,3.151,0.000
25263.680,21426.810,135447.600,119491.800,28808.500,17804.320,10534.580,12857.880,-0.117,0.926,-0.323,-3.906,2.441,-0.336,73.333,272.000,1.000,0.007,0.000
24959.120,21145.440,134219.600,118380.800,28533.410,17573.470,10338.690,12645.050,-0.115,0.922,-0.326,-3.845,2.594,-0.336,73.333,273.000,1.000,1.893,0.000
24647.750,20863.970,132995.100,117269.100,28261.760,17331.280,10136.960,12426.330,-0.116,0.920,-0.328,-3.601,2.716,-0.214,73.333,274.000,1.000,4.931,0.000
24333.310,20585.930,131773.900,116157.200,27990.510,17085.240,9928.897,12201.250,-0.115,0.920,-0.327,-3.448,2.686,-0.305,73.333,275.000,1.000,3.134,0.000
24026.380,20311.380,130558.000,115054.900,27718.770,16848.480,9724.604,11980.910,-0.117,0.920,-0.326,-3.113,2.594,-0.275,73.333,276.000,1.000,0.005,0.000
23724.780,20033.260,129344.500,113959.300,27446.500,16620.460,9526.790,11766.990,-0.118,0.922,-0.326,-2.899,2.777,-0.275,73.333,277.000,1.000,1.950,0.000
23419.390,19750.700,128130.000,112858.400,27173.150,16388.900,9328.354,11550.990,-0.119,0.921,-0.327,-2.869,2.930,-0.092,73.333,278.000,1.000,2.470,0.000
23112.090,19472.540,126919.200,111758.100,26904.210,16151.450,9127.972,11333.480,-0.119,0.922,-0.326,-2.747,2.838,-0.031,73.333,279.000,1.000,2.464,0.000
22803.740,19196.620,125710.300,110660.200,26634.740,15912.280,8924.664,11113.910,-0.119,0.920,-0.326,-2.411,2.930,-0.153,73.333,280.000,1.000,3.176,0.000
22497.510,18918.800,124500.800,109566.200,26359.170,15677.250,8721.670,10894.270,-0.122,0.920,-0.328,-2.167,2.930,-0.153,73.333,281.000,1.000,0.008,0.000
22198.360,18640.690,123295.200,108481.800,26081.950,15449.570,8524.832,10681.600,-0.124,0.922,-0.326,-1.923,2.899,-0.122,73.333,282.000,1.000,1.868,0.000
21902.220,18363.730,122094.200,107400.800,25807.020,15220.790,8329.756,10472.330,-0.127,0.923,-0.326,-1.740,2.747,-0.183,73.333,283.000,1.000,2.501,0.000
21603.580,18089.930,120898.100,106319.600,25538.860,14986.030,8130.582,10259.940,-0.128,0.926,-0.325,-1.556,2.655,-0.275,73.333,284.000,1.000,5.593,0.000
21303.000,17819.440,119710.200,105243.200,25276.500,14751.000,7929.941,10046.240,-0.129,0.926,-0.327,-1.495,2.441,-0.305,73.333,285.000,1.000,0.008,0.000
21004.840,17551.690,118531.000,104174.600,25014.110,14520.910,7733.035,9835.771,-0.126,0.929,-0.330,-1.373,2.258,-0.366,73.333,286.000,1.000,8.654,0.000
20708.490,17281.660,117357.100,103110.500,24747.850,14294.280,7539.563,9627.325,-0.125,0.933,-0.329,-1.190,2.136,-0.244,73.333,287.000,1.000,0.013,0.000
20412.690,17009.160,116187.000,102047.300,24481.700,14068.300,7348.349,9418.487,-0.123,0.935,-0.337,-1.068,1.923,-0.397,73.333,288.000,1.000,1.928,0.000
20119.730,16742.310,115021.300,100985.200,24222.910,13844.370,7159.019,9210.333,-0.123,0.936,-0.332,-1.099,1.801,-0.366,73.333,289.000,1.000,12.504,0.000
19827.960,16479.570,113857.000,99926.100,23967.290,13622.520,6968.651,9003.311,-0.121,0.937,-0.333,-1.190,1.678,-0.214,73.333,290.000,1.000,2.490,0.000
19535.000,16214.810,112691.800,98872.800,23708.030,13401.700,6777.206,8796.842,-0.123,0.941,-0.332,-1.251,1.495,-0.122,73.333,291.000,1.000,2.483,0.000
19241.370,15947.100,111527.800,97823.490,23444.220,13180.180,6585.841,8589.625,-0.125,0.942,-0.331,-1.373,1.312,-0.092,73.333,292.000,1.000,2.526,0.000
18949.460,15680.560,110369.400,96775.510,23180.600,12956.300,6395.472,8382.692,-0.124,0.945,-0.334,-1.526,1.251,-0.122,73.333,293.000,1.000,2.498,0.000
18660.520,15418.860,109218.500,95730.410,22923.210,12732.290,6207.789,8178.588,-0.123,0.946,-0.336,-1.556,1.007,-0.153,73.333,294.000,1.000,34.350,0.000
18371.570,15158.510,108071.700,94686.310,22667.880,12507.230,6019.537,7973.680,-0.122,0.947,-0.336,-1.709,0.885,-0.122,73.333,295.000,1.000,0.012,0.000
18082.290,14895.670,106925.000,93642.920,22409.020,12280.090,5827.620,7765.221,-0.122,0.946,-0.340,-1.862,0.854,-0.092,73.333,296.000,1.000,1.888,0.000
17796.630,14633.130,105782.700,92607.790,22150.290,12056.990,5635.734,7557.682,-0.122,0.948,-0.336,-2.075,0.671,-0.061,73.333,297.000,1.000,2.427,0.000
17515.860,14375.830,104649.000,91581.410,21897.210,11840.800,5449.230,7355.074,-0.120,0.947,-0.336,-2.136,0.610,-0.061,73.333,298.000,1.000,2.579,0.000
17236.500,14123.220,103521.500,90557.600,21649.170,11626.100,5267.922,7157.349,-0.120,0.944,-0.338,-2.380,0.458,-0.092,73.333,299.000,1.000,2.489,0.000
16956.270,13870.450,102396.900,89536.080,21400.380,11408.740,5086.441,6961.246,-0.116,0.943,-0.342,-2.289,0.458,-0.183,73.333,300.000,1.000,2.544,0.000
16675.640,13613.980,101274.300,88516.950,21147.820,11191.750,4903.565,6763.695,-0.115,0.943,-0.346,-2.502,0.519,-0.122,73.333,301.000,1.000,2.374,0.000
16395.210,13355.350,100154.800,87501.440,20894.140,10978.680,4721.905,6565.034,-0.115,0.943,-0.341,-2.686,0.458,-0.183,73.333,302.000,1.000,2.585,0.000
16115.290,13097.130,99038.330,86491.080,20641.380,10764.150,4537.698,6364.185,-0.118,0.939,-0.340,-2.869,0.458,-0.305,73.333,303.000,1.000,2.438,0.000
15833.510,12838.360,97921.980,85478.340,20388.140,10543.510,4347.599,6159.881,-0.116,0.937,-0.338,-2.808,0.366,-0.366,73.333,304.000,1.000,2.576,0.000
15549.520,12580.560,96807.410,84463.800,20135.220,10321.900,4157.510,5957.417,-0.113,0.931,-0.338,-2.747,0.397,-0.427,73.333,305.000,1.000,2.393,0.000
15267.480,12325.650,95698.660,83457.640,19884.100,10102.970,3972.196,5760.329,-0.112,0.927,-0.340,-2.655,0.519,-0.458,73.333,306.000,1.000,2.624,0.000
14988.950,12071.030,94595.090,82457.340,19632.640,9884.947,3789.696,5565.028,-0.110,0.923,-0.340,-2.502,0.641,-0.702,73.333,307.000,1.000,3.071,0.000
14717.450,11820.110,93498.800,81461.850,19385.420,9672.428,3612.822,5374.522,-0.109,0.925,-0.338,-2.289,0.824,-0.732,73.333,308.000,1.000,0.012,0.000
14453.670,11576.280,92412.380,80477.520,19147.400,9469.085,3444.239,5192.615,-0.111,0.924,-0.336,-2.136,0.946,-0.916,73.333,309.000,1.000,1.883,0.000
14184.220,11328.480,91325.050,79495.800,18907.580,9261.727,3271.672,5006.758,-0.111,0.925,-0.332,-1.984,1.068,-1.068,73.333,310.000,1.000,3.044,0.000
13903.280,11072.860,90230.740,78503.450,18657.960,9043.126,3087.569,4808.112,-0.114,0.928,-0.334,-1.923,1.221,-1.282,73.333,311.000,1.000,0.009,0.000
13622.030,10818.750,89140.000,77507.840,18406.790,8824.504,2902.504,4607.857,-0.117,0.931,-0.332,-1.831,1.343,-1.434,73.333,312.000,1.000,8.161,0.000
13345.040,10565.710,88057.020,76522.220,18159.680,8610.771,2722.604,4414.689,-0.120,0.935,-0.337,-1.740,1.373,-1.617,73.333,313.000,1.000,4.349,0.000
13068.080,10309.890,86975.480,75539.680,17912.160,8396.868,2542.143,4221.884,-0.119,0.938,-0.335,-1.678,1.251,-1.709,73.333,314.000,1.000,0.008,0.000
12795.100,10059.280,85897.290,74557.550,17666.110,8186.440,2362.928,4027.932,-0.118,0.941,-0.332,-1.587,1.251,-1.678,73.333,315.000,1.000,3.686,0.000
12531.350,9819.143,84829.470,73588.650,17428.840,7985.312,2191.312,3840.632,-0.118,0.943,-0.331,-1.587,1.312,-1.709,73.333,316.000,1.000,0.006,0.000
12269.440,9579.692,83766.810,72628.490,17194.550,7783.722,2020.020,3655.522,-0.119,0.942,-0.333,-1.617,1.251,-1.678,73.333,317.000,1.000,15.010,0.000
12002.780,9335.645,82702.530,71664.290,16955.330,7574.909,1843.230,3464.718,-0.120,0.941,-0.334,-1.556,1.312,-1.556,73.333,318.000,1.000,0.016,0.000
11737.690,9095.853,81642.940,70702.030,16717.120,7369.037,1669.679,3274.414,-0.122,0.939,-0.334,-1.648,1.221,-1.495,73.333,319.000,1.000,2.580,0.000
11478.790,8864.193,80593.230,69748.800,16485.490,7171.417,1504.923,3090.451,-0.123,0.941,-0.335,-1.587,1.282,-1.404,73.333,320.000,1.000,0.005,0.000
11217.390,8630.333,79544.420,68795.840,16252.710,6972.121,1339.302,2905.400,-0.123,0.943,-0.332,-1.770,1.190,-1.190,73.333,321.000,1.000,10.590,0.000
10946.890,8387.743,78488.800,67837.200,16011.080,6763.552,1163.577,2712.275,-0.124,0.943,-0.333,-1.801,1.129,-0.977,73.333,322.000,1.000,9.909,0.000
10675.150,8142.047,77432.590,66879.910,15766.170,6552.697,984.262,2516.288,-0.125,0.943,-0.335,-2.014,1.160,-0.916,73.333,323.000,1.000,0.011,0.000
10411.030,7899.045,76384.260,65931.740,15526.790,6349.345,811.966,2325.934,-0.124,0.941,-0.334,-2.106,1.251,-0.824,73.333,324.000,1.000,0.003,0.000
10152.980,7660.618,75344.090,64991.980,15292.720,6150.977,644.508,2141.597,-0.126,0.937,-0.335,-2.167,1.129,-0.610,73.333,325.000,1.000,3.191,0.000
9893.660,7423.805,74306.410,64052.020,15057.850,5949.190,473.210,1956.798,-0.127,0.934,-0.336,-2.106,1.251,-0.458,73.333,326.000,1.000,0.010,0.000
9630.489,7184.169,73269.400,63108.510,14821.100,5745.406,298.780,1769.731,-0.125,0.933,-0.338,-2.075,1.129,-0.458,73.333,327.000,1.000,4.282,0.000
9366.053,6942.164,72236.390,62167.430,14585.050,5542.918,124.579,1583.743,-0.124,0.932,-0.336,-2.167,1.038,-0.244,73.333,328.000,1.000,8.844,0.000
9104.367,6703.952,71210.600,61235.940,14352.230,5342.100,-47.496,1402.202,-0.124,0.931,-0.340,-2.014,1.099,-0.336,73.333,329.000,1.000,5.578,0.000
8847.333,6471.356,70190.700,60311.450,14123.300,5143.795,-215.941,1224.019,-0.121,0.931,-0.338,-1.953,0.916,-0.214,73.333,330.000,1.000,0.009,0.000
8591.670,6237.749,69172.520,59387.140,13894.540,4945.638,-383.369,1044.007,-0.122,0.929,-0.340,-1.984,0.977,-0.092,73.333,331.000,1.000,1.899,0.000
8340.139,6005.353,68160.370,58471.340,13668.720,4751.005,-544.905,867.958,-0.122,0.930,-0.339,-1.953,1.007,-0.153,73.333,332.000,1.000,26.215,0.000
8095.074,5780.329,67156.390,57565.610,13448.780,4563.688,-696.478,701.498,-0.121,0.929,-0.343,-1.770,1.038,-0.122,73.333,333.000,1.000,3.635,0.000
7844.300,5552.405,66147.050,56651.640,13221.650,4371.032,-856.020,526.892,-0.118,0.927,-0.338,-1.617,1.038,-0.153,73.333,334.000,1.000,0.006,0.000
7584.153,5315.782,65128.730,55728.860,12983.010,4166.484,-1031.513,336.618,-0.118,0.927,-0.342,-1.587,1.099,-0.305,73.333,335.000,1.000,0.007,0.000
7324.420,5078.791,64113.530,54811.880,12746.130,3961.667,-1205.450,148.146,-0.118,0.927,-0.340,-1.404,1.221,-0.366,73.333,336.000,1.000,2.578,0.000
7065.237,4843.771,63103.690,53899.610,12512.640,3759.514,-1374.397,-36.214,-0.117,0.929,-0.337,-1.312,1.251,-0.336,73.333,337.000,1.000,2.560,0.000
6806.567,4614.270,62100.750,52989.200,12280.790,3559.927,-1542.582,-221.002,-0.118,0.929,-0.339,-1.312,1.312,-0.488,73.333,338.000,1.000,9.278,0.000
6553.521,4390.127,61110.200,52084.130,12054.570,3367.990,-1705.359,-401.301,-0.118,0.933,-0.339,-1.312,1.404,-0.549,73.333,339.000,1.000,0.007,0.000
6306.906,4164.998,60129.910,51185.230,11832.580,3182.101,-1863.033,-576.424,-0.117,0.934,-0.338,-1.251,1.587,-0.580,73.333,340.000,1.000,1.958,0.000
6066.341,3942.714,59156.480,50294.650,11613.620,2998.536,-2018.753,-746.835,-0.117,0.934,-0.340,-1.190,1.587,-0.519,73.333,341.000,1.000,2.494,0.000
5829.167,3725.208,58187.000,49412.490,11398.040,2815.809,-2172.606,-912.114,-0.117,0.935,-0.344,-1.068,1.740,-0.641,73.333,342.000,1.000,5.525,0.000
5585.322,3502.519,57212.100,48526.920,11178.290,2627.917,-2329.900,-1081.496,-0.117,0.936,-0.341,-1.038,1.709,-0.824,73.333,343.000,1.000,0.008,0.000
5332.814,3274.171,56229.920,47634.800,10951.200,2433.041,-2493.012,-1259.055,-0.119,0.938,-0.340,-1.068,1.770,-0.946,73.333,344.000,1.000,4.468,0.000
5085.151,3052.041,55253.980,46751.140,10728.370,2241.930,-2651.309,-1431.998,-0.119,0.936,-0.341,-1.038,1.770,-1.007,73.333,345.000,1.000,4.990,0.000
4842.809,2832.752,54285.850,45876.490,10510.840,2055.670,-2805.032,-1599.395,-0.120,0.936,-0.341,-1.190,1.801,-1.129,73.333,346.000,1.000,2.595,0.000
4595.988,2609.100,53316.710,44999.860,10289.980,1866.145,-2962.891,-1770.379,-0.121,0.938,-0.340,-1.160,1.862,-1.282,73.333,347.000,1.000,2.419,0.000
4347.827,2387.353,52348.890,44121.610,10068.250,1676.779,-3121.380,-1942.345,-0.122,0.937,-0.340,-1.251,1.740,-1.343,73.333,348.000,1.000,2.510,0.000
4104.450,2167.619,51387.550,43249.670,9850.678,1492.119,-3275.651,-2110.158,-0.123,0.936,-0.340,-1.343,1.709,-1.404,73.333,349.000,1.000,11.798,0.000
3863.996,1944.282,50430.360,42383.520,9634.122,1306.925,-3429.501,-2277.706,-0.126,0.939,-0.340,-1.404,1.648,-1.465,73.333,350.000,1.000,0.014,0.000
3627.531,1722.542,49478.100,41520.550,9417.454,1120.723,-3583.829,-2446.144,-0.125,0.941,-0.341,-1.526,1.526,-1.526,73.333,351.000,1.000,1.934,0.000
3404.704,1516.310,48540.860,40672.640,9211.307,944.869,-3728.946,-2604.145,-0.127,0.941,-0.341,-1.648,1.434,-1.526,73.333,352.000,1.000,7.504,0.000
3185.170,1316.662,47609.710,39831.140,9009.838,774.421,-3871.369,-2758.722,-0.128,0.943,-0.340,-1.831,1.343,-1.587,73.333,353.000,1.000,8.792,0.000
2944.152,1096.908,46661.500,38967.100,8790.724,588.363,-4031.399,-2931.947,-0.130,0.942,-0.342,-1.892,1.221,-1.617,73.333,354.000,1.000,2.522,0.000
2692.281,866.819,45706.530,38093.360,8563.086,393.622,-4199.276,-3113.325,-0.131,0.943,-0.346,-2.014,1.038,-1.678,73.333,355.000,1.000,2.361,0.000
2453.236,650.473,44767.630,37238.740,8348.488,209.478,-4354.367,-3280.973,-0.132,0.941,-0.343,-2.197,0.763,-1.648,73.333,356.000,1.000,2.556,0.000
2219.033,437.442,43837.270,36393.950,8139.009,29.497,-4503.723,-3442.293,-0.134,0.941,-0.342,-2.319,0.488,-1.678,73.333,357.000,1.000,2.512,0.000
1980.401,216.667,42905.630,35547.990,7924.695,-153.496,-4657.030,-3608.347,-0.134,0.940,-0.343,-2.380,0.336,-1.709,73.333,358.000,1.000,4.388,0.000
1744.611,-0.420,41978.330,34707.740,7712.014,-333.059,-4809.237,-3773.515,-0.133,0.939,-0.342,-2.502,0.153,-1.556,73.333,359.000,1.000,0.005,0.000
1511.127,-210.706,41055.020,33871.300,7503.397,-509.059,-4958.364,-3934.325,-0.132,0.939,-0.341,-2.594,-0.031,-1.587,73.333,360.000,1.000,3.024,0.000
1277.249,-420.514,40134.500,33037.370,7296.843,-684.358,-5105.993,-4093.561,-0.131,0.938,-0.340,-2.838,-0.244,-1.526,73.333,361.000,1.000,8.754,0.000
1048.935,-626.074,39222.790,32210.050,7095.152,-855.256,-5249.245,-4250.483,-0.129,0.935,-0.343,-3.021,-0.336,-1.526,73.333,362.000,1.000,3.140,0.000
828.529,-822.641,38321.450,31389.590,6899.485,-1020.103,-5387.349,-4403.538,-0.131,0.936,-0.340,-3.052,-0.610,-1.404,73.333,363.000,1.000,0.011,0.000
606.813,-1019.461,37420.750,30571.920,6700.701,-1188.186,-5529.377,-4558.978,-0.130,0.935,-0.338,-3.143,-0.702,-1.343,73.333,364.000,1.000,4.364,0.000
373.890,-1228.591,36510.630,29747.360,6489.867,-1367.932,-5682.335,-4723.288,-0.131,0.931,-0.343,-3.265,-0.854,-1.221,73.333,365.000,1.000,5.042,0.000
134.938,-1445.178,35597.210,28917.690,6273.766,-1553.365,-5839.360,-4891.191,-0.131,0.929,-0.344,-3.265,-1.007,-1.068,73.333,366.000,1.000,2.540,0.000
-102.534,-1659.870,34688.790,28090.480,6059.835,-1738.055,-5995.927,-5059.061,-0.131,0.928,-0.342,-3.387,-1.190,-0.977,73.333,367.000,1.000,11.161,0.000
-337.437,-1873.642,33785.280,27269.170,5847.646,-1920.988,-6151.955,-5226.740,-0.131,0.928,-0.340,-3.357,-1.251,-0.946,73.333,368.000,1.000,3.111,0.000
-564.309,-2083.303,32890.900,26461.110,5641.473,-2097.889,-6300.372,-5387.078,-0.128,0.927,-0.342,-3.265,-1.495,-0.885,73.333,369.000,1.000,0.009,0.000
-783.266,-2285.240,32006.240,25662.060,5441.203,-2270.555,-6442.007,-5540.822,-0.128,0.928,-0.341,-3.265,-1.465,-0.885,73.333,370.000,1.000,1.966,0.000
-1000.881,-2482.838,31126.190,24861.320,5242.354,-2442.658,-6582.567,-5693.603,-0.124,0.927,-0.340,-3.296,-1.495,-0.885,73.333,371.000,1.000,4.955,0.000
-1222.432,-2683.598,30245.110,24056.250,5042.250,-2614.420,-6724.250,-5847.528,-0.123,0.927,-0.337,-3.448,-1.404,-0.824,73.333,372.000,1.000,2.425,0.000
-1448.994,-2891.930,29360.350,23249.990,4838.360,-2788.650,-6869.675,-6004.742,-0.122,0.928,-0.340,-3.235,-1.404,-0.702,73.333,373.000,1.000,6.321,0.000
-1671.113,-3096.429,28481.600,22452.350,4637.557,-2959.960,-7011.984,-6158.694,-0.120,0.927,-0.338,-3.204,-1.221,-0.732,73.333,374.000,1.000,3.151,0.000
-1886.321,-3291.963,27612.990,21664.340,4443.726,-3124.138,-7147.828,-6306.814,-0.120,0.929,-0.335,-3.296,-1.190,-0.702,73.333,375.000,1.000,0.007,0.000
-2104.466,-3488.323,26744.670,20874.680,4248.271,-3290.297,-7286.356,-6458.421,-0.120,0.932,-0.337,-3.357,-1.129,-0.671,73.333,376.000,1.000,8.086,0.000
-2327.017,-3688.542,25871.760,20078.850,4046.001,-3463.811,-7431.803,-6617.661,-0.119,0.935,-0.336,-3.540,-1.038,-0.671,73.333,377.000,1.000,2.496,0.000
-2545.778,-3887.142,25000.810,19285.030,3842.355,-3637.499,-7578.843,-6778.196,-0.120,0.936,-0.334,-3.632,-1.007,-0.732,73.333,378.000,1.000,6.300,0.000
-2756.225,-4079.048,24140.320,18504.080,3645.972,-3802.617,-7719.342,-6930.808,-0.118,0.933,-0.335,-3.662,-0.763,-0.671,73.333,379.000,1.000,3.115,0.000
-2964.572,-4267.652,23287.170,17733.270,3455.350,-3960.953,-7852.720,-7076.572,-0.115,0.930,-0.335,-3.571,-0.610,-0.549,73.333,380.000,1.000,0.005,0.000
-3176.052,-4457.296,22433.970,16961.620,3264.002,-4119.009,-7985.577,-7223.937,-0.115,0.932,-0.333,-3.418,-0.397,-0.519,73.333,381.000,1.000,13.116,0.000
-3388.616,-4648.227,21580.730,16185.380,3071.051,-4279.343,-8121.503,-7374.749,-0.115,0.931,-0.337,-3.448,-0.244,-0.397,73.333,382.000,1.000,2.381,0.000
-3603.374,-4843.315,20727.760,15406.340,2875.801,-4442.789,-8259.558,-7525.950,-0.116,0.934,-0.331,-3.326,0.000,-0.366,73.333,383.000,1.000,2.565,0.000
-3819.378,-5040.448,19877.340,14631.260,2679.847,-4606.624,-8396.269,-7674.799,-0.121,0.933,-0.335,-3.204,0.214,-0.366,73.333,384.000,1.000,2.455,0.000
-4032.605,-5236.108,19033.130,13865.070,2486.346,-4769.079,-8530.335,-7821.505,-0.124,0.934,-0.332,-3.082,0.397,-0.488,73.333,385.000,1.000,6.314,0.000
-4245.294,-5431.230,18192.130,13101.620,2292.796,-4933.135,-8665.177,-7969.287,-0.123,0.931,-0.336,-3.113,0.641,-0.519,73.333,386.000,1.000,9.970,0.000
-4458.806,-5624.238,17352.700,12337.270,2098.180,-5098.176,-8801.735,-8118.161,-0.120,0.930,-0.333,-2.960,0.824,-0.519,73.333,387.000,1.000,2.544,0.000
-4668.161,-5812.065,16519.720,11580.280,1908.227,-5260.007,-8935.130,-8263.259,-0.118,0.924,-0.333,-2.777,0.977,-0.610,73.333,388.000,1.000,2.480,0.000
-4873.134,-5996.254,15692.800,10831.030,1723.840,-5418.625,-9063.872,-8403.867,-0.118,0.924,-0.331,-2.563,1.068,-0.580,73.333,389.000,1.000,2.470,0.000
-5078.725,-6181.538,14866.360,10081.760,1539.012,-5576.674,-9192.659,-8544.458,-0.115,0.925,-0.339,-2.411,1.404,-0.549,73.333,390.000,1.000,2.534,0.000
-5286.028,-6368.855,14039.980,9331.720,1351.891,-5734.318,-9324.700,-8687.400,-0.114,0.931,-0.338,-2.045,1.678,-0.427,73.333,391.000,1.000,2.519,0.000
-5495.030,-6557.480,13214.490,8581.980,1162.767,-5892.569,-9459.780,-8833.430,-0.110,0.932,-0.338,-1.984,1.923,-0.336,73.333,392.000,1.000,2.514,0.000
-5704.613,-6747.423,12389.930,7834.891,971.855,-6052.973,-9594.672,-8980.559,-0.109,0.938,-0.339,-1.892,2.319,-0.153,73.333,393.000,1.000,10.493,0.000
-5911.729,-6934.734,11568.600,7092.301,782.259,-6213.192,-9726.547,-9125.309,-0.111,0.933,-0.341,-1.770,2.502,-0.092,73.333,394.000,1.000,0.012,0.000
-6115.471,-7117.654,10752.400,6352.803,596.040,-6369.958,-9855.975,-9267.218,-0.111,0.933,-0.337,-1.678,2.808,0.153,73.333,395.000,1.000,1.985,0.000
-6317.228,-7301.967,9940.628,5616.342,411.937,-6524.340,-9984.042,-9407.507,-0.115,0.933,-0.333,-1.587,3.204,0.061,73.333,396.000,1.000,8.001,0.000
-6519.382,-7488.148,9131.646,4881.494,227.689,-6680.785,-10111.980,-9547.965,-0.112,0.930,-0.336,-1.587,3.510,0.214,73.333,397.000,1.000,0.008,0.000
-6721.920,-7672.068,8326.177,4148.221,43.795,-6839.882,-10240.080,-9688.727,-0.111,0.929,-0.334,-1.343,3.662,0.183,73.333,398.000,1.000,1.973,0.000
-6922.172,-7853.263,7525.114,3419.259,-137.655,-6997.607,-10367.360,-9828.472,-0.115,0.930,-0.330,-1.404,3.906,0.153,73.333,399.000,1.000,3.746,0.000
-7120.370,-8033.929,6725.350,2692.731,-318.946,-7152.926,-10494.540,-9967.670,-0.122,0.935,-0.331,-1.495,4.059,0.244,73.333,400.000,1.000,9.315,0.000
-7319.969,-8217.291,5923.376,1966.433,-503.199,-7307.040,-10622.070,-10106.580,-0.131,0.941,-0.333,-1.709,4.150,0.122,73.333,401.000,1.000,0.010,0.000
-7520.491,-8400.602,5121.817,1243.577,-686.751,-7457.813,-10747.850,-10243.610,-0.135,0.945,-0.334,-1.831,4.059,-0.031,73.333,402.000,1.000,1.910,0.000
-7717.854,-8577.865,4326.735,527.947,-864.601,-7603.583,-10869.950,-10376.680,-0.135,0.951,-0.335,-1.892,3.906,-0.305,73.333,403.000,1.000,6.207,0.000
-7912.957,-8753.795,3538.589,-183.218,-1039.222,-7748.384,-10990.230,-10506.710,-0.135,0.952,-0.336,-2.136,3.784,-0.519,73.333,404.000,1.000,9.448,0.000
-8109.091,-8934.188,2754.009,-895.314,-1215.964,-7896.580,-11113.080,-10639.300,-0.129,0.957,-0.330,-2.441,3.418,-0.580,73.333,405.000,1.000,0.006,0.000
-8304.946,-9112.684,1973.156,-1606.516,-1394.546,-8046.207,-11238.390,-10777.000,-0.123,0.958,-0.331,-2.869,3.479,-0.702,73.333,406.000,1.000,1.826,0.000
-8499.187,-9285.891,1196.785,-2312.017,-1571.560,-8194.382,-11362.420,-10916.340,-0.119,0.957,-0.334,-3.296,3.479,-0.641,73.333,407.000,1.000,2.469,0.000
-8694.930,-9460.156,421.631,-3015.914,-1748.092,-8343.017,-11485.960,-11055.610,-0.117,0.955,-0.332,-3.601,3.479,-0.458,73.333,408.000,1.000,3.791,0.000
-8892.470,-9638.333,-353.298,-3722.588,-1926.221,-8492.923,-11610.400,-11194.090,-0.120,0.954,-0.335,-3.876,3.510,-0.214,73.333,409.000,1.000,8.770,0.000
-9087.481,-9814.145,-1124.222,-4427.679,-2102.911,-8640.435,-11732.620,-11329.500,-0.121,0.951,-0.333,-4.303,3.510,-0.214,73.333,410.000,1.000,19.828,0.000
-9279.652,-9984.714,-1890.128,-5127.176,-2276.652,-8784.928,-11852.000,-11462.320,-0.122,0.949,-0.335,-4.578,3.479,-0.214,73.333,411.000,1.000,0.017,0.000
-9470.553,-10154.690,-2652.471,-5818.910,-2450.581,-8930.267,-11973.390,-11595.710,-0.124,0.947,-0.334,-4.852,3.479,-0.183,73.333,412.000,1.000,0.004,0.000
-9660.048,-10328.100,-3413.096,-6505.282,-2626.891,-9078.890,-12099.190,-11730.980,-0.126,0.944,-0.332,-4.913,3.357,-0.366,73.333,413.000,1.000,5.639,0.000
-9849.715,-10504.800,-4174.804,-7193.935,-2805.725,-9230.189,-12226.060,-11867.200,-0.126,0.939,-0.333,-5.188,3.082,-0.458,73.333,414.000,1.000,0.009,0.000
-10040.440,-10680.210,-4936.995,-7884.674,-2985.097,-9381.536,-12351.580,-12004.100,-0.127,0.935,-0.336,-5.402,3.052,-0.488,73.333,415.000,1.000,5.018,0.000
-10231.670,-10853.010,-5696.987,-8573.010,-3162.938,-9532.022,-12476.930,-12141.240,-0.127,0.932,-0.334,-5.310,2.869,-0.610,73.333,416.000,1.000,0.009,0.000
-10422.590,-11025.310,-6452.986,-9257.432,-3338.167,-9680.911,-12600.840,-12275.190,-0.127,0.928,-0.334,-5.249,2.747,-0.824,73.333,417.000,1.000,1.913,0.000
-10612.120,-11195.120,-7204.403,-9937.115,-3510.642,-9826.637,-12720.760,-12404.290,-0.125,0.927,-0.334,-5.157,2.686,-0.885,73.333,418.000,1.000,2.530,0.000
-10800.670,-11362.500,-7953.007,-10614.440,-3683.192,-9970.961,-12839.630,-12533.340,-0.125,0.926,-0.330,-5.096,2.563,-0.977,73.333,419.000,1.000,10.026,0.000
-10987.280,-11531.340,-8697.802,-11288.970,-3855.646,-10114.700,-12959.530,-12663.600,-0.123,0.924,-0.330,-5.005,2.411,-1.007,73.333,420.000,1.000,2.385,0.000
-11168.530,-11698.810,-9434.104,-11954.960,-4023.486,-10254.890,-13077.090,-12789.880,-0.123,0.922,-0.336,-4.913,2.258,-1.038,73.333,421.000,1.000,3.139,0.000
-11343.820,-11859.540,-10161.170,-12611.780,-4185.480,-10389.310,-13189.610,-12910.400,-0.125,0.923,-0.334,-4.791,2.014,-0.916,73.333,422.000,1.000,0.009,0.000
-11517.260,-12017.180,-10884.100,-13266.980,-4345.517,-10520.140,-13298.910,-13029.350,-0.125,0.922,-0.336,-4.578,1.801,-0.885,73.333,423.000,1.000,2.549,0.000
-11692.680,-12177.830,-11607.620,-13925.120,-4507.949,-10653.020,-13409.660,-13151.670,-0.125,0.920,-0.338,-4.303,1.709,-0.916,73.333,424.000,1.000,0.007,0.000
-11874.490,-12344.010,-12335.460,-14587.340,-4675.216,-10791.650,-13524.570,-13278.710,-0.124,0.923,-0.335,-3.967,1.648,-0.854,73.333,425.000,1.000,15.677,0.000
-12065.440,-12516.880,-13069.510,-15255.610,-4847.479,-10935.070,-13642.780,-13409.600,-0.124,0.923,-0.335,-3.754,1.587,-0.763,73.333,426.000,1.000,6.797,0.000
-12257.480,-12690.460,-13802.990,-15922.120,-5019.419,-11078.330,-13759.820,-13539.820,-0.124,0.923,-0.334,-3.540,1.495,-0.793,73.333,427.000,1.000,0.011,0.000
-12443.430,-12856.960,-14528.880,-16578.350,-5186.361,-11216.660,-13872.780,-13664.660,-0.125,0.923,-0.332,-3.326,1.373,-0.885,73.333,428.000,1.000,4.995,0.000
-12626.260,-13017.190,-15248.460,-17228.090,-5350.149,-11350.570,-13984.450,-13786.810,-0.125,0.926,-0.333,-3.174,1.190,-0.885,73.333,429.000,1.000,0.006,0.000
-12807.840,-13174.700,-15963.840,-17875.500,-5512.142,-11483.680,-14096.380,-13909.510,-0.127,0.925,-0.334,-2.991,1.007,-0.732,73.333,430.000,1.000,4.311,0.000
-12987.070,-13332.720,-16676.320,-18521.020,-5673.333,-11618.980,-14208.520,-14032.220,-0.128,0.926,-0.336,-2.930,1.007,-0.793,73.333,431.000,1.000,3.191,0.000
-13164.380,-13493.020,-17387.930,-19165.690,-5836.605,-11757.100,-14322.240,-14154.460,-0.124,0.926,-0.335,-3.021,0.885,-0.763,73.333,432.000,1.000,0.009,0.000
-13339.680,-13655.060,-18097.240,-19808.400,-6001.006,-11895.210,-14436.990,-14276.420,-0.124,0.931,-0.334,-2.869,0.641,-0.793,73.333,433.000,1.000,1.848,0.000
-13513.320,-13817.400,-18801.540,-20447.690,-6162.855,-12029.630,-14550.360,-14398.260,-0.122,0.931,-0.333,-2.838,0.671,-0.702,73.333,434.000,1.000,13.777,0.000
-13685.970,-13973.010,-19499.650,-21082.860,-6320.326,-12158.510,-14660.130,-14518.100,-0.126,0.934,-0.332,-2.808,0.610,-0.549,73.333,435.000,1.000,9.957,0.000
-13858.430,-14122.040,-20193.290,-21713.040,-6475.967,-12286.270,-14767.960,-14635.440,-0.124,0.931,-0.337,-2.777,0.549,-0.519,73.333,436.000,1.000,0.011,0.000
-14033.030,-14276.080,-20886.840,-22343.150,-6633.659,-12418.220,-14876.140,-14753.040,-0.126,0.934,-0.339,-2.533,0.488,-0.488,73.333,437.000,1.000,0.003,0.000
-14206.690,-14432.040,-21577.340,-22973.030,-6789.060,-12548.480,-14981.090,-14868.730,-0.124,0.935,-0.339,-2.625,0.397,-0.519,73.333,438.000,1.000,3.139,0.000
-14376.890,-14579.920,-22262.430,-23595.610,-6940.469,-12674.160,-15084.870,-14982.250,-0.125,0.938,-0.338,-2.747,0.305,-0.519,73.333,439.000,1.000,0.080,0.000
-14551.720,-14732.640,-22952.410,-24217.380,-7099.127,-12807.070,-15198.000,-15102.720,-0.125,0.940,-0.335,-2.899,0.122,-0.488,73.333,440.000,1.000,1.760,0.000
-14729.090,-14896.560,-23646.070,-24839.700,-7263.661,-12946.570,-15314.820,-15226.940,-0.124,0.941,-0.335,-2.991,0.031,-0.610,73.333,441.000,1.000,2.463,0.000
-14900.170,-15057.720,-24332.680,-25456.620,-7423.633,-13081.700,-15424.730,-15346.330,-0.126,0.943,-0.334,-3.052,0.031,-0.641,73.333,442.000,1.000,8.753,0.000
-15070.360,-15214.110,-25016.090,-26075.650,-7583.683,-13215.790,-15534.680,-15467.870,-0.127,0.943,-0.339,-3.174,-0.092,-0.793,73.333,443.000,1.000,4.343,0.000
-15241.550,-15370.690,-25698.010,-26697.880,-7745.112,-13349.710,-15644.940,-15591.470,-0.129,0.943,-0.341,-3.296,-0.122,-0.763,73.333,444.000,1.000,0.007,0.000
-15406.980,-15525.010,-26371.540,-27312.510,-7900.169,-13477.680,-15747.350,-15705.810,-0.129,0.943,-0.339,-3.296,-0.244,-0.793,73.333,445.000,1.000,1.862,0.000
-15567.220,-15671.650,-27036.800,-27916.740,-8048.922,-13600.150,-15844.190,-15811.030,-0.126,0.942,-0.339,-3.448,-0.275,-1.038,73.333,446.000,1.000,13.751,0.000
-15730.500,-15815.730,-27701.350,-28520.210,-8198.810,-13722.900,-15944.900,-15918.860,-0.125,0.940,-0.338,-3.540,-0.336,-0.946,73.333,447.000,1.000,2.476,0.000
-15901.720,-15967.810,-28370.440,-29127.790,-8354.330,-13851.530,-16054.760,-16036.040,-0.123,0.936,-0.340,-3.510,-0.366,-1.038,73.333,448.000,1.000,2.589,0.000
-16075.070,-16124.670,-29040.040,-29732.770,-8510.505,-13982.910,-16166.750,-16155.860,-0.122,0.936,-0.339,-3.540,-0.366,-1.007,73.333,449.000,1.000,4.921,0.000
-16241.580,-16274.850,-29702.340,-30330.170,-8660.530,-14109.930,-16271.170,-16270.090,-0.122,0.937,-0.337,-3.418,-0.366,-0.854,73.333,450.000,1.000,2.598,0.000
-16403.620,-16420.210,-30359.530,-30926.300,-8808.755,-14234.400,-16372.470,-16382.240,-0.121,0.937,-0.334,-3.418,-0.366,-0.671,73.333,451.000,1.000,4.263,0.000
-16563.780,-16564.990,-31013.380,-31521.530,-8957.817,-14358.210,-16474.190,-16492.210,-0.122,0.938,-0.340,-3.357,-0.275,-0.610,73.333,452.000,1.000,0.008,0.000
-16718.840,-16706.370,-31659.940,-32108.350,-9102.962,-14478.990,-16571.540,-16594.870,-0.120,0.936,-0.339,-3.235,-0.061,-0.519,73.333,453.000,1.000,13.135,0.000
-16877.460,-16853.230,-32307.090,-32695.910,-9251.652,-14604.060,-16673.160,-16702.110,-0.119,0.934,-0.338,-3.235,0.031,-0.458,73.333,454.000,1.000,3.238,0.000
-17043.020,-17006.380,-32957.480,-33287.990,-9407.736,-14734.520,-16783.630,-16819.260,-0.118,0.934,-0.336,-3.082,0.214,-0.488,73.333,455.000,1.000,0.005,0.000
-17205.910,-17153.860,-33601.810,-33875.450,-9560.697,-14860.730,-16890.040,-16933.470,-0.120,0.935,-0.337,-2.869,0.366,-0.458,73.333,456.000,1.000,30.606,0.000
-17366.030,-17297.570,-34240.660,-34458.460,-9707.829,-14982.470,-16987.230,-17041.610,-0.122,0.934,-0.339,-2.655,0.549,-0.458,73.333,457.000,1.000,2.499,0.000
-17527.840,-17440.710,-34879.150,-35039.480,-9854.247,-15103.360,-17081.490,-17148.680,-0.125,0.936,-0.338,-2.533,0.763,-0.519,73.333,458.000,1.000,7.417,0.000
-17689.190,-17581.050,-35516.460,-35616.460,-10000.930,-15223.880,-17177.740,-17256.260,-0.127,0.935,-0.335,-2.289,0.793,-0.580,73.333,459.000,1.000,5.045,0.000
-17846.910,-17721.120,-36149.860,-36188.920,-10145.590,-15343.610,-17275.820,-17364.400,-0.125,0.938,-0.333,-2.258,0.885,-0.702,73.333,460.000,1.000,2.477,0.000
-18002.460,-17860.700,-36779.200,-36760.300,-10288.320,-15460.190,-17373.490,-17473.020,-0.124,0.935,-0.332,-2.136,0.854,-0.793,73.333,461.000,1.000,2.502,0.000
-18158.630,-17998.920,-37406.400,-37331.370,-10430.750,-15572.540,-17469.210,-17580.450,-0.123,0.934,-0.333,-2.014,0.916,-0.885,73.333,462.000,1.000,2.540,0.000
-18314.740,-18136.530,-38031.920,-37901.150,-10573.430,-15684.130,-17564.100,-17686.730,-0.120,0.935,-0.331,-1.923,1.099,-0.916,73.333,463.000,1.000,2.398,0.000
-18466.830,-18271.940,-38652.450,-38466.550,-10715.170,-15797.360,-17658.760,-17792.390,-0.119,0.934,-0.333,-1.892,1.251,-0.885,73.333,464.000,1.000,2.540,0.000
-18613.720,-18405.240,-39265.860,-39021.350,-10855.200,-15911.720,-17751.760,-17895.190,-0.118,0.930,-0.334,-1.953,1.251,-0.916,73.333,465.000,1.000,2.497,0.000
-18763.080,-18543.540,-39879.490,-39574.860,-10998.630,-16030.960,-17847.390,-17999.180,-0.119,0.931,-0.333,-1.709,1.404,-0.854,73.333,466.000,1.000,2.527,0.000
-18919.570,-18691.930,-40499.180,-40138.470,-11147.930,-16156.840,-17949.230,-18109.470,-0.119,0.931,-0.333,-1.648,1.556,-0.854,73.333,467.000,1.000,8.700,0.000
-19076.700,-18841.130,-41118.870,-40703.310,-11297.050,-16283.130,-18052.200,-18221.390,-0.120,0.931,-0.333,-1.526,1.648,-0.916,73.333,468.000,1.000,2.459,0.000
-19230.510,-18982.950,-41732.940,-41261.240,-11442.560,-16405.500,-18150.580,-18328.100,-0.120,0.932,-0.333,-1.465,1.892,-0.885,73.333,469.000,1.000,5.039,0.000
-19382.670,-19119.640,-42341.550,-41813.520,-11584.810,-16523.720,-18242.570,-18428.340,-0.123,0.930,-0.330,-1.373,1.801,-0.916,73.333,470.000,1.000,2.535,0.000
-19533.840,-19253.580,-42945.830,-42361.500,-11722.390,-16637.760,-18330.770,-18525.810,-0.125,0.934,-0.331,-1.404,1.892,-0.977,73.333,471.000,1.000,2.426,0.000
-19682.620,-19383.980,-43544.600,-42902.810,-11854.340,-16748.390,-18418.180,-18623.090,-0.124,0.934,-0.333,-1.312,1.862,-1.007,73.333,472.000,1.000,3.136,0.000
-19829.450,-19513.530,-44138.640,-43439.970,-11985.100,-16859.270,-18506.090,-18720.220,-0.127,0.935,-0.329,-1.129,1.831,-0.977,73.333,473.000,1.000,0.008,0.000
-19978.480,-19645.910,-44732.920,-43980.590,-12120.580,-16974.080,-18596.160,-18818.350,-0.126,0.935,-0.335,-1.343,1.862,-1.068,73.333,474.000,1.000,7.601,0.000
-20130.940,-19781.240,-45329.090,-44524.800,-12260.390,-17090.630,-18688.370,-18919.440,-0.129,0.938,-0.330,-1.404,1.770,-1.099,73.333,475.000,1.000,0.009,0.000
-20280.900,-19918.250,-45923.200,-45065.420,-12399.860,-17204.780,-18780.730,-19022.940,-0.129,0.937,-0.327,-1.526,1.831,-1.068,73.333,476.000,1.000,4.290,0.000
-20424.410,-20052.460,-46512.550,-45599.410,-12537.620,-17316.230,-18872.720,-19126.960,-0.132,0.938,-0.330,-1.587,1.709,-1.038,73.333,477.000,1.000,5.663,0.000
-20564.880,-20182.890,-47098.810,-46130.680,-12674.560,-17425.340,-18963.410,-19229.650,-0.131,0.937,-0.335,-1.862,1.648,-1.160,73.333,478.000,1.000,0.007,0.000
-20703.660,-20310.250,-47681.880,-46659.020,-12808.230,-17531.440,-19051.120,-19328.040,-0.131,0.938,-0.335,-1.923,1.526,-1.068,73.333,479.000,1.000,1.842,0.000
-20840.290,-20434.740,-48260.960,-47182.460,-12937.800,-17637.330,-19137.740,-19423.280,-0.128,0.938,-0.335,-2.075,1.312,-1.129,73.333,480.000,1.000,2.471,0.000
-20975.210,-20557.180,-48834.970,-47698.960,-13064.240,-17743.880,-19223.640,-19517.490,-0.132,0.936,-0.335,-2.045,1.160,-1.038,73.333,481.000,1.000,2.534,0.000
-21114.020,-20680.820,-49407.270,-48215.450,-13191.230,-17850.640,-19309.710,-19612.380,-0.132,0.936,-0.336,-2.350,1.129,-1.068,73.333,482.000,1.000,2.421,0.000
-21263.330,-20812.730,-49985.200,-48743.080,-13325.020,-17960.350,-19398.880,-19711.470,-0.134,0.936,-0.336,-2.197,0.916,-0.977,73.333,483.000,1.000,3.118,0.000
-21416.230,-20947.590,-50564.880,-49273.810,-13462.340,-18070.300,-19487.340,-19811.460,-0.133,0.933,-0.340,-2.472,0.854,-1.068,73.333,484.000,1.000,0.004,0.000
-21561.160,-21072.510,-51136.390,-49794.890,-13593.390,-18174.160,-19570.130,-19905.570,-0.131,0.934,-0.338,-2.289,0.702,-1.038,73.333,485.000,1.000,1.929,0.000
-21696.950,-21189.470,-51698.740,-50305.680,-13716.690,-18272.020,-19649.100,-19994.340,-0.132,0.934,-0.339,-2.350,0.549,-0.916,73.333,486.000,1.000,4.325,0.000
-21834.090,-21312.660,-52262.390,-50815.810,-13842.950,-18372.510,-19732.590,-20087.070,-0.130,0.933,-0.338,-2.502,0.427,-0.946,73.333,487.000,1.000,0.014,0.000
-21964.770,-21431.540,-52818.790,-51316.630,-13963.890,-18468.040,-19811.130,-20174.380,-0.130,0.931,-0.336,-2.533,0.305,-0.824,73.333,488.000,1.000,8.228,0.000
-22075.330,-21529.580,-53353.380,-51795.750,-14064.190,-18545.930,-19869.820,-20241.180,-0.127,0.930,-0.340,-2.716,0.244,-0.793,73.333,489.000,1.000,14.342,0.000
-22195.590,-21636.050,-53896.560,-52288.140,-14174.060,-18634.310,-19937.160,-20316.970,-0.128,0.933,-0.340,-2.808,0.275,-0.702,73.333,490.000,1.000,0.015,0.000
-22335.680,-21760.940,-54458.670,-52802.590,-14305.780,-18743.450,-20025.590,-20414.140,-0.126,0.935,-0.336,-2.747,0.305,-0.732,73.333,491.000,1.000,3.035,0.000
-22467.910,-21880.790,-55010.960,-53302.150,-14432.060,-18847.500,-20110.350,-20506.330,-0.124,0.935,-0.339,-2.899,0.214,-0.702,73.333,492.000,1.000,0.008,0.000
-22609.530,-22014.650,-55569.040,-53802.790,-14567.330,-18961.930,-20204.670,-20606.610,-0.123,0.935,-0.338,-3.021,0.244,-0.641,73.333,493.000,1.000,0.003,0.000
-22773.300,-22169.390,-56144.270,-54323.630,-14721.200,-19095.160,-20315.530,-20723.820,-0.123,0.936,-0.339,-3.082,0.244,-0.580,73.333,494.000,1.000,3.809,0.000
-22928.460,-22311.650,-56706.560,-54836.670,-14863.380,-19214.550,-20413.890,-20830.220,-0.125,0.934,-0.338,-3.174,0.336,-0.610,73.333,495.000,1.000,16.526,0.000
-23072.810,-22439.710,-57254.940,-55338.510,-14993.380,-19318.990,-20499.790,-20925.900,-0.125,0.936,-0.336,-3.387,0.275,-0.488,73.333,496.000,1.000,23.447,0.000
-23206.570,-22554.300,-57790.960,-55827.550,-15113.080,-19414.390,-20575.470,-21010.220,-0.126,0.936,-0.339,-3.540,0.336,-0.427,73.333,497.000,1.000,0.010,0.000
-23321.200,-22651.990,-58308.010,-56295.450,-15215.780,-19495.890,-20636.080,-21077.140,-0.126,0.938,-0.338,-3.784,0.366,-0.305,73.333,498.000,1.000,0.003,0.000
-23444.840,-22763.290,-58834.830,-56772.800,-15329.380,-19588.780,-20708.340,-21157.380,-0.126,0.938,-0.337,-3.693,0.549,-0.336,73.333,499.000,1.000,3.139,0.000
-23590.330,-22897.450,-59382.430,-57271.580,-15464.640,-19701.700,-20800.610,-21259.870,-0.127,0.939,-0.339,-3.845,0.519,-0.397,73.333,500.000,1.000,0.009,0.000
-23737.850,-23031.970,-59929.320,-57770.280,-15601.870,-19812.560,-20893.000,-21361.960,-0.128,0.941,-0.338,-3.967,0.641,-0.336,73.333,501.000,1.000,2.444,0.000
-23881.520,-23159.940,-60469.630,-58263.020,-15737.520,-19919.510,-20984.380,-21461.050,-0.127,0.941,-0.336,-4.028,0.671,-0.397,73.333,502.000,1.000,0.008,0.000
-24021.710,-23282.290,-61003.980,-58749.770,-15872.290,-20028.780,-21078.660,-21560.720,-0.124,0.942,-0.339,-4.089,0.671,-0.305,73.333,503.000,1.000,1.886,0.000
-24147.030,-23391.210,-61520.640,-59219.520,-15992.280,-20126.370,-21161.760,-21648.630,-0.125,0.942,-0.333,-4.333,0.702,-0.275,73.333,504.000,1.000,2.469,0.000
-24261.400,-23494.500,-62023.730,-59676.380,-16099.650,-20210.280,-21231.620,-21724.950,-0.125,0.942,-0.336,-4.456,0.793,-0.214,73.333,505.000,1.000,2.521,0.000
-24386.450,-23610.540,-62535.110,-60141.660,-16216.510,-20303.220,-21308.520,-21807.770,-0.124,0.940,-0.337,-4.547,0.885,-0.214,73.333,506.000,1.000,2.553,0.000
-24519.290,-23730.120,-63052.280,-60615.100,-16340.930,-20403.980,-21392.640,-21897.010,-0.124,0.939,-0.333,-4.608,0.977,-0.214,73.333,507.000,1.000,2.455,0.000
-24642.440,-23837.290,-63559.020,-61079.190,-16455.510,-20492.840,-21466.970,-21979.710,-0.124,0.937,-0.333,-4.608,1.038,-0.122,73.333,508.000,1.000,2.511,0.000
-24764.380,-23945.820,-64064.100,-61539.110,-16568.920,-20579.250,-21538.740,-22061.440,-0.122,0.933,-0.333,-4.608,1.129,-0.122,73.333,509.000,1.000,5.565,0.000
-24890.360,-24060.710,-64572.150,-62002.930,-16688.130,-20673.370,-21616.040,-22145.820,-0.123,0.930,-0.329,-4.486,1.251,-0.122,73.333,510.000,1.000,0.015,0.000
-25012.990,-24171.430,-65075.390,-62465.070,-16805.840,-20769.470,-21693.310,-22228.120,-0.122,0.926,-0.331,-4.425,1.343,-0.092,73.333,511.000,1.000,1.908,0.000
-25135.660,-24281.050,-65577.460,-62926.980,-16924.720,-20867.330,-21771.140,-22312.740,-0.123,0.925,-0.328,-4.303,1.556,-0.183,73.333,512.000,1.000,3.742,0.000
-25258.640,-24391.700,-66078.190,-63388.110,-17045.160,-20964.600,-21848.400,-22399.480,-0.124,0.923,-0.326,-4.211,1.648,-0.214,73.333,513.000,1.000,14.313,0.000
-25383.520,-24506.050,-66578.440,-63847.060,-17167.530,-21061.890,-21926.980,-22488.400,-0.121,0.924,-0.329,-4.181,1.770,-0.214,73.333,514.000,1.000,0.010,0.000
-25508.360,-24621.370,-67077.320,-64299.900,-17288.960,-21157.190,-22005.830,-22575.850,-0.122,0.925,-0.326,-3.998,1.831,-0.092,73.333,515.000,1.000,8.808,0.000
-25627.220,-24731.950,-67569.700,-64742.690,-17403.950,-21246.930,-22078.780,-22654.970,-0.121,0.926,-0.327,-3.998,2.045,-0.244,73.333,516.000,1.000,0.012,0.000
-25750.580,-24847.770,-68065.340,-65188.500,-17523.970,-21343.140,-22155.080,-22738.500,-0.122,0.926,-0.324,-3.876,2.167,-0.244,73.333,517.000,1.000,1.953,0.000
-25882.450,-24970.380,-68567.350,-65643.390,-17653.540,-21449.340,-22239.300,-22832.150,-0.120,0.926,-0.327,-3.876,2.228,-0.366,73.333,518.000,1.000,7.421,0.000
-26007.150,-25084.560,-69060.960,-66091.840,-17775.790,-21548.730,-22317.660,-22919.160,-0.122,0.928,-0.329,-3.632,2.533,-0.214,73.333,519.000,1.000,4.943,0.000
-26119.230,-25185.300,-69541.190,-66525.440,-17882.600,-21632.940,-22383.830,-22991.480,-0.122,0.928,-0.327,-3.632,2.594,-0.214,73.333,520.000,1.000,5.029,0.000
-26231.380,-25283.860,-70018.730,-66953.760,-17984.540,-21712.530,-22447.460,-23058.050,-0.125,0.933,-0.323,-3.387,2.777,-0.305,73.333,521.000,1.000,10.012,0.000
-26353.420,-25390.900,-70502.880,-67387.230,-18092.240,-21799.510,-22517.310,-23130.160,-0.123,0.936,-0.328,-3.418,2.777,-0.427,73.333,522.000,1.000,5.040,0.000
-26476.620,-25498.340,-70986.880,-67821.920,-18200.840,-21888.950,-22588.070,-23206.730,-0.123,0.939,-0.322,-3.540,2.960,-0.458,73.333,523.000,1.000,4.945,0.000
-26596.670,-25601.780,-71467.050,-68259.050,-18309.210,-21977.150,-22658.700,-23285.590,-0.124,0.940,-0.319,-3.540,2.899,-0.519,73.333,524.000,1.000,5.003,0.000
-26718.200,-25706.650,-71946.840,-68700.830,-18422.030,-22067.920,-22732.380,-23368.620,-0.120,0.943,-0.322,-3.693,3.021,-0.580,73.333,525.000,1.000,2.478,0.000
-26835.450,-25810.420,-72421.190,-69134.970,-18533.630,-22157.630,-22803.330,-23451.000,-0.126,0.939,-0.324,-3.601,3.052,-0.610,73.333,526.000,1.000,4.991,0.000
-26951.300,-25917.910,-72893.850,-69564.480,-18646.140,-22250.340,-22875.290,-23533.570,-0.127,0.941,-0.327,-3.815,3.082,-0.671,73.333,527.000,1.000,2.583,0.000
-27071.620,-26029.820,-73369.300,-69996.660,-18762.720,-22348.780,-22953.120,-23618.830,-0.131,0.941,-0.322,-3.662,2.960,-0.610,73.333,528.000,1.000,2.453,0.000
-27191.540,-26138.240,-73841.450,-70423.910,-18878.030,-22445.690,-23031.210,-23703.250,-0.128,0.938,-0.328,-3.967,2.777,-0.793,73.333,529.000,1.000,4.940,0.000
-27309.090,-26243.960,-74309.960,-70846.130,-18992.640,-22540.370,-23108.270,-23786.820,-0.130,0.940,-0.324,-3.845,2.655,-0.641,73.333,530.000,1.000,2.580,0.000
-27424.020,-26349.680,-74776.380,-71268.760,-19106.810,-22632.460,-23183.220,-23868.700,-0.132,0.935,-0.327,-3.998,2.502,-0.702,73.333,531.000,1.000,7.491,0.000
-27535.840,-26454.470,-75238.360,-71688.950,-19217.050,-22719.400,-23252.260,-23945.740,-0.130,0.939,-0.327,-4.059,2.472,-0.580,73.333,532.000,1.000,8.094,0.000
-27646.540,-26557.210,-75696.450,-72104.500,-19323.850,-22803.350,-23316.470,-24019.360,-0.135,0.938,-0.327,-3.876,2.228,-0.519,73.333,533.000,1.000,0.006,0.000
-27755.610,-26656.970,-76151.730,-72515.450,-19428.400,-22885.250,-23376.560,-24089.350,-0.133,0.940,-0.330,-4.059,2.075,-0.580,73.333,534.000,1.000,1.834,0.000
-27862.120,-26753.420,-76603.920,-72921.370,-19530.890,-22965.810,-23435.560,-24156.880,-0.139,0.941,-0.328,-3.815,1.862,-0.458,73.333,535.000,1.000,2.560,0.000
-27971.880,-26850.320,-77056.780,-73329.540,-19635.500,-23049.780,-23502.950,-24231.420,-0.133,0.937,-0.330,-3.998,1.526,-0.458,73.333,536.000,1.000,3.145,0.000
-28087.020,-26948.860,-77510.900,-73743.900,-19742.780,-23136.590,-23576.140,-24311.820,-0.138,0.939,-0.326,-3.937,1.465,-0.336,73.333,537.000,1.000,0.011,0.000
-28200.730,-27046.910,-77960.840,-74155.650,-19846.130,-23219.910,-23642.260,-24385.070,-0.135,0.931,-0.325,-3.845,1.007,-0.519,73.333,538.000,1.000,1.835,0.000
-28308.960,-27143.070,-78404.730,-74558.790,-19943.110,-23298.380,-23700.750,-24449.810,-0.133,0.929,-0.332,-3.815,0.854,-0.275,73.333,539.000,1.000,2.426,0.000
-28412.440,-27234.860,-78844.030,-74955.220,-20036.760,-23373.940,-23757.680,-24512.780,-0.134,0.927,-0.331,-3.571,0.641,-0.214,73.333,540.000,1.000,7.565,0.000
-28517.760,-27329.300,-79284.440,-75352.160,-20134.450,-23451.550,-23817.750,-24579.680,-0.126,0.928,-0.335,-3.479,0.580,-0.183,73.333,541.000,1.000,2.459,0.000
-28630.130,-27432.930,-79730.760,-75755.310,-20241.450,-23536.060,-23885.110,-24654.410,-0.129,0.931,-0.336,-2.960,0.488,0.000,73.333,542.000,1.000,2.528,0.000
-28746.020,-27539.190,-80179.570,-76163.090,-20353.990,-23624.770,-23958.270,-24734.610,-0.119,0.933,-0.336,-2.991,0.488,-0.031,73.333,543.000,1.000,2.473,0.000
-28859.130,-27640.480,-80623.690,-76567.730,-20464.130,-23712.220,-24031.410,-24813.180,-0.121,0.940,-0.335,-2.747,0.610,0.214,73.333,544.000,1.000,3.145,0.000
-28966.300,-27736.080,-81059.280,-76963.480,-20567.220,-23797.030,-24099.950,-24886.570,-0.122,0.939,-0.334,-2.625,0.488,0.153,73.333,545.000,1.000,0.007,0.000
-29065.880,-27825.600,-81485.700,-77351.170,-20662.890,-23877.240,-24161.360,-24954.610,-0.117,0.941,-0.338,-2.563,0.580,0.031,73.333,546.000,1.000,8.058,0.000
-29158.870,-27909.950,-81904.250,-77731.680,-20753.230,-23950.440,-24216.660,-25015.920,-0.119,0.939,-0.334,-2.319,0.671,0.061,73.333,547.000,1.000,3.121,0.000
-29253.420,-27995.710,-82321.380,-78110.160,-20844.540,-24021.350,-24272.090,-25074.600,-0.110,0.938,-0.334,-2.472,0.793,-0.244,73.333,548.000,1.000,0.007,0.000
-29354.230,-28084.660,-82742.070,-78492.450,-20940.990,-24095.430,-24333.010,-25139.480,-0.113,0.942,-0.331,-2.228,1.007,-0.275,73.333,549.000,1.000,4.431,0.000
-29461.110,-28178.760,-83166.780,-78877.880,-21043.140,-24176.390,-24400.560,-25213.210,-0.113,0.940,-0.333,-2.350,1.160,-0.641,73.333,550.000,1.000,6.255,0.000
-29567.980,-28272.670,-83589.380,-79260.320,-21144.570,-24259.660,-24466.090,-25285.840,-0.117,0.947,-0.332,-2.289,1.373,-0.702,73.333,551.000,1.000,6.279,0.000
-29668.720,-28358.140,-84005.340,-79636.670,-21237.550,-24334.650,-24521.750,-25349.410,-0.125,0.944,-0.334,-2.319,1.343,-1.007,73.333,552.000,1.000,2.464,0.000
-29767.760,-28443.640,-84419.590,-80008.590,-21326.540,-24403.570,-24574.550,-25409.220,-0.122,0.943,-0.335,-2.411,1.495,-1.404,73.333,553.000,1.000,2.501,0.000
-29868.040,-28533.950,-84834.340,-80380.950,-21418.430,-24475.040,-24631.470,-25471.520,-0.126,0.944,-0.334,-2.258,1.404,-1.770,73.333,554.000,1.000,2.437,0.000
-29969.850,-28626.480,-85248.880,-80759.450,-21515.590,-24551.940,-24692.410,-25538.140,-0.121,0.943,-0.336,-2.319,1.343,-2.228,73.333,555.000,1.000,8.812,0.000
-30070.760,-28718.410,-85659.860,-81135.240,-21613.920,-24631.030,-24754.040,-25605.280,-0.122,0.943,-0.330,-2.197,1.343,-2.380,73.333,556.000,1.000,3.088,0.000
-30166.540,-28805.940,-86063.980,-81502.350,-21707.730,-24707.630,-24812.950,-25669.270,-0.113,0.939,-0.330,-2.319,1.495,-2.716,73.333,557.000,1.000,0.008,0.000
-30261.100,-28892.710,-86467.240,-81869.770,-21800.350,-24781.860,-24870.930,-25734.310,-0.112,0.941,-0.328,-2.258,1.770,-2.655,73.333,558.000,1.000,1.848,0.000
-30356.800,-28980.490,-86870.930,-82234.090,-21892.610,-24854.500,-24927.460,-25799.960,-0.110,0.938,-0.332,-2.319,2.014,-2.716,73.333,559.000,1.000,21.315,0.000
-30449.810,-29064.190,-87267.610,-82586.550,-21978.690,-24921.890,-24977.060,-25858.600,-0.110,0.939,-0.333,-2.411,2.411,-2.747,73.333,560.000,1.000,3.000,0.000
-30539.630,-29142.250,-87657.380,-82934.300,-22059.230,-24982.460,-25020.630,-25910.990,-0.117,0.940,-0.336,-2.441,2.411,-2.441,73.333,561.000,1.000,0.013,0.000
-30629.180,-29217.870,-88045.710,-83284.990,-22140.120,-25042.080,-25065.870,-25964.580,-0.118,0.940,-0.336,-2.533,2.563,-2.472,73.333,562.000,1.000,4.423,0.000
-30723.490,-29298.490,-88438.450,-83641.670,-22228.660,-25111.690,-25121.570,-26027.010,-0.123,0.941,-0.329,-2.441,2.533,-2.319,73.333,563.000,1.000,4.990,0.000
-30824.690,-29387.480,-88837.570,-84003.980,-22327.410,-25193.850,-25188.190,-26099.510,-0.124,0.937,-0.331,-2.686,2.594,-2.380,73.333,564.000,1.000,7.567,0.000
-30923.440,-29475.580,-89233.820,-84360.980,-22425.430,-25273.670,-25251.660,-26168.890,-0.131,0.938,-0.330,-2.594,2.594,-2.197,73.333,565.000,1.000,5.017,0.000
-31013.810,-29557.770,-89621.570,-84708.210,-22514.840,-25342.910,-25304.120,-26228.400,-0.129,0.933,-0.329,-2.625,2.563,-2.258,73.333,566.000,1.000,2.450,0.000
-31105.140,-29641.630,-90009.660,-85055.380,-22603.350,-25413.290,-25355.800,-26288.360,-0.134,0.934,-0.329,-2.655,2.502,-2.045,73.333,567.000,1.000,2.482,0.000
-31202.150,-29729.550,-90402.410,-85407.270,-22696.560,-25490.490,-25414.160,-26352.560,-0.135,0.933,-0.329,-2.838,2.350,-1.984,73.333,568.000,1.000,2.531,0.000
-31294.140,-29813.330,-90788.590,-85755.480,-22787.020,-25563.550,-25471.070,-26412.190,-0.134,0.935,-0.327,-2.899,2.197,-1.831,73.333,569.000,1.000,2.527,0.000
-31373.880,-29886.480,-91159.910,-86090.730,-22867.640,-25625.460,-25518.360,-26462.650,-0.139,0.934,-0.324,-2.899,1.862,-1.740,73.333,570.000,1.000,2.406,0.000
-31455.000,-29957.140,-91529.820,-86424.390,-22949.240,-25687.630,-25566.540,-26516.160,-0.135,0.933,-0.323,-3.326,1.862,-1.587,73.333,571.000,1.000,2.569,0.000
-31550.390,-30039.720,-91912.480,-86771.590,-23044.190,-25763.480,-25627.150,-26583.540,-0.138,0.931,-0.325,-3.143,1.740,-1.495,73.333,572.000,1.000,2.509,0.000
-31645.570,-30125.760,-92293.590,-87117.020,-23137.610,-25840.640,-25685.530,-26649.260,-0.135,0.931,-0.328,-3.418,1.556,-1.495,73.333,573.000,1.000,3.047,0.000
-31729.040,-30201.650,-92660.950,-87447.030,-23217.000,-25903.510,-25729.690,-26701.070,-0.139,0.933,-0.324,-3.448,1.312,-1.282,73.333,574.000,1.000,0.015,0.000
-31818.180,-30280.260,-93032.830,-87782.230,-23301.300,-25967.660,-25777.960,-26756.810,-0.138,0.933,-0.326,-3.723,1.099,-1.190,73.333,575.000,1.000,12.033,0.000
-31920.340,-30370.380,-93417.200,-88133.390,-23399.090,-26043.430,-25840.290,-26825.620,-0.137,0.937,-0.325,-3.723,0.977,-0.946,73.333,576.000,1.000,3.147,0.000
-32016.790,-30458.570,-93795.090,-88477.280,-23492.930,-26114.680,-25900.290,-26891.180,-0.136,0.934,-0.325,-3.998,0.671,-0.793,73.333,577.000,1.000,0.054,0.000
-32101.450,-30536.700,-94159.950,-88805.160,-23578.050,-26177.450,-25951.530,-26947.500,-0.134,0.935,-0.326,-4.120,0.580,-0.702,73.333,578.000,1.000,1.670,0.000
-32185.810,-30611.310,-94522.380,-89132.060,-23663.290,-26241.980,-26002.250,-27002.470,-0.133,0.930,-0.327,-4.150,0.366,-0.641,73.333,579.000,1.000,5.044,0.000
-32275.050,-30689.470,-94887.230,-89461.410,-23750.570,-26309.300,-26055.290,-27059.020,-0.129,0.932,-0.330,-4.303,0.397,-0.488,73.333,580.000,1.000,13.722,0.000
-32365.270,-30770.040,-95250.950,-89787.160,-23836.620,-26373.410,-26107.000,-27115.430,-0.132,0.931,-0.324,-4.120,0.397,-0.458,73.333,581.000,1.000,2.502,0.000
-32450.900,-30845.780,-95608.150,-90108.100,-23918.970,-26432.110,-26154.380,-27169.000,-0.128,0.931,-0.327,-4.333,0.275,-0.458,73.333,582.000,1.000,7.461,0.000
-32532.850,-30916.740,-95959.920,-90427.230,-23999.580,-26490.620,-26200.830,-27220.770,-0.128,0.931,-0.328,-4.120,0.397,-0.336,73.333,583.000,1.000,2.570,0.000
-32616.620,-30989.220,-96311.660,-90746.830,-24080.800,-26551.860,-26250.110,-27274.330,-0.123,0.928,-0.333,-4.181,0.458,-0.366,73.333,584.000,1.000,2.425,0.000
-32704.070,-31065.760,-96665.040,-91066.910,-24163.220,-26615.990,-26301.980,-27331.150,-0.122,0.927,-0.329,-4.120,0.702,-0.153,73.333,585.000,1.000,2.586,0.000
-32793.070,-31145.360,-97018.380,-91386.330,-24247.270,-26683.080,-26354.090,-27388.260,-0.120,0.925,-0.327,-3.998,0.671,-0.122,73.333,586.000,1.000,3.094,0.000
-32879.710,-31222.180,-97368.400,-91704.180,-24329.980,-26747.380,-26402.370,-27441.190,-0.121,0.929,-0.326,-3.815,1.068,-0.031,73.333,587.000,1.000,0.005,0.000
-32962.140,-31293.430,-97713.480,-92018.350,-24409.240,-26807.590,-26447.070,-27490.300,-0.118,0.928,-0.325,-3.693,1.099,-0.092,73.333,588.000,1.000,1.850,0.000
-33041.710,-31362.120,-98054.450,-92326.030,-24486.330,-26868.260,-26491.580,-27538.170,-0.116,0.930,-0.326,-3.723,1.434,0.061,73.333,589.000,1.000,2.460,0.000
-33124.060,-31435.560,-98397.160,-92634.020,-24565.940,-26931.470,-26538.160,-27589.340,-0.120,0.932,-0.323,-3.510,1.587,0.092,73.333,590.000,1.000,4.370,0.000
-33209.210,-31515.250,-98742.290,-92944.120,-24648.800,-26995.650,-26586.040,-27643.530,-0.117,0.932,-0.325,-3.571,1.892,-0.031,73.333,591.000,1.000,0.008,0.000
-33288.100,-31588.410,-99080.600,-93247.510,-24727.150,-27055.160,-26631.570,-27693.880,-0.121,0.932,-0.326,-3.387,2.045,0.092,73.333,592.000,1.000,8.194,0.000
-33363.340,-31653.960,-99413.310,-93547.130,-24801.430,-27111.240,-26675.430,-27741.620,-0.120,0.931,-0.326,-3.387,2.197,-0.122,73.333,593.000,1.000,18.666,0.000
-33444.960,-31723.010,-99748.730,-93851.020,-24878.880,-27171.000,-26721.870,-27792.610,-0.125,0.934,-0.326,-3.174,2.472,-0.214,73.333,594.000,1.000,0.012,0.000
-33530.490,-31793.790,-100084.700,-94157.250,-24957.220,-27231.080,-26769.000,-27844.910,-0.127,0.934,-0.328,-2.960,2.441,-0.427,73.333,595.000,1.000,0.003,0.000
-33611.740,-31860.740,-100415.700,-94459.250,-25031.530,-27286.190,-26811.710,-27893.510,-0.131,0.938,-0.329,-2.838,2.563,-0.519,73.333,596.000,1.000,3.719,0.000
-33688.820,-31927.090,-100743.200,-94756.200,-25104.560,-27340.430,-26852.160,-27940.170,-0.132,0.938,-0.328,-2.716,2.441,-0.702,73.333,597.000,1.000,0.005,0.000
-33765.880,-31995.410,-101069.200,-95049.890,-25177.980,-27395.750,-26894.090,-27988.290,-0.132,0.940,-0.329,-2.655,2.563,-0.885,73.333,598.000,1.000,0.004,0.000
-33842.350,-32062.580,-101391.900,-95341.150,-25249.050,-27449.470,-26935.570,-28036.170,-0.134,0.941,-0.325,-2.533,2.380,-0.977,73.333,599.000,1.000,6.322,0.000
-33911.340,-32122.550,-101707.300,-95628.260,-25315.580,-27498.700,-26972.780,-28080.450,-0.130,0.940,-0.326,-2.655,2.441,-1.190,73.333,600.000,1.000,2.441,0.000
-33976.550,-32179.790,-102020.900,-95915.880,-25384.380,-27549.680,-27011.940,-28126.390,-0.133,0.938,-0.321,-2.350,2.411,-1.221,73.333,601.000,1.000,7.509,0.000
-34052.230,-32249.190,-102343.500,-96211.580,-25463.800,-27612.430,-27061.110,-28180.250,-0.129,0.938,-0.326,-2.319,2.411,-1.312,73.333,602.000,1.000,2.479,0.000
-34132.740,-32323.820,-102666.100,-96505.420,-25543.860,-27677.270,-27110.230,-28233.350,-0.131,0.943,-0.324,-2.075,2.380,-1.251,73.333,603.000,1.000,15.642,0.000
-34206.160,-32388.630,-102980.200,-96790.250,-25616.410,-27733.290,-27151.360,-28279.960,-0.129,0.940,-0.326,-2.167,2.228,-1.282,73.333,604.000,1.000,0.009,0.000
-34278.820,-32451.680,-103295.600,-97075.830,-25689.600,-27787.020,-27192.630,-28326.540,-0.131,0.942,-0.328,-2.045,2.258,-1.221,73.333,605.000,1.000,1.807,0.000
-34353.890,-32518.260,-103613.300,-97362.830,-25763.970,-27841.560,-27235.610,-28372.830,-0.132,0.940,-0.330,-2.045,2.075,-1.251,73.333,606.000,1.000,2.579,0.000
-34424.460,-32580.160,-103923.500,-97641.050,-25832.880,-27892.770,-27274.200,-28414.580,-0.132,0.940,-0.330,-2.045,2.014,-1.190,73.333,607.000,1.000,3.113,0.000
-34491.770,-32638.930,-104228.600,-97912.770,-25899.910,-27942.440,-27311.070,-28455.920,-0.134,0.937,-0.323,-1.984,1.770,-1.129,73.333,608.000,1.000,0.006,0.000
-34560.720,-32702.870,-104534.400,-98186.140,-25970.500,-27994.920,-27351.510,-28501.650,-0.136,0.936,-0.324,-2.014,1.862,-0.977,73.333,609.000,1.000,4.309,0.000
-34632.780,-32771.860,-104841.100,-98461.980,-26044.670,-28052.390,-27396.770,-28551.940,-0.139,0.937,-0.322,-1.831,1.740,-0.824,73.333,610.000,1.000,2.593,0.000
-34704.790,-32838.480,-105144.300,-98735.660,-26117.970,-28111.470,-27441.280,-28599.860,-0.140,0.934,-0.327,-1.923,1.587,-0.916,73.333,611.000,1.000,8.731,0.000
-34767.560,-32894.860,-105435.300,-99000.800,-26182.600,-28161.290,-27474.900,-28637.640,-0.145,0.935,-0.324,-1.678,1.251,-0.824,73.333,612.000,1.000,4.348,0.000
-34823.320,-32944.730,-105717.400,-99262.840,-26241.000,-28201.270,-27499.960,-28669.730,-0.143,0.933,-0.327,-1.740,0.824,-0.977,73.333,613.000,1.000,0.018,0.000
-34888.460,-33005.390,-106008.600,-99534.900,-26307.600,-28248.860,-27532.580,-28708.350,-0.144,0.937,-0.325,-1.587,0.671,-0.916,73.333,614.000,1.000,6.157,0.000
-34968.130,-33081.040,-106314.400,-99816.690,-26387.600,-28312.830,-27580.410,-28759.040,-0.139,0.937,-0.327,-1.587,0.305,-0.946,73.333,615.000,1.000,0.009,0.000
-35046.070,-33149.660,-106617.800,-100091.400,-26465.070,-28375.210,-27628.870,-28810.490,-0.138,0.940,-0.326,-1.678,0.122,-0.885,73.333,616.000,1.000,34.534,0.000
-35109.720,-33199.270,-106906.000,-100347.500,-26526.800,-28419.540,-27663.860,-28850.280,-0.139,0.940,-0.326,-1.740,-0.122,-0.793,73.333,617.000,1.000,7.315,0.000
-35169.520,-33247.770,-107189.400,-100596.400,-26584.410,-28456.990,-27693.800,-28885.480,-0.137,0.939,-0.325,-1.862,-0.305,-0.671,73.333,618.000,1.000,0.011,0.000
-35236.560,-33306.340,-107479.300,-100855.100,-26652.440,-28503.770,-27731.130,-28928.980,-0.138,0.938,-0.325,-1.862,-0.519,-0.519,73.333,619.000,1.000,0.003,0.000
-35304.900,-33365.880,-107769.800,-101121.400,-26724.570,-28556.520,-27771.390,-28977.540,-0.134,0.937,-0.328,-2.045,-0.671,-0.488,73.333,620.000,1.000,2.609,0.000
-35368.630,-33420.560,-108051.400,-101381.100,-26787.980,-28603.590,-27803.450,-29019.070,-0.133,0.934,-0.329,-2.014,-0.732,-0.305,73.333,621.000,1.000,6.293,0.000
-35428.560,-33470.400,-108322.800,-101627.400,-26841.080,-28641.360,-27825.150,-29049.240,-0.128,0.936,-0.333,-2.319,-0.854,-0.366,73.333,622.000,1.000,2.467,0.000
-35488.680,-33519.430,-108591.400,-101867.500,-26894.160,-28679.040,-27847.860,-29077.650,-0.128,0.938,-0.324,-2.136,-0.702,-0.122,73.333,623.000,1.000,2.404,0.000
-35558.970,-33580.130,-108870.200,-102119.600,-26961.260,-28730.000,-27885.100,-29118.780,-0.126,0.936,-0.325,-2.350,-0.793,-0.183,73.333,624.000,1.000,2.541,0.000
-35638.980,-33653.900,-109158.800,-102385.000,-27040.270,-28792.090,-27933.290,-29170.720,-0.126,0.936,-0.329,-2.380,-0.732,-0.122,73.333,625.000,1.000,2.500,0.000
-35713.580,-33724.120,-109442.800,-102644.600,-27114.450,-28850.590,-27978.300,-29218.250,-0.124,0.930,-0.329,-2.563,-0.732,-0.153,73.333,626.000,1.000,2.516,0.000
-35781.760,-33784.760,-109721.700,-102896.000,-27181.940,-28901.970,-28017.810,-29259.820,-0.121,0.927,-0.333,-2.411,-0.641,-0.275,73.333,627.000,1.000,2.439,0.000
-35848.560,-33840.370,-110000.100,-103146.100,-27248.060,-28949.050,-28054.450,-29301.920,-0.121,0.925,-0.332,-2.350,-0.549,-0.458,73.333,628.000,1.000,7.609,0.000
-35905.880,-33888.910,-110267.400,-103384.400,-27304.270,-28986.360,-28079.700,-29334.770,-0.118,0.924,-0.332,-2.289,-0.397,-0.702,73.333,629.000,1.000,2.408,0.000
-35958.830,-33936.620,-110526.500,-103614.700,-27355.280,-29021.480,-28099.980,-29359.970,-0.119,0.921,-0.334,-2.045,-0.275,-0.732,73.333,630.000,1.000,2.581,0.000
-36023.870,-33996.480,-110796.000,-103858.400,-27420.950,-29072.200,-28139.660,-29401.300,-0.114,0.915,-0.339,-1.892,-0.153,-0.916,73.333,631.000,1.000,4.963,0.000
-36100.270,-34066.460,-111077.000,-104117.600,-27501.970,-29137.420,-28199.950,-29462.110,-0.115,0.913,-0.333,-1.587,0.031,-0.946,73.333,632.000,1.000,3.096,0.000
-36173.860,-34132.850,-111353.700,-104375.000,-27581.230,-29202.690,-28257.290,-29520.960,-0.115,0.907,-0.336,-1.434,0.275,-1.221,73.333,633.000,1.000,0.006,0.000
-36231.160,-34183.640,-111610.700,-104612.400,-27642.970,-29252.890,-28293.090,-29560.680,-0.118,0.904,-0.333,-1.160,0.580,-1.434,73.333,634.000,1.000,1.911,0.000
-36274.360,-34221.020,-111850.400,-104831.300,-27689.710,-29286.180,-28311.550,-29584.430,-0.120,0.900,-0.333,-0.885,0.763,-1.678,73.333,635.000,1.000,2.423,0.000
-36320.160,-34262.290,-112090.900,-105049.000,-27739.310,-29319.050,-28330.470,-29608.670,-0.121,0.899,-0.332,-0.366,1.099,-2.197,73.333,636.000,1.000,5.617,0.000
-36378.630,-34317.390,-112342.400,-105276.000,-27800.890,-29364.370,-28359.360,-29642.970,-0.117,0.902,-0.331,0.397,1.312,-2.747,73.333,637.000,1.000,0.006,0.000
-36449.430,-34381.960,-112605.200,-105514.800,-27871.990,-29420.150,-28398.120,-29687.350,-0.110,0.909,-0.331,0.793,1.678,-3.204,73.333,638.000,1.000,1.923,0.000
-36524.910,-34447.600,-112873.800,-105759.100,-27945.770,-29475.690,-28441.700,-29736.270,-0.109,0.919,-0.331,1.434,2.014,-3.510,73.333,639.000,1.000,2.496,0.000
-36591.290,-34504.300,-113134.700,-105993.000,-28010.930,-29519.650,-28478.140,-29777.290,-0.107,0.932,-0.333,1.556,2.472,-3.906,73.333,640.000,1.000,2.530,0.000
-36645.660,-34550.210,-113382.200,-106217.000,-28065.000,-29553.610,-28502.990,-29807.000,-0.112,0.941,-0.330,1.709,2.899,-3.967,73.333,641.000,1.000,2.425,0.000
-36698.460,-34593.980,-113626.100,-106444.300,-28118.580,-29590.670,-28527.880,-29837.280,-0.116,0.945,-0.334,1.556,3.174,-4.120,73.333,642.000,1.000,9.399,0.000
-36752.080,-34638.990,-113870.500,-106669.100,-28174.130,-29631.620,-28557.200,-29870.390,-0.118,0.951,-0.333,1.343,3.479,-3.998,73.333,643.000,1.000,0.011,0.000
-36801.020,-34680.340,-114109.500,-106880.600,-28224.300,-29666.550,-28583.260,-29897.770,-0.117,0.953,-0.339,0.977,3.693,-3.937,73.333,644.000,1.000,1.939,0.000
-36848.600,-34718.210,-114346.100,-107089.000,-28271.980,-29698.570,-28608.250,-29923.540,-0.122,0.956,-0.338,0.854,3.998,-3.815,73.333,645.000,1.000,2.534,0.000
-36901.060,-34758.970,-114586.900,-107305.400,-28325.190,-29736.860,-28638.440,-29956.470,-0.121,0.958,-0.336,0.458,4.242,-3.662,73.333,646.000,1.000,8.721,0.000
-36958.000,-34808.680,-114830.900,-107525.100,-28382.950,-29779.780,-28671.520,-29993.990,-0.126,0.960,-0.339,0.183,4.456,-3.448,73.333,647.000,1.000,3.042,0.000
-37016.910,-34864.660,-115075.400,-107745.000,-28441.930,-29823.270,-28705.340,-30031.950,-0.125,0.958,-0.340,-0.244,4.578,-3.174,73.333,648.000,1.000,0.011,0.000
-37075.960,-34919.180,-115317.600,-107964.800,-28500.670,-29865.930,-28738.770,-30069.440,-0.132,0.959,-0.339,-0.549,4.639,-2.869,73.333,649.000,1.000,21.869,0.000
-37124.750,-34962.680,-115546.000,-108171.900,-28548.130,-29897.170,-28759.800,-30095.170,-0.138,0.956,-0.335,-0.854,4.608,-2.441,73.333,650.000,1.000,3.678,0.000
-37160.960,-34992.850,-115759.900,-108363.800,-28583.710,-29917.480,-28768.210,-30108.630,-0.145,0.955,-0.333,-1.343,4.608,-2.167,73.333,651.000,1.000,0.008,0.000
-37209.390,-35033.390,-115986.500,-108568.000,-28634.560,-29953.860,-28792.480,-30137.590,-0.148,0.953,-0.337,-1.678,4.395,-1.984,73.333,652.000,1.000,0.003,0.000
-37278.660,-35096.630,-116234.300,-108793.500,-28707.640,-30013.180,-28840.330,-30188.330,-0.150,0.954,-0.341,-2.197,4.272,-1.740,73.333,653.000,1.000,2.588,0.000
-37349.810,-35165.040,-116483.200,-109019.300,-28781.850,-30073.380,-28888.360,-30237.830,-0.152,0.953,-0.338,-2.502,3.906,-1.373,73.333,654.000,1.000,2.526,0.000
-37409.400,-35221.240,-116720.100,-109232.300,-28844.710,-30120.610,-28922.150,-30273.810,-0.148,0.954,-0.339,-2.960,3.906,-1.282,73.333,655.000,1.000,2.477,0.000
-37456.330,-35262.340,-116943.800,-109430.800,-28896.200,-30155.300,-28943.830,-30298.100,-0.154,0.954,-0.335,-3.082,3.479,-1.068,73.333,656.000,1.000,2.502,0.000
-37495.470,-35295.410,-117158.200,-109618.900,-28941.060,-30182.900,-28960.130,-30316.240,-0.150,0.955,-0.335,-3.632,3.113,-0.977,73.333,657.000,1.000,2.443,0.000
-37537.140,-35331.710,-117372.800,-109811.900,-28988.900,-30213.380,-28980.180,-30338.670,-0.151,0.960,-0.332,-3.967,2.960,-0.580,73.333,658.000,1.000,6.887,0.000
-37584.810,-35374.420,-117591.400,-110013.400,-29040.960,-30249.750,-29005.120,-30367.630,-0.150,0.962,-0.333,-4.578,2.686,-0.366,73.333,659.000,1.000,0.009,0.000
-37632.480,-35417.900,-117808.300,-110210.900,-29091.380,-30287.290,-29031.910,-30398.960,-0.154,0.963,-0.332,-5.066,2.411,0.000,73.333,660.000,1.000,1.902,0.000
-37684.580,-35467.180,-118029.200,-110408.800,-29146.610,-30329.900,-29066.730,-30437.330,-0.157,0.962,-0.336,-5.615,2.014,0.397,73.333,661.000,1.000,8.775,0.000
-37739.370,-35518.110,-118252.800,-110610.500,-29204.250,-30374.190,-29101.950,-30473.690,-0.156,0.960,-0.336,-6.226,1.709,0.671,73.333,662.000,1.000,4.256,0.000
-37783.300,-35554.670,-118464.500,-110801.700,-29249.300,-30406.040,-29122.280,-30493.500,-0.157,0.953,-0.331,-6.561,1.221,0.946,73.333,663.000,1.000,0.008,0.000
-37819.320,-35581.510,-118666.400,-110981.300,-29284.910,-30427.240,-29133.980,-30507.260,-0.152,0.947,-0.333,-6.958,0.946,1.099,73.333,664.000,1.000,1.907,0.000
-37867.790,-35620.320,-118877.600,-111169.100,-29331.490,-30457.210,-29155.410,-30535.110,-0.149,0.940,-0.332,-7.050,0.671,1.312,73.333,665.000,1.000,16.306,0.000
-37929.630,-35671.270,-119098.500,-111370.100,-29389.740,-30498.130,-29185.870,-30573.070,-0.140,0.934,-0.331,-7.294,0.427,1.190,73.333,666.000,1.000,3.123,0.000
-37982.540,-35715.690,-119310.200,-111562.800,-29440.720,-30534.170,-29212.700,-30604.360,-0.138,0.928,-0.330,-7.080,0.427,1.312,73.333,667.000,1.000,0.010,0.000
-38026.930,-35756.470,-119514.100,-111743.800,-29487.160,-30567.370,-29240.390,-30633.330,-0.135,0.922,-0.328,-7.111,0.275,1.221,73.333,668.000,1.000,1.853,0.000
-38078.230,-35803.960,-119723.500,-111932.800,-29542.700,-30607.440,-29275.510,-30670.590,-0.132,0.918,-0.327,-6.866,0.366,1.282,73.333,669.000,1.000,2.569,0.000
-38129.050,-35849.180,-119931.800,-112126.500,-29599.420,-30648.060,-29308.310,-30706.880,-0.126,0.910,-0.329,-6.592,0.336,1.099,73.333,670.000,1.000,6.133,0.000
-38169.680,-35886.110,-120129.800,-112309.600,-29646.170,-30681.280,-29330.870,-30731.720,-0.121,0.908,-0.328,-6.226,0.641,0.793,73.333,671.000,1.000,5.617,0.000
-38207.860,-35919.960,-120323.500,-112486.900,-29686.700,-30707.640,-29346.370,-30750.610,-0.119,0.905,-0.328,-5.585,0.763,0.610,73.333,672.000,1.000,0.010,0.000
-38243.000,-35948.050,-120511.600,-112658.900,-29721.620,-30726.220,-29355.060,-30766.510,-0.113,0.907,-0.328,-5.219,1.099,0.397,73.333,673.000,1.000,1.943,0.000
-38277.250,-35974.670,-120697.900,-112827.600,-29758.900,-30749.280,-29368.590,-30787.280,-0.116,0.907,-0.321,-4.639,1.495,0.214,73.333,674.000,1.000,8.775,0.000
-38327.730,-36015.920,-120899.600,-113010.000,-29814.750,-30793.590,-29402.840,-30824.010,-0.114,0.909,-0.326,-4.272,1.770,-0.183,73.333,675.000,1.000,3.080,0.000
-38384.270,-36065.660,-121105.700,-113194.200,-29874.410,-30840.170,-29438.680,-30860.300,-0.115,0.914,-0.324,-3.601,2.136,-0.244,73.333,676.000,1.000,0.008,0.000
-38423.070,-36105.050,-121293.600,-113356.900,-29915.340,-30864.820,-29452.980,-30877.560,-0.114,0.915,-0.323,-3.174,2.350,-0.610,73.333,677.000,1.000,1.879,0.000
-38455.750,-36139.740,-121476.100,-113517.700,-29951.160,-30883.930,-29461.180,-30888.770,-0.118,0.922,-0.320,-2.716,2.655,-0.824,73.333,678.000,1.000,12.474,0.000
-38498.570,-36178.860,-121668.800,-113694.500,-29997.040,-30915.150,-29480.710,-30907.850,-0.121,0.928,-0.322,-2.380,2.869,-1.038,73.333,679.000,1.000,3.054,0.000
-38546.230,-36219.840,-121866.600,-113876.300,-30048.040,-30952.810,-29507.790,-30933.740,-0.124,0.933,-0.317,-2.136,3.052,-1.282,73.333,680.000,1.000,0.004,0.000
-38594.840,-36263.590,-122065.900,-114057.000,-30101.700,-30994.130,-29538.350,-30966.840,-0.127,0.935,-0.318,-1.801,2.991,-1.434,73.333,681.000,1.000,1.927,0.000
-38637.520,-36302.500,-122257.900,-114228.000,-30150.210,-31030.820,-29562.130,-30996.620,-0.130,0.939,-0.318,-1.801,3.113,-1.678,73.333,682.000,1.000,3.706,0.000
-38670.140,-36331.080,-122437.400,-114385.600,-30189.350,-31056.300,-29573.750,-31015.260,-0.133,0.939,-0.315,-1.556,3.082,-1.862,73.333,683.000,1.000,11.314,0.000
-38706.600,-36361.840,-122619.200,-114547.000,-30234.410,-31085.460,-29591.250,-31038.730,-0.134,0.943,-0.319,-1.587,3.143,-2.014,73.333,684.000,1.000,8.035,0.000
-38751.190,-36399.310,-122807.100,-114716.500,-30286.970,-31122.100,-29619.060,-31070.470,-0.139,0.943,-0.321,-1.434,2.991,-2.045,73.333,685.000,1.000,0.044,0.000
-38790.480,-36433.500,-122986.700,-114878.600,-30329.330,-31150.720,-29639.130,-31093.170,-0.137,0.946,-0.322,-1.587,2.899,-2.167,73.333,686.000,1.000,1.916,0.000
-38829.280,-36468.420,-123163.700,-115038.400,-30367.590,-31178.270,-29656.890,-31113.620,-0.139,0.949,-0.322,-1.617,2.838,-2.075,73.333,687.000,1.000,2.470,0.000
-38879.890,-36513.220,-123351.500,-115206.900,-30417.430,-31218.590,-29686.910,-31146.930,-0.135,0.947,-0.324,-1.709,2.533,-2.075,73.333,688.000,1.000,2.506,0.000
-38926.900,-36554.570,-123534.800,-115368.300,-30464.700,-31254.200,-29712.730,-31176.220,-0.137,0.945,-0.323,-1.678,2.380,-1.862,73.333,689.000,1.000,2.446,0.000
-38956.840,-36579.550,-123700.600,-115514.200,-30495.710,-31271.620,-29721.220,-31188.150,-0.139,0.943,-0.323,-1.648,2.350,-1.801,73.333,690.000,1.000,11.321,0.000
-38986.260,-36601.360,-123864.600,-115662.900,-30525.080,-31288.090,-29729.390,-31198.880,-0.143,0.945,-0.320,-1.678,2.167,-1.648,73.333,691.000,1.000,3.078,0.000
-39026.250,-36631.890,-124036.600,-115820.600,-30562.070,-31313.090,-29746.450,-31216.790,-0.143,0.943,-0.325,-1.862,1.892,-1.648,73.333,692.000,1.000,0.005,0.000
-39065.690,-36664.060,-124206.300,-115974.100,-30598.500,-31337.390,-29762.990,-31233.950,-0.142,0.942,-0.321,-1.831,1.740,-1.343,73.333,693.000,1.000,1.880,0.000
-39094.020,-36689.390,-124366.200,-116117.400,-30628.840,-31356.800,-29773.390,-31245.900,-0.143,0.941,-0.322,-1.770,1.495,-1.038,73.333,694.000,1.000,8.784,0.000
-39111.790,-36704.670,-124515.800,-116253.100,-30652.990,-31369.960,-29777.210,-31253.060,-0.141,0.941,-0.323,-1.892,1.404,-0.824,73.333,695.000,1.000,3.128,0.000
-39137.560,-36724.540,-124669.200,-116393.400,-30685.240,-31386.640,-29787.210,-31268.950,-0.141,0.939,-0.322,-1.892,1.129,-0.580,73.333,696.000,1.000,0.010,0.000
-39180.560,-36761.070,-124837.300,-116547.700,-30733.330,-31416.650,-29810.730,-31298.510,-0.136,0.935,-0.323,-1.984,1.160,-0.458,73.333,697.000,1.000,1.803,0.000
-39226.070,-36801.050,-125008.800,-116707.700,-30781.550,-31448.530,-29834.220,-31326.050,-0.135,0.935,-0.326,-1.923,1.068,0.031,73.333,698.000,1.000,18.835,0.000
-39271.510,-36840.400,-125179.800,-116865.600,-30826.430,-31478.060,-29855.130,-31350.280,-0.129,0.935,-0.327,-2.045,0.946,0.092,73.333,699.000,1.000,3.047,0.000
-39317.430,-36881.520,-125351.000,-117019.500,-30873.260,-31509.330,-29877.350,-31376.730,-0.131,0.938,-0.329,-1.923,0.854,0.397,73.333,700.000,1.000,0.009,0.000
-39352.450,-36914.980,-125513.400,-117163.700,-30915.690,-31536.370,-29895.400,-31398.280,-0.127,0.939,-0.333,-2.014,0.793,0.610,73.333,701.000,1.000,1.847,0.000
-39377.000,-36938.960,-125665.100,-117299.700,-30951.840,-31557.550,-29909.270,-31413.570,-0.130,0.941,-0.334,-2.045,0.732,0.702,73.333,702.000,1.000,2.557,0.000
-39393.680,-36953.150,-125806.300,-117427.000,-30979.610,-31570.890,-29916.810,-31422.070,-0.128,0.936,-0.334,-2.075,0.763,0.763,73.333,703.000,1.000,11.214,0.000
-39407.980,-36965.100,-125942.300,-117548.800,-31001.360,-31578.940,-29917.530,-31425.710,-0.124,0.932,-0.332,-2.136,0.824,0.763,73.333,704.000,1.000,2.580,0.000
-39444.560,-37000.610,-126098.100,-117688.800,-31040.660,-31604.790,-29931.830,-31445.760,-0.121,0.928,-0.330,-2.136,0.916,0.763,73.333,705.000,1.000,2.448,0.000
-39501.890,-37052.170,-126273.600,-117847.700,-31098.900,-31649.740,-29964.030,-31481.840,-0.119,0.926,-0.330,-2.075,0.916,0.763,73.333,706.000,1.000,2.551,0.000
-39551.140,-37088.100,-126440.800,-117998.300,-31150.420,-31688.280,-29992.490,-31510.660,-0.122,0.923,-0.329,-1.892,1.160,0.671,73.333,707.000,1.000,2.409,0.000
-39588.990,-37114.190,-126596.200,-118135.500,-31192.250,-31716.570,-30011.820,-31532.180,-0.125,0.930,-0.331,-1.862,1.312,0.488,73.333,708.000,1.000,2.486,0.000
-39626.700,-37147.770,-126751.100,-118272.300,-31234.940,-31745.610,-30031.320,-31556.210,-0.132,0.933,-0.333,-1.801,1.221,0.153,73.333,709.000,1.000,2.567,0.000
-39660.130,-37178.360,-126901.400,-118408.500,-31273.100,-31770.770,-30048.050,-31576.870,-0.133,0.937,-0.334,-1.831,1.160,-0.183,73.333,710.000,1.000,9.344,0.000
-39680.050,-37194.200,-127037.600,-118532.400,-31297.900,-31783.230,-30052.230,-31584.510,-0.134,0.937,-0.334,-1.709,1.129,-0.641,73.333,711.000,1.000,0.011,0.000
-39694.880,-37207.590,-127167.800,-118647.600,-31319.380,-31794.860,-30053.430,-31589.070,-0.128,0.938,-0.337,-1.984,1.099,-1.068,73.333,712.000,1.000,1.828,0.000
-39721.230,-37232.560,-127308.000,-118772.300,-31352.760,-31821.920,-30068.380,-31607.190,-0.124,0.937,-0.333,-1.953,1.129,-1.343,73.333,713.000,1.000,8.817,0.000
-39754.140,-37260.850,-127452.200,-118904.800,-31390.870,-31854.510,-30089.040,-31631.120,-0.117,0.937,-0.335,-2.014,1.282,-1.526,73.333,714.000,1.000,6.893,0.000
-39777.370,-37279.250,-127583.800,-119025.000,-31417.010,-31873.170,-30098.100,-31643.260,-0.116,0.939,-0.333,-1.953,1.526,-1.617,73.333,715.000,1.000,0.016,0.000
-39793.070,-37291.740,-127707.000,-119134.200,-31434.100,-31881.030,-30097.620,-31645.750,-0.113,0.939,-0.332,-2.228,1.770,-1.617,73.333,716.000,1.000,19.263,0.000
-39817.100,-37313.000,-127839.200,-119250.400,-31458.380,-31895.190,-30101.290,-31653.210,-0.116,0.940,-0.332,-2.258,2.106,-1.495,73.333,717.000,1.000,0.015,0.000
-39853.170,-37345.850,-127981.800,-119376.600,-31492.810,-31918.600,-30112.460,-31669.560,-0.118,0.941,-0.333,-2.502,2.350,-1.404,73.333,718.000,1.000,0.004,0.000
-39890.930,-37378.270,-128123.300,-119502.800,-31527.800,-31941.660,-30125.200,-31686.940,-0.123,0.942,-0.328,-2.625,2.686,-1.343,73.333,719.000,1.000,2.514,0.000
-39921.680,-37401.890,-128256.800,-119620.600,-31557.860,-31960.460,-30136.260,-31699.910,-0.125,0.942,-0.333,-2.869,2.838,-1.282,73.333,720.000,1.000,3.748,0.000
-39949.160,-37422.110,-128387.100,-119736.300,-31586.330,-31978.450,-30145.600,-31711.320,-0.129,0.940,-0.331,-2.899,2.930,-1.129,73.333,721.000,1.000,0.011,0.000
-39980.190,-37446.100,-128520.300,-119859.200,-31618.330,-31998.320,-30155.180,-31725.010,-0.132,0.938,-0.330,-2.991,2.960,-1.068,73.333,722.000,1.000,0.007,0.000
-40001.110,-37460.920,-128643.700,-119973.200,-31643.820,-32008.860,-30158.860,-31732.090,-0.134,0.936,-0.329,-3.052,2.991,-1.007,73.333,723.000,1.000,2.468,0.000
-40013.080,-37467.820,-128760.100,-120077.200,-31664.840,-32013.720,-30161.770,-31736.180,-0.136,0.934,-0.326,-3.052,2.930,-0.824,73.333,724.000,1.000,2.549,0.000
-40039.110,-37490.320,-128891.500,-120191.200,-31700.830,-32036.390,-30181.450,-31754.520,-0.136,0.932,-0.331,-3.204,2.777,-0.885,73.333,725.000,1.000,13.724,0.000
-40075.080,-37525.230,-129031.900,-120312.500,-31747.070,-32071.150,-30209.790,-31781.280,-0.138,0.929,-0.329,-2.991,2.716,-0.824,73.333,726.000,1.000,6.868,0.000
-40107.650,-37559.140,-129168.000,-120433.300,-31790.580,-32100.580,-30231.880,-31804.460,-0.138,0.928,-0.331,-3.021,2.625,-0.824,73.333,727.000,1.000,0.012,0.000
-40136.140,-37588.740,-129298.400,-120550.100,-31828.610,-32124.470,-30246.810,-31822.440,-0.140,0.927,-0.325,-2.899,2.625,-0.610,73.333,728.000,1.000,2.485,0.000
-40157.430,-37607.410,-129417.900,-120655.300,-31856.410,-32141.320,-30252.810,-31832.370,-0.139,0.927,-0.328,-2.991,2.441,-0.519,73.333,729.000,1.000,0.004,0.000
-40171.350,-37616.550,-129526.200,-120749.800,-31874.480,-32148.730,-30250.450,-31834.780,-0.141,0.930,-0.327,-2.686,2.289,-0.366,73.333,730.000,1.000,1.650,0.000
-40189.520,-37629.450,-129638.600,-120849.700,-31896.420,-32159.540,-30252.500,-31842.660,-0.139,0.930,-0.327,-2.838,2.197,-0.214,73.333,731.000,1.000,12.714,0.000
-40212.130,-37645.410,-129757.400,-120958.000,-31923.210,-32176.620,-30259.720,-31856.900,-0.140,0.930,-0.324,-2.625,2.136,-0.122,73.333,732.000,1.000,4.903,0.000
-40233.010,-37659.840,-129873.300,-121062.600,-31946.050,-32190.520,-30263.390,-31866.580,-0.138,0.931,-0.326,-2.655,1.862,0.000,73.333,733.000,1.000,0.008,0.000
-40257.430,-37680.380,-129991.300,-121166.500,-31970.910,-32205.770,-30269.880,-31876.420,-0.139,0.935,-0.323,-2.563,1.892,0.214,73.333,734.000,1.000,0.007,0.000
-40285.230,-37705.570,-130113.600,-121275.200,-32002.180,-32226.010,-30282.540,-31891.500,-0.136,0.937,-0.323,-2.594,1.770,0.305,73.333,735.000,1.000,4.381,0.000
-40310.200,-37726.770,-130232.400,-121381.400,-32033.070,-32244.600,-30294.350,-31906.190,-0.136,0.939,-0.324,-2.686,1.709,0.488,73.333,736.000,1.000,0.009,0.000
-40329.780,-37742.980,-130342.500,-121476.800,-32057.350,-32255.630,-30299.700,-31914.880,-0.135,0.937,-0.326,-2.747,1.648,0.610,73.333,737.000,1.000,5.687,0.000
-40349.990,-37761.760,-130450.500,-121569.400,-32080.820,-32264.940,-30304.040,-31921.610,-0.132,0.938,-0.329,-2.777,1.648,0.671,73.333,738.000,1.000,8.785,0.000
-40375.270,-37784.090,-130563.300,-121668.900,-32109.880,-32280.770,-30314.570,-31933.070,-0.133,0.937,-0.327,-2.686,1.526,0.793,73.333,739.000,1.000,9.340,0.000
-40395.100,-37798.200,-130671.200,-121766.200,-32134.730,-32294.280,-30322.270,-31942.790,-0.127,0.938,-0.328,-2.747,1.556,0.916,73.333,740.000,1.000,0.015,0.000
-40403.290,-37801.730,-130766.300,-121851.900,-32147.880,-32296.760,-30319.950,-31943.510,-0.125,0.936,-0.327,-2.747,1.526,0.946,73.333,741.000,1.000,2.485,0.000
-40413.020,-37807.730,-130860.300,-121935.500,-32161.410,-32300.150,-30319.600,-31944.670,-0.122,0.934,-0.330,-2.808,1.526,0.885,73.333,742.000,1.000,0.011,0.000
-40435.040,-37822.380,-130965.400,-122030.000,-32186.530,-32315.210,-30330.150,-31955.300,-0.125,0.931,-0.328,-2.777,1.556,1.068,73.333,743.000,1.000,3.042,0.000
-40452.210,-37830.880,-131065.800,-122119.500,-32206.600,-32323.960,-30332.710,-31958.650,-0.122,0.931,-0.328,-2.747,1.587,0.946,73.333,744.000,1.000,14.483,0.000
-40458.480,-37834.510,-131154.700,-122195.900,-32215.750,-32320.930,-30321.970,-31950.650,-0.125,0.931,-0.329,-2.502,1.678,0.854,73.333,745.000,1.000,0.016,0.000
-40480.210,-37856.600,-131257.400,-122284.400,-32240.870,-32334.390,-30327.230,-31958.700,-0.125,0.931,-0.334,-2.594,1.617,0.702,73.333,746.000,1.000,1.828,0.000
-40515.880,-37887.250,-131372.700,-122387.500,-32280.740,-32362.740,-30348.040,-31981.040,-0.126,0.931,-0.333,-2.472,1.587,0.641,73.333,747.000,1.000,2.444,0.000
-40544.760,-37909.520,-131480.300,-122487.600,-32314.340,-32384.040,-30361.930,-31996.440,-0.125,0.931,-0.336,-2.594,1.556,0.427,73.333,748.000,1.000,2.554,0.000
-40570.220,-37933.880,-131584.900,-122584.400,-32345.240,-32401.290,-30371.800,-32007.720,-0.127,0.933,-0.335,-2.533,1.648,0.092,73.333,749.000,1.000,8.730,0.000
-40594.680,-37958.690,-131688.800,-122676.700,-32376.740,-32418.110,-30382.350,-32017.870,-0.127,0.934,-0.341,-2.716,1.556,-0.214,73.333,750.000,1.000,3.042,0.000
-40610.190,-37971.010,-131782.600,-122757.100,-32399.690,-32427.190,-30386.790,-32019.980,-0.129,0.938,-0.339,-2.625,1.495,-0.488,73.333,751.000,1.000,0.005,0.000
-40619.660,-37975.820,-131868.400,-122828.900,-32415.050,-32430.340,-30387.090,-32017.200,-0.130,0.938,-0.338,-2.716,1.404,-0.854,73.333,752.000,1.000,10.646,0.000
-40633.000,-37984.180,-131957.000,-122903.100,-32432.690,-32437.490,-30391.420,-32019.350,-0.131,0.943,-0.340,-2.808,1.343,-1.160,73.333,753.000,1.000,3.178,0.000
-40649.520,-37994.600,-132047.500,-122982.600,-32453.140,-32448.250,-30396.770,-32025.250,-0.132,0.940,-0.337,-2.869,1.312,-1.251,73.333,754.000,1.000,0.008,0.000
-40659.480,-37999.610,-132131.000,-123059.300,-32467.990,-32454.030,-30393.890,-32025.890,-0.129,0.940,-0.334,-2.960,1.190,-1.495,73.333,755.000,1.000,1.675,0.000
-40666.320,-38003.950,-132211.900,-123134.000,-32481.570,-32459.630,-30389.470,-32026.610,-0.129,0.941,-0.337,-2.960,1.099,-1.556,73.333,756.000,1.000,7.664,0.000
-40683.880,-38019.520,-132302.600,-123215.700,-32506.620,-32475.460,-30396.040,-32038.360,-0.128,0.942,-0.344,-3.021,1.007,-1.831,73.333,757.000,1.000,3.101,0.000
-40709.520,-38042.610,-132399.400,-123301.600,-32539.070,-32495.910,-30408.750,-32055.540,-0.131,0.944,-0.340,-3.143,0.977,-1.862,73.333,758.000,1.000,0.008,0.000
-40729.110,-38059.160,-132489.200,-123380.100,-32565.370,-32509.450,-30415.610,-32066.110,-0.130,0.944,-0.339,-3.326,0.916,-1.801,73.333,759.000,1.000,1.910,0.000
-40741.270,-38068.040,-132571.100,-123449.800,-32584.000,-32515.850,-30415.070,-32068.340,-0.135,0.943,-0.336,-3.387,0.916,-1.617,73.333,760.000,1.000,13.742,0.000
